"AF3","AF4","F3","F4","F7","F8","FC5","FC6","O1","O2","P7","P8","T7","T8",
-7.2308,25.5489,21.6925,8.1947,17.8361,-1.4463,-14.4617,5.3026,-13.0154,1.4463,9.159,-17.8357,-4.3383,-9.159,
-1.9763,25.4618,20.3905,1.4365,2.666,-0.39516,-9.7376,7.3946,-15.6089,2.3234,8.6095,-11.9453,-6.9705,-10.5377,
-6.9192,22.2471,11.2136,-0.33668,16.606,-3.5047,-4.0914,7.6741,-21.1801,2.4251,5.4416,-6.1671,0.43734,-9.1823,
-6.9864,19.466,7.6482,-1.7627,29.7096,-1.3667,-3.8464,6.2493,-20.3912,0.83338,3.6688,-6.279,6.6781,-7.1851,
-3.6749,24.5648,12.9741,-1.1748,25.1553,0.64374,-5.5436,9.249,-16.7574,-0.66265,11.6436,-3.01,5.3133,-1.9335,
-14.7826,18.5116,9.0622,0.58245,13.7636,-9.2768,-9.3083,3.6324,-15.511,0.1,12.6323,-4.0347,-0.54912,-3.0228,
-19.68,10.1698,-0.15839,1.0297,3.297,-8.2381,-13.5703,-0.92409,-15.0625,4.9145,6.0895,-4.7567,-1.4803,-5.7337,
-13.679,16.3085,-0.63082,-1.4422,-3.6497,2.3791,-13.2385,1.5415,-16.5689,6.0659,4.2783,1.7957,-0.90952,1.3592,
-14.786,15.812,4.7097,-1.8376,-1.5025,0.30819,-6.1772,-1.4431,-12.2003,-0.082655,2.5754,2.1699,-5.6752,5.616,
-7.3915,13.1763,7.5604,2.8521,8.9517,1.9767,-2.6733,-0.15142,-9.2993,-1.7647,3.144,-0.12971,-2.6838,-0.26436,
2.211,14.3139,4.6961,-2.1397,19.0199,6.1969,-13.1182,4.196,-19.3462,-2.1412,-1.8654,-3.9783,1.816,-8.4437,
2.0783,17.7934,5.8606,-5.8677,19.3245,1.0044,-15.7056,0.57023,-21.5599,-1.0484,-3.1997,-9.0423,1.707,-1.6705,
3.1589,17.4491,9.1244,2.4381,19.8527,-7.4916,-1.5064,-0.66928,-10.8663,-0.74453,-0.35617,-11.6328,-1.047,3.0094,
10.9229,15.6786,8.3358,8.7995,26.1331,-15.4785,5.0912,2.0222,-4.189,-4.7974,-2.5042,-15.0324,-0.74294,-8.0176,
20.8726,19.0764,11.2103,10.1995,11.0676,-18.8878,4.786,1.9006,-2.4912,-5.4737,-1.8718,-20.3972,-1.1805,-13.3209,
23.9588,19.3779,12.4656,10.0697,-3.6965,-13.8984,2.0885,-0.14136,2.9607,-4.1812,3.543,-23.03,-2.0738,-9.1474,
19.629,13.8771,8.8254,9.9477,10.6253,-10.1722,-0.92911,-2.5432,4.7115,-4.8944,1.8843,-19.2378,0.46099,-10.0446,
21.8257,10.6343,13.5985,10.3151,23.9675,-13.9002,4.9112,-3.3545,4.4288,-3.1545,-1.6032,-12.7809,1.3972,-9.4419,
25.3366,7.104,16.6392,8.2502,8.4295,-15.9585,13.2939,-5.0817,6.0915,-0.07292,-5.3631,-10.0856,1.3136,-5.9831,
18.0316,6.1956,8.4098,8.7188,13.8285,-16.447,7.1934,-4.2946,0.42313,0.41362,-11.3081,-8.0344,0.75262,-7.5521,
15.9858,8.234,7.4233,7.7138,22.6398,-14.0144,5.7979,-2.1087,-3.4586,0.87074,-10.6296,-3.696,-4.1133,-0.35053,
20.8113,3.4012,10.3523,-0.46183,7.1814,-8.8347,11.7165,-8.7311,-2.2873,-1.5916,-3.7253,-2.5104,-3.3845,8.3476,
11.6089,0.064068,3.2233,-6.9421,1.8096,-3.7254,-1.7609,-11.8227,-7.6936,-1.2552,0.11362,1.2557,3.8084,8.5696,
-2.8262,-0.18097,-6.3699,-6.2843,15.4395,-8.5633,-15.7553,-7.9796,-6.0265,4.8459,1.3119,3.3497,0.44666,5.8865,
0.95854,-1.3752,-8.639,-3.256,4.631,-10.2189,-8.4227,-3.4037,-1.5678,5.7602,4.8483,3.8719,-7.0517,4.8102,
9.0962,-2.2565,-3.7824,-5.4707,-3.8416,-6.2313,-2.1328,-3.6814,-5.3301,5.8965,2.1473,7.014,-3.2542,6.9317,
8.3092,1.494,2.4704,-4.9013,-2.8879,-2.2418,-4.1742,0.15467,-5.251,11.0866,-2.561,8.7626,1.5206,8.2028,
4.4364,5.261,-3.4622,-2.6792,2.1058,-6.4458,-5.8517,2.0738,-12.167,10.4212,-2.4071,6.3084,-5.3193,1.9263,
10.1958,4.222,-2.5316,-1.7951,12.3433,-11.1207,-0.92132,-0.70217,-14.57,5.2166,2.3166,5.6889,-8.6156,0.60543,
19.9482,4.2099,9.9126,-1.4467,9.9157,-5.874,6.606,-4.2752,-8.1525,-2.5684,0.97251,-1.1601,-3.5191,2.2566,
24.7768,13.3573,13.8971,5.63,11.9719,6.7705,5.9687,-1.8496,-2.1197,-7.9579,-1.255,-6.1522,1.2713,3.326,
20.3979,19.3045,6.3146,5.292,12.2177,7.3288,-4.995,1.6356,-5.3667,-8.4446,-2.1438,-4.819,-3.6254,3.6086,
19.415,16.459,10.9974,1.359,-2.6154,-0.58316,5.1871,0.8146,-10.1064,-6.7326,-2.7385,-0.91442,-1.7207,4.115,
18.9737,12.3382,11.5431,0.072876,-7.6402,-1.2708,15.24,-4.2957,-9.7408,-9.9438,-4.7431,-3.0285,5.3722,-2.1572,
16.1478,19.5519,2.8961,2.2374,6.9182,7.7232,0.22559,1.9878,-4.5773,-4.2857,-2.7716,1.2504,6.2549,-3.2329,
16.384,21.994,3.9278,3.3083,20.6031,3.6447,-7.3805,5.4837,-3.0971,1.9967,-4.2923,1.8985,0.33624,-5.2083,
21.4265,15.6127,11.6455,5.7609,5.267,-5.0101,7.1624,1.0573,-0.74258,-0.29224,-4.7581,-3.7591,0.074644,-12.3676,
17.2486,9.3735,6.1267,4.9335,5.0714,-4.7093,7.8174,-0.93452,0.26653,-4.6133,-2.5442,-6.9077,2.9629,-14.5178,
3.9214,3.7496,-2.1949,2.95,18.8671,-9.9706,0.35874,2.7372,1.9375,-7.9517,-2.1503,-9.1446,3.0259,-15.8161,
-5.7141,-5.8756,-4.7145,3.0142,3.6351,-18.7726,3.9524,1.8498,3.5083,-8.1977,-1.7806,-12.6935,1.1573,-22.3392,
-7.7811,-15.1638,-5.8777,-3.4334,-10.683,-13.3077,1.7873,-1.1534,-0.55837,-6.7417,1.2185,-5.1832,3.4982,-23.4088,
-5.6273,-18.8335,-4.8023,-4.9144,-9.1989,-9.8579,1.9208,0.60276,5.0185,-4.1683,4.2787,5.9738,15.0982,-17.9071,
-11.5559,-22.5239,-9.3342,-2.6915,-7.2004,-15.0508,-1.5687,-1.3614,9.056,-2.9536,2.094,5.6156,17.567,-18.7606,
-16.4064,-24.3058,-12.3898,-4.699,4.0776,-4.2656,-8.4642,3.2998,5.3793,2.285,4.1378,7.93,10.9692,-14.9837,
-14.2167,-24.0527,-9.4773,-7.5505,4.0739,6.3542,1.4432,4.7886,4.3332,2.3889,8.9507,11.0696,11.5163,-7.0948,
-5.8921,-23.3327,-6.7392,-10.2308,-10.2705,6.2137,9.3106,-6.3447,-4.3627,-1.852,7.2086,11.1286,12.5123,-11.731,
6.2717,-21.2096,-3.2016,-11.7863,1.0717,14.7592,2.2447,-11.0255,-3.8597,-0.053443,1.2327,14.5584,12.0028,-9.8216,
-1.3352,-20.9011,-7.83,-11.5608,15.1074,14.8377,-7.0488,-10.3637,-0.25346,-3.4245,-0.76922,9.8283,9.8366,-8.2682,
-12.8242,-13.8625,-10.2523,-1.7086,11.6699,10.0911,-0.84175,-4.9217,3.6181,-0.32693,11.81,8.7567,17.4411,-8.2541,
-12.5369,-14.9587,-9.1554,-0.64199,1.8109,10.4497,-4.6474,-1.7341,3.8828,1.6211,12.5474,7.2672,17.8407,-6.3128,
-4.7953,-17.1946,-6.9189,-8.0753,-4.8057,7.1712,-11.3584,-1.3891,2.4445,2.7287,11.0716,11.8924,15.5649,2.5016,
-8.1228,-17.368,-9.1551,-11.6879,-6.2043,-6.0333,-4.1692,-2.9927,5.9135,5.2163,16.4331,19.1328,15.3546,5.0029,
-9.5636,-19.7004,-7.1595,-9.0584,5.7371,-12.9022,1.3836,-0.88496,2.1842,6.8315,13.5189,19.913,12.0228,2.7745,
-5.6156,-21.4107,-3.8376,-9.479,4.9107,-18.8767,-4.0023,-3.7242,-6.6237,7.3857,2.5847,15.344,5.0347,2.1259,
-4.7965,-19.1619,-2.1614,-8.4281,-9.4839,-25.4566,-2.7976,-10.7313,0.040457,8.871,1.9474,10.0848,3.7689,0.070355,
-0.41156,-14.879,-0.34468,-3.3434,-7.107,-14.5295,-1.4251,-7.9185,6.5457,7.1332,5.9277,6.3465,8.1219,2.717,
1.0596,-10.1296,0.15817,-2.6606,0.55005,-2.0883,0.10685,-0.69472,1.8144,-0.043469,4.126,3.0734,8.1167,12.1952,
-5.2705,-6.1478,-1.7795,-2.9829,-5.7495,-2.9273,3.4749,-0.65304,-6.0072,-5.343,0.50401,3.8529,3.2914,11.9459,
-5.4366,0.96994,-5.5291,0.088141,-6.3688,3.9972,-4.4468,-3.024,-3.7186,-8.3969,-1.4544,4.1041,0.68378,4.4802,
4.29,6.9373,-2.5458,4.6626,-11.5303,14.6036,-10.6875,-1.6372,0.6019,-10.5447,-5.4645,-2.1677,-3.937,3.0061,
10.7811,7.9673,4.8378,6.311,-19.0332,13.245,-4.7436,4.2456,-4.7369,-11.3582,-7.0648,-4.4482,-9.9673,6.2002,
6.76,7.489,3.5834,2.0758,-14.517,10.0404,-3.9768,3.0267,-5.8987,-7.3021,-3.7487,1.1211,-4.5488,6.3103,
3.7031,8.7272,-0.72919,-1.182,0.45404,11.6069,-9.2821,-7.519,-2.8934,0.60764,-2.3182,4.1875,3.1957,5.2086,
5.8912,5.3112,2.6888,0.8173,14.5268,10.4288,-2.9403,-9.4782,-2.2377,4.9097,-5.0719,0.5616,-2.7804,9.7166,
6.9838,-0.31031,5.4197,6.5526,-0.44481,3.5363,1.5746,-0.71456,2.7171,0.75899,-8.6237,-3.8102,-7.9164,13.4721,
4.8775,5.7343,0.99721,12.6674,-14.5181,5.9752,-2.1353,2.9437,11.4721,-2.902,-3.527,-2.8587,1.4766,13.8691,
1.6926,2.498,-0.02672,6.1225,-18.4673,8.0271,-0.56111,-6.8741,6.9272,-5.6201,-2.3508,-6.5433,1.3883,7.7341,
9.545,-3.1958,8.8927,1.1757,-3.2593,3.9298,7.9085,-6.2204,-1.4424,-5.0422,-5.3435,-7.8382,-2.3107,6.5469,
9.9362,-3.004,5.4671,1.1051,-9.6921,-7.8747,7.9159,-3.919,-3.2836,-4.2573,-5.5048,-4.9578,-1.6896,2.2977,
1.8682,-2.1009,-4.7433,2.7261,-7.9053,-10.0537,-0.51281,-4.8892,4.3847,-1.8331,1.8149,0.40139,-1.8297,0.95453,
5.6125,-2.4563,-6.8688,-1.2939,-2.6103,-4.1479,-13.9794,-5.5597,-0.69859,-0.75882,5.5628,4.7156,-7.9864,2.8259,
13.2297,-2.5501,-4.7693,-6.7601,-16.1922,-2.6939,-17.2382,-6.9136,-11.9851,5.3125,0.16716,5.1558,-9.6766,1.9332,
8.5795,-4.3258,-5.9294,-3.462,-22.452,-2.5323,-10.4193,-6.0168,-5.9633,18.4911,-0.32481,7.7385,0.54494,3.745,
1.0751,-10.0915,-7.2606,-0.60294,-20.3813,-4.5498,-11.9631,-6.3785,1.3841,20.9973,1.8641,6.0696,2.6816,2.3157,
6.3133,-9.0041,-4.4148,-0.084829,-24.943,-6.205,-9.3171,-5.0319,5.1574,15.3987,1.7522,2.331,-4.2277,-0.23386,
10.755,-3.161,-4.6321,0.40242,-17.1796,-5.8324,-9.2403,-0.39144,1.9562,10.1366,1.6473,4.1195,-7.8307,-0.70153,
11.0735,-4.8995,-5.8004,-2.9962,-5.0616,-9.8208,-12.5422,-1.8142,-7.3202,1.3333,-0.8621,-0.4664,-3.5044,-5.9621,
24.5091,2.3843,6.8401,2.7272,-13.1941,-0.79589,1.4667,-0.018133,-4.2299,1.4943,5.2156,-1.1613,9.9622,-1.507,
31.113,4.4104,6.1887,0.39442,-23.2487,8.6519,0.17339,-2.1862,-4.2171,-0.76456,5.6256,1.5595,8.1596,2.1988,
27.5588,1.9764,-2.1366,-3.2449,-7.7538,9.8198,-7.791,1.0782,-5.6515,-3.37,2.1543,4.1172,5.0183,4.7182,
21.326,1.1349,-3.2137,1.5295,0.78614,3.6874,-4.672,3.6651,-7.4816,-6.3008,-3.0361,0.25476,1.5842,5.6404,
19.8052,1.7895,-2.7796,2.1609,1.4616,3.7069,-5.1148,3.204,-6.7915,-6.6464,-2.1313,-0.48366,2.6942,5.0608,
18.6174,2.6465,-2.6129,2.5132,1.8563,3.4845,-5.7722,3.0117,-6.384,-7.6934,-2.003,-1.4185,3.9788,4.7572,
17.0182,3.4518,-2.4563,2.8446,2.2267,3.2752,-6.8719,2.3489,-6.0012,-8.6783,-1.4011,-1.8156,4.7042,3.9896,
15.7561,3.9676,-2.0675,2.9148,1.8521,2.8382,-7.6644,1.967,-5.8821,-9.8444,-1.558,-2.9119,5.6272,3.5092,
14.3286,4.2117,-1.9437,3.2221,2.2231,2.6677,-8.1691,1.3668,-5.5289,-10.2178,-0.98234,-3.7013,6.2532,2.8165,
12.9867,4.9231,-2.3092,3.0286,2.0895,2.0254,-9.6069,0.80262,-5.6794,-12.0151,-0.92317,-4.9253,6.8421,2.6477,
9.7976,3.6636,3.6141,12.0061,-12.1359,-2.4342,5.0695,3.1648,8.7614,-6.9556,-1.3499,-10.8965,0.1653,10.2019,
8.9685,0.31052,-1.1822,4.778,-12.4923,-1.5655,2.4754,-2.5685,7.3921,-4.3694,-0.54582,-9.0376,-3.9422,9.8305,
9.3943,-1.6363,-3.5214,-4.1857,2.3573,-6.7742,-5.3859,-1.9324,-4.1387,-6.9993,0.4508,-3.1927,-1.2955,7.3125,
-2.0156,-4.6716,-2.1053,1.1266,-6.3406,-17.6959,-2.8936,2.2809,0.68895,-6.8207,-3.6736,-9.5091,-3.8694,3.2583,
-1.6535,0.67013,3.0825,9.013,-20.0601,-6.752,-1.0329,4.3134,12.9399,1.5425,1.6083,-4.841,0.94277,6.1961,
3.5074,-0.092977,1.2107,3.8929,-20.1818,-1.2852,-5.0679,-1.9709,6.138,-2.1655,5.1272,0.9931,6.4298,7.0296,
1.3688,0.39454,1.1381,5.5875,-6.9198,-6.0288,2.949,-0.40687,-1.4607,-3.4814,12.0504,0.45158,12.3105,5.1616,
-1.3647,2.0583,6.1313,11.76,-7.7097,-5.4259,5.9053,5.6433,10.9192,3.7172,16.3888,0.18329,13.2594,3.6468,
1.1273,0.48856,4.3171,11.0544,-4.837,-0.28008,-4.0904,3.8585,17.0125,2.5298,12.513,-1.7559,10.0532,3.428,
-0.86851,-1.4689,-1.7265,1.7145,0.75586,-5.5655,-13.0036,-3.1215,1.8918,-8.7087,5.0137,-13.2197,4.6298,-2.0803,
-0.5752,3.1987,4.4029,0.88804,0.46931,-4.9908,-2.8236,-3.6573,0.69346,-5.5354,4.9541,-13.1497,6.039,-1.7143,
0.42318,7.3451,7.5127,5.6555,-5.3434,0.12937,2.1665,-0.54584,5.9545,3.4739,6.1027,-3.6836,10.4974,4.1731,
2.0852,7.6275,3.4468,6.5217,-7.6737,-5.4218,0.34953,3.5845,3.9102,-0.83169,-0.2888,-8.524,11.5545,5.1278,
6.2984,7.6518,1.7937,2.7559,2.9096,-2.6863,0.32856,0.9593,-4.5191,-9.4589,-5.5741,-15.7253,4.5947,-0.48251,
7.608,4.0594,1.9273,-1.507,8.2789,4.9469,-0.41428,-1.2672,-9.7913,-9.1325,-5.9628,-9.2384,0.22146,0.26957,
4.9821,2.1289,4.4629,0.75278,-6.3178,5.3727,0.81564,5.3161,-4.6248,-5.9333,-6.8101,-4.5865,2.8595,6.7611,
-1.3428,4.1703,3.9537,0.94812,-12.0853,-1.9395,1.9715,6.6844,-5.5526,-8.2288,-8.0887,-8.4092,-3.3381,5.6321,
-9.2157,3.197,-1.3445,-4.6521,0.93215,-9.2947,-1.7619,-1.1883,-12.2086,-10.386,-6.3983,-8.1454,-9.645,1.197,
-4.8066,2.523,-0.7821,-2.927,-4.4262,0.90371,-5.9948,-2.0811,-7.62,-5.4243,-1.6759,-0.90796,-0.38947,5.9457,
1.9895,1.6485,-0.012042,-0.58198,-7.7763,9.2854,-6.8402,1.659,-0.17311,-2.9299,-1.3346,-0.61274,4.6953,10.6504,
-6.3246,0.10376,-4.3496,-3.9215,-2.489,0.051623,-5.4654,-2.297,-2.0909,-8.0567,-3.6646,-7.3244,-1.8529,8.5651,
-12.6938,-0.86656,-7.4629,-0.79347,-2.8218,-6.2182,-4.6553,-5.0514,-4.8578,-12.3933,-4.8908,-5.4385,-4.1521,6.1232,
-7.1117,1.1134,-6.051,5.5204,-3.6166,3.3141,-1.4837,1.0365,0.73659,-10.2037,-3.6333,2.1184,1.8819,10.5763,
-8.8544,2.2517,-6.8935,5.9123,-3.1584,4.3199,-3.5641,3.1432,4.3076,-10.3146,1.6462,-3.5525,7.7943,6.8085,
-6.1537,1.8754,-2.8642,8.6908,-3.2101,-1.4827,-5.0377,4.1597,6.7,-12.8295,9.5014,-10.329,8.5317,-0.10772,
1.4461,-0.64752,1.6457,3.8308,-0.60713,-4.7684,8.7621,4.3923,5.8163,-13.5057,6.521,-7.7813,-2.5853,-2.0297,
-5.3893,0.83782,-2.7916,-1.2195,-4.4273,-5.9283,7.2719,3.1646,-3.692,-10.285,-4.4754,-4.4221,-12.0714,0.98439,
-12.7785,4.1618,-4.0696,6.0847,-6.572,3.5866,-7.2645,3.9389,-2.9883,-2.4373,-5.1709,-1.264,-7.9724,5.2639,
-8.1554,-4.2826,-1.4153,3.7915,0.57119,5.2996,-11.5284,-0.6358,-1.8446,-4.2193,-6.7889,-3.1164,-7.0121,2.5379,
-0.67669,-3.3028,2.7669,-4.8722,2.2241,0.40236,-1.4367,3.4997,-11.134,-8.0635,-9.997,-0.27832,-7.3143,3.5909,
0.32801,6.5366,7.4214,-1.2056,-9.4787,4.7163,-2.3146,7.6283,-11.43,-6.1336,-7.9511,4.0769,-3.9832,5.3034,
0.54975,6.3854,8.1814,4.8927,-3.3659,10.4593,-3.3805,4.0371,-3.2724,-0.70393,-4.3406,6.9658,-0.61067,2.8161,
-8.8832,-3.8797,-2.1914,-0.4625,10.0924,0.91371,-1.0085,-1.7488,-3.317,-1.8665,-5.7674,0.039911,-1.2974,-0.96831,
-18.4736,-7.9857,-8.8088,-3.3273,8.0402,-5.89,-3.3586,-1.6438,-0.22596,-6.0933,-3.4931,-4.3013,-0.25568,1.018,
-13.5088,-7.5066,-5.8702,-3.6096,-3.0471,-1.1983,-3.639,-4.4377,-1.1763,-6.2096,4.9112,2.2238,0.72398,0.9569,
-1.1291,-5.128,2.1948,-1.9467,-2.8642,6.1044,10.6793,-0.797,0.34011,1.8757,9.4372,9.3212,4.5369,-0.54677,
-2.2664,-5.543,-0.58774,-2.5531,6.2254,0.67673,7.267,-0.025592,-4.7413,0.5581,3.8095,7.0749,0.64953,-5.5754,
-3.3357,-7.8619,-5.1322,-5.051,19.1083,-7.8,-7.269,-8.4602,-11.9291,-2.6089,-1.4807,10.2654,-7.8256,-9.3382,
7.7109,-5.7028,1.6834,-2.0966,21.0955,-9.5009,-4.3023,-5.3013,-8.562,3.5734,-5.9714,12.7832,-10.9712,-7.091,
9.1764,2.3522,7.367,5.7415,5.7298,-4.5926,3.1867,3.6935,-0.33552,5.2872,-4.6488,9.1237,-8.8672,-1.3628,
-3.9079,4.139,0.65823,3.4691,-8.714,0.50347,-9.0558,-4.2407,-2.2433,-4.6712,-3.4058,8.0941,-6.8886,2.0931,
-7.0474,0.51622,-3.7196,-4.9338,3.6187,1.4376,-17.1896,-6.3968,-13.196,-11.6218,-8.0221,7.6084,-7.4396,2.4495,
3.7396,2.1727,5.4214,-3.4327,6.5349,3.0383,-7.2399,3.8691,-11.6811,-7.3088,-7.782,3.5367,-5.3058,2.0618,
4.961,4.9344,5.0961,1.1116,-0.60612,3.338,-5.8416,0.26254,-3.2674,-6.8703,-1.0481,-1.0142,-2.5773,-3.3646,
0.084268,8.254,-2.6812,-1.6064,4.9741,3.3789,-6.6962,-8.1891,-8.6152,-7.6631,0.70178,4.1085,-4.1097,-9.6704,
1.0431,11.1332,2.7819,-0.063786,5.1576,2.2123,7.8056,-0.46693,-3.7595,-0.4549,-3.1967,7.7184,-5.3094,-13.4285,
1.2217,5.4033,6.2306,7.894,-4.5516,-2.9824,14.6886,6.0688,10.566,7.0444,0.1288,4.604,-3.3038,-14.3098,
-7.7697,-2.3927,-6.9177,3.8049,-0.1812,-5.9364,-0.29276,-2.7315,0.17015,4.4521,1.8078,4.5687,-1.9003,-17.549,
-9.9546,-2.0082,-11.0819,-2.4489,1.5169,-3.4111,-14.3752,-5.2187,-13.5784,3.944,0.012147,10.3201,2.3111,-22.0397,
-7.1884,-4.0566,-5.8375,-3.9894,0.70276,-4.4115,-5.7997,-3.2181,-6.256,5.3949,-4.0857,9.4602,-3.371,-30.1171,
-8.2031,-10.08,-5.9694,-2.3036,0.66082,-5.1109,-5.9339,-2.5428,0.86807,6.5172,-2.8765,5.5179,-7.9892,-28.3103,
-2.1673,-6.3417,0.89624,2.8959,-9.2612,-6.4915,-6.7831,1.7071,4.4314,9.2597,5.2499,9.2842,6.5902,-19.6218,
-0.10908,-10.7819,-0.60379,-4.5087,-3.8848,-13.3328,-1.0735,-5.6266,-5.4754,0.026976,2.0423,4.3888,10.6533,-30.0136,
-2.2717,-9.4116,-4.1825,-4.9611,10.4483,-1.6866,0.67815,-4.0838,-1.0496,-1.6619,6.4996,3.8845,10.2555,-29.9001,
-6.7151,-6.6778,-6.5831,-2.0123,1.5059,4.9221,-10.6907,0.74102,0.70064,-4.2133,8.7607,3.4105,6.5067,-25.9369,
0.19571,-3.626,-0.16259,1.2419,-12.6844,5.3497,0.31458,0.93752,2.8278,-3.2376,10.8866,9.7133,4.911,-21.2472,
-4.6363,-9.193,-3.5268,-0.76082,-5.2952,11.778,4.6345,-8.2778,5.5506,3.7056,10.7153,13.4693,7.5089,-18.0442,
-14.7224,-12.2569,-9.8232,-2.8843,7.3146,20.9528,-9.7436,-5.13,5.9405,10.4727,11.7596,13.866,14.5297,-14.3104,
-11.188,-9.8342,-3.6902,-4.3985,-5.4163,18.9728,-13.8594,4.0959,5.825,4.7826,6.4743,8.9367,8.5967,-15.139,
-9.5526,-6.8338,-2.0227,-4.6167,-12.322,17.8346,-1.458,-0.0060445,-0.79077,-3.2169,-5.0011,1.1699,-5.4167,-18.5688,
-16.451,-4.7368,-10.3373,-3.6166,-2.6648,21.3436,-9.3245,-3.1394,-4.359,3.0019,-3.9779,5.6792,2.3804,-12.3932,
-13.777,-5.6576,-11.886,-4.6047,3.5209,12.5914,-14.7908,1.1465,-0.96418,5.4731,5.661,10.3999,15.4941,-4.178,
-5.4788,-4.1131,-3.7012,-3.6053,-2.7162,14.4873,-4.9855,5.1753,6.0833,0.56523,8.9365,7.6065,13.359,2.5804,
-9.2472,-6.9996,-4.6842,-4.1121,-1.3481,21.572,-2.9989,3.6598,3.5494,-2.6019,3.8208,2.5706,5.5678,4.1125,
-9.6562,-6.0977,-9.2234,-4.3473,6.9279,10.6367,-4.2653,3.4402,-7.2689,-0.99956,3.5915,7.719,8.6082,4.3482,
-7.3898,0.29395,-6.983,-4.3277,-0.4774,-4.1015,-3.2862,8.2952,-4.6633,-0.21646,2.6529,8.4614,6.8866,3.8466,
-5.9824,0.27609,1.6304,-3.1039,-3.8234,0.84413,2.2134,10.6898,3.8109,-5.5063,-2.3267,-1.2056,1.1706,2.1693,
-4.6596,-6.007,-2.8057,-4.8459,5.0831,8.5067,-2.2577,2.8176,-8.4688,-6.1398,-0.74088,1.7593,2.5466,3.0034,
-3.6571,-0.58535,-6.7347,-0.93968,6.4649,2.9342,-7.184,1.4432,-3.8633,8.3286,8.7031,15.7537,10.3475,11.7408,
-12.8374,0.65529,-6.5718,-0.16017,-5.7334,-2.7853,-6.9941,3.526,7.2145,15.9031,3.1195,11.795,3.219,7.9031,
-14.7183,-6.3739,-3.044,-1.8378,2.5648,-3.341,-1.0309,5.0017,1.7204,0.84888,-2.6108,-0.24039,-2.5178,3.8135,
-10.9431,-8.8835,0.031134,0.68261,10.6056,-5.5507,4.3336,3.2553,4.0273,-3.1792,-0.044067,2.1842,0.043865,9.3693,
-13.661,-6.4223,-0.93506,3.5342,-1.5999,-3.2895,3.5917,-0.79639,7.1601,4.2424,-1.0057,0.12492,-1.887,9.2891,
-8.5025,-1.2167,0.08537,4.7679,-4.8783,4.6207,-1.4445,2.6258,3.3561,-0.83282,-0.9454,-1.3288,-2.7381,8.2498,
-9.6796,-1.8666,-6.4277,0.38449,-5.3085,0.72801,-15.4579,6.5656,4.8419,1.8687,-3.5398,2.8482,-3.7791,8.4777,
-11.7502,-0.54956,-9.1753,1.5669,-13.4259,3.3356,-12.9636,8.823,9.6129,12.1207,-2.6043,3.8829,-5.2393,13.5129,
-6.2244,3.3398,-5.7323,0.99053,-5.8719,14.2227,-6.4012,4.4373,-5.0639,-0.65766,-10.1608,-1.1708,-11.6734,12.7021,
0.8977,8.9242,-4.9066,-1.9612,8.5804,17.7079,-7.9451,8.5096,-18.8601,-7.8493,-18.7104,7.0944,-16.7578,12.4221,
6.6282,12.2449,-1.7199,-1.3614,4.0885,10.8606,6.6316,16.1935,-16.5232,1.7805,-18.5519,11.4892,-17.1988,11.1947,
8.6409,10.5461,3.2042,1.1307,-10.2568,7.7986,17.6821,11.8476,-12.1576,1.6739,-13.5821,0.19478,-15.2024,5.7025,
0.89156,9.4314,-0.36295,-2.3116,4.4586,8.777,2.5212,1.9778,-16.2488,-1.3191,-12.7677,-5.1196,-11.8801,2.9498,
-3.9824,10.312,-1.7867,-3.137,9.0122,6.3224,-11.7301,5.2338,-9.0067,1.6528,-16.8216,-1.4377,-10.2032,4.7017,
1.3182,8.0056,-0.47471,-1.2616,-5.6285,10.5223,-7.652,9.499,-7.2615,-1.0979,-14.6075,-1.1109,-9.832,5.142,
-3.3404,1.9819,-5.5077,-3.3553,-0.35006,19.7732,-7.9156,2.9033,-8.9952,-3.2014,-7.7053,-3.2132,-7.0731,3.6284,
-11.8168,3.309,-9.9977,-0.26165,8.8298,17.6222,-14.1898,-0.64511,-2.1887,0.84729,-1.9405,-2.0563,-1.8282,1.0004,
-2.1898,8.1722,-8.1925,-2.897,8.059,8.6116,-8.2763,1.0808,-4.7085,-3.7828,-7.3673,-2.1739,-3.8872,-2.6746,
11.4387,10.5741,-2.3986,-6.5798,2.755,9.5409,1.861,3.9083,-6.3544,-3.5561,-9.8175,0.84882,-2.208,0.86007,
4.9676,7.5293,-1.773,-1.8465,-2.7127,12.8246,3.6773,4.6379,-3.5628,1.4778,0.41227,2.7259,5.637,5.629,
-9.4304,-0.63522,-9.8613,-2.2176,-3.0319,4.8243,-2.8098,1.4675,-3.8309,-1.9854,2.7977,-4.6685,3.3706,3.363,
-11.3952,-0.35591,-11.4385,-2.8077,7.0317,0.43774,-11.5591,4.9947,-0.46783,-2.107,0.46087,-1.2547,0.51706,6.2945,
-8.3012,-0.33478,-8.8243,-6.4954,-1.5847,2.8218,-10.3833,-0.12549,-5.2602,0.91173,-0.048943,7.0155,-3.8521,6.8809,
-6.839,1.6137,-2.51,-1.7671,-12.0947,7.9549,4.3397,-1.0821,-0.12414,4.2313,2.3643,9.4869,-6.5132,8.8784,
-6.6694,2.722,-3.0825,3.4003,0.92332,0.488,3.7176,5.0086,3.9809,-3.9761,-7.1777,-1.4464,-12.1482,6.1763,
-1.9311,5.4509,3.3692,7.5344,3.7602,-0.98731,-8.5568,8.0823,2.7779,-5.1841,-8.1931,-5.2163,-8.0451,7.2522,
-0.12827,2.4726,6.3003,2.0209,-10.5654,5.0972,-5.3921,-0.8385,-1.0044,-2.7036,-5.0502,-5.6264,-2.9829,5.6116,
-0.60228,6.1804,3.5119,3.8276,-8.6064,12.9863,4.0903,-1.7523,2.4301,2.2791,-2.8192,-2.3965,2.4985,7.2033,
-8.038,3.1584,-0.79617,8.6596,6.01,1.3609,2.64,3.4141,8.3103,1.419,-5.7831,-6.8325,5.0002,5.0839,
-3.9403,-0.16409,5.7591,11.2735,7.9393,-5.2282,8.0252,7.307,12.391,3.9854,-3.2669,-7.1454,2.0486,3.0916,
4.7318,1.5325,4.2087,4.0892,-6.6371,-0.81718,4.8922,-0.12125,5.14,5.4335,-3.3119,-1.1731,-9.4025,4.1114,
5.4123,3.3688,-0.3826,4.3262,-9.2516,-0.28622,2.1885,-0.59591,3.8673,7.0357,-5.0414,0.34354,-9.3203,12.0594,
0.99016,1.4799,2.7738,14.9129,-7.0089,-6.2946,11.9396,5.9478,11.5895,9.747,-4.9799,-3.2925,-2.7351,13.0236,
-0.51574,-0.5378,4.0534,9.6791,-5.1428,-3.989,8.3305,1.7338,10.8939,6.7514,-6.6095,-4.059,-4.0175,5.493,
0.9617,1.9053,0.91795,0.42197,-4.834,-0.37493,-6.1484,-0.78009,1.0814,3.4545,-4.2845,-4.7796,-4.2581,8.5381,
-0.3013,0.58567,0.6219,4.494,0.99969,-14.4524,-3.1284,6.7385,-1.6345,1.56,-4.2684,-11.9646,-2.7978,7.7849,
1.8859,-0.6543,9.9846,9.768,12.2679,-18.2853,11.1593,7.0576,8.8274,5.0818,-5.6995,-9.0776,-6.2453,3.22,
5.6292,1.3127,13.2419,-0.45952,-2.5682,-3.0882,11.0919,-5.4174,5.8872,7.187,-5.8399,0.6261,-10.2094,5.9188,
2.1582,-0.45307,4.4939,-6.4573,-16.5141,5.8947,-3.6736,-6.2975,-3.8658,2.1763,-7.6585,-0.1346,-2.6067,10.1437,
-3.274,-6.2105,-3.0066,0.67907,-1.4232,-8.4387,-5.5014,0.34691,-6.044,-2.7746,-9.1272,-4.4648,1.4061,7.1245,
1.9844,-5.5966,0.78899,0.39713,11.7983,-3.8348,7.121,-1.8428,-3.9944,-3.3312,-7.3745,-1.0637,-5.186,3.5637,
5.7212,-0.92252,0.25972,-3.0011,-3.0096,4.59,5.2475,-3.6609,0.10167,3.6171,-4.5219,5.749,-4.3929,6.2424,
-5.9502,-0.14427,-7.2277,-2.0982,-3.4317,-1.229,-1.5753,-0.78971,-2.0736,8.4618,-0.63514,8.5371,0.4504,7.5547,
-11.3776,-1.0997,-3.4198,-3.4183,10.8742,-2.6013,7.6785,0.22177,-5.3234,4.0974,3.2591,6.5789,-0.54072,5.6553,
-3.2233,-0.79253,-2.0095,-4.4183,-3.8782,0.68801,1.6739,-2.4429,-3.317,-0.24599,4.2686,5.9429,-1.2314,6.0392,
-4.2348,0.94225,-7.9145,-1.984,-12.3226,0.40576,-12.5265,-2.0553,-2.877,2.4203,4.7359,8.2379,0.5297,12.6667,
-7.8371,0.40332,-4.5476,-0.90066,-11.1013,-0.58291,-11.4133,-0.96768,0.67006,5.6496,2.5235,4.8511,-2.3946,17.2093,
1.3098,-0.10281,5.8486,2.0454,-13.8097,-3.9224,3.3715,0.054251,4.0043,5.3106,-1.9662,-0.26066,-6.5892,12.8023,
0.74951,2.3137,4.5336,6.7437,-13.4628,-4.1687,7.3871,0.53316,10.0308,5.956,-3.2943,-0.72673,-6.6761,9.1419,
-6.0446,5.0672,-0.076948,4.8925,-5.4245,1.3838,-7.1561,-0.46293,10.3926,3.6703,-4.0612,-0.20142,-3.8651,7.1469,
5.4055,10.548,5.7125,3.6349,3.0959,0.33667,2.553,1.9752,-2.2818,-0.40611,-4.7811,-4.5274,-5.0793,3.3438,
17.3735,16.4228,9.4673,11.8527,4.1153,-0.88859,16.4998,6.9181,2.9165,0.82332,-8.1099,-10.2816,-9.354,3.8663,
9.8231,12.7859,3.3552,12.3468,-0.71095,10.011,4.784,4.3339,7.3208,0.53295,-12.685,-9.4237,-9.5161,5.3216,
7.5465,5.0288,4.8411,2.206,-14.7683,11.5795,-2.4929,1.9047,0.37409,-1.6682,-9.2723,-7.653,-6.2936,3.3151,
14.0836,7.3787,11.5405,5.6891,-18.1003,0.038454,11.7567,6.3697,4.449,-1.8091,1.1659,-8.3991,-1.8186,4.3215,
-0.017337,7.1769,2.8944,9.4451,-2.9142,-4.0612,14.7874,2.3721,7.3155,0.46864,6.6396,-9.5819,0.45964,5.7494,
-7.9705,4.0947,1.5154,5.263,1.4782,0.27982,-0.19983,-2.35,6.6352,4.5379,6.9641,-4.9101,-1.7371,3.7172,
5.5232,8.6698,10.1016,3.5009,-10.1792,2.1912,-2.2367,1.6479,0.45296,2.3374,-3.0947,-2.2049,-10.7919,2.5298,
6.1561,9.5958,4.1928,2.327,-4.7482,5.4342,0.78998,3.9591,-7.287,-5.0337,-17.009,-5.4471,-13.0365,5.7525,
-4.5776,7.8148,-3.0486,1.946,3.4905,11.1337,-2.3909,2.9982,-11.9115,-2.5625,-14.1805,0.42336,0.037793,8.0585,
-8.8825,4.6946,-2.1426,1.1061,-7.0831,8.7787,-10.2014,1.1313,-11.438,-3.6138,-8.2683,1.1211,-2.6158,2.5135,
0.32736,5.8594,4.2527,2.9681,-9.0684,10.1799,-3.3226,4.9201,-1.5929,-8.2175,-13.557,-5.2129,-9.6895,2.3629,
4.4051,5.7488,2.7923,-0.34344,-7.319,9.3282,2.9023,5.8297,-4.1484,-7.0015,-11.5383,-8.5156,-3.5645,1.0158,
-1.6436,4.9217,-0.26755,-2.2508,-6.8797,-3.2829,0.80021,4.5158,-5.8275,-0.31468,-1.2048,-4.148,1.4699,-0.97307,
0.14203,7.7597,9.6307,7.284,-0.9235,-5.2548,14.8522,8.8244,3.44,4.7657,4.4109,1.1623,1.1405,6.5569,
1.5798,3.9196,8.5709,6.847,-7.1346,0.84506,19.8661,4.4385,0.82349,-5.1613,-0.19207,-4.2101,-2.3024,5.1996,
-3.0945,0.5512,-4.2357,-2.4817,-5.9834,1.0351,4.5742,-4.2637,-2.8416,-12.3232,1.0245,-6.1264,5.3078,1.272,
-3.8732,1.9644,-3.9815,-3.779,8.4756,-0.95521,-9.8003,-6.8999,-5.0812,-13.512,4.8194,-5.7593,9.8096,2.16,
-0.025381,-2.7328,2.2829,-2.8289,18.6926,-3.0671,-2.2226,-7.6912,-9.3556,-15.3528,1.3968,-9.993,0.78532,-1.585,
6.9658,-1.8461,10.0999,1.9203,3.4711,-2.1599,7.7929,-0.2401,4.9438,-2.6213,8.3026,-5.2958,0.015072,0.67901,
6.789,1.8803,7.8065,7.8304,-7.7037,-4.6816,5.1559,0.015502,18.7472,3.0798,9.4919,-2.3268,1.2192,2.3257,
0.59734,-1.1248,3,9.289,-6.7593,-1.9904,5.8107,-4.324,16.2968,-2.8898,-0.2364,-7.972,1.1463,3.1503,
-7.6334,-8.7703,-2.001,2.4649,-3.9439,-1.8712,1.6059,-2.6185,2.7857,-4.6448,-4.5608,-10.8679,0.11343,1.5148,
-3.56,-7.5208,-3.0857,4.9686,-9.7328,-4.8919,6.0888,2.1183,5.2697,7.9264,2.7023,3.8842,0.34759,4.5574,
1.9562,-6.1056,-2.4187,12.3832,-18.7898,-7.0086,11.0261,1.5093,17.9689,11.3072,4.4688,8.5921,-4.494,4.7663,
0.15118,-5.9803,-0.10437,10.435,-5.3703,-0.080558,1.4465,4.5518,13.7573,1.7107,4.9236,3.0149,-4.4653,-1.5457,
-5.401,-6.3444,-0.33908,1.3732,3.8699,9.8062,1.1187,5.002,2.568,-3.9355,6.7973,2.593,1.3462,-9.4067,
-5.5591,-6.9278,-2.7291,2.2549,-10.4623,2.9511,4.9082,0.8453,3.86,-3.6992,3.9791,2.9196,1.2657,-12.6984,
0.076819,-2.174,0.80888,9.3502,-9.2319,-4.939,1.2391,3.2049,10.377,1.8252,6.1507,6.1187,5.5278,-12.9011,
-0.16876,-4.6947,3.8938,2.7632,5.422,0.90144,-0.52252,1.3254,8.5496,-0.45348,2.1663,0.68987,6.4015,-20.0807,
2.2513,-7.3053,5.5882,1.6333,1.8427,14.9473,8.6676,0.28179,9.9646,0.53783,-0.37406,-2.7257,5.0533,-22.2501,
4.527,-3.9747,4.7712,5.8739,-4.0526,14.8941,16.8249,5.5673,16.1154,6.7723,3.9869,-0.15184,2.3397,-21.3973,
-3.2167,-8.3157,-0.094614,3.8344,-5.4965,1.2258,11.7178,2.5819,13.9434,7.571,3.9889,-2.3121,5.3326,-28.0674,
-5.4338,-13.1194,-1.0533,1.1942,-0.34596,-1.7398,4.2659,-2.8756,9.2504,7.5987,6.6416,-1.6915,16.5818,-33.132,
-6.0718,-15.2245,-5.8106,-4.1803,8.3517,-0.67133,-3.7026,-5.113,6.7674,4.7324,10.0998,3.7129,14.1409,-35.0005,
-8.3591,-13.1058,-8.113,-6.0986,3.7528,-0.39008,-0.34746,-6.0115,1.7816,1.315,13.5911,8.5513,9.1951,-30.2494,
-9.3036,-11.8373,-3.7696,-4.2867,-10.5724,0.59742,-1.2907,-5.1686,2.1569,2.2006,18.0781,7.5566,16.8383,-18.7932,
-11.1555,-12.0914,-3.0615,-2.5828,-12.2273,6.3462,-10.8538,-1.0021,10.7046,7.3713,16.5115,10.4776,20.1668,-11.8806,
-9.0401,-10.8837,-3.36,-5.3206,2.6064,12.7141,-2.9719,-0.94224,8.6158,1.6261,10.2184,11.7769,6.905,-12.1323,
-6.3286,-10.4717,-2.9174,-7.6524,-5.6247,12.6741,6.6064,-6.4293,2.5552,-11.7279,7.918,3.1166,-2.4274,-14.5379,
-6.4308,-7.4332,-3.7062,-4.7831,-4.8048,25.4115,-3.431,-5.0792,-0.49013,-7.1673,14.6738,5.3397,1.0932,-8.3625,
-8.4551,-6.5053,-7.8222,-5.46,7.0526,35.456,-17.3251,-0.91809,-2.3889,2.4213,10.4189,9.84,-4.7575,-1.5942,
-4.8145,-3.9456,-3.2557,2.8211,0.6037,19.2286,-4.355,7.091,9.0824,5.8917,5.6962,5.1521,-10.9797,-0.77544,
-4.5254,-8.5293,-2.0963,4.0983,-13.5325,3.9749,8.4396,1.845,10.9478,8.4304,8.2467,3.3969,-11.767,-4.5855,
-4.9772,-12.1149,-3.1753,-1.2093,-12.3591,17.8364,6.7284,-5.2556,10.05,18.7709,12.3316,15.4851,-0.69662,2.1975,
-9.0172,-10.4239,-5.8776,-2.5827,-9.2072,23.1532,-2.8346,-1.566,8.9648,15.7162,10.6277,14.0739,5.6115,6.4038,
-7.2708,-9.0756,-3.3553,3.1158,-4.5574,7.664,0.46895,3.5896,9.6322,9.2296,11.1953,8.1682,0.69548,7.2248,
-5.1476,-12.1463,-0.020723,4.6159,9.816,-6.8958,10.3225,-4.5797,8.3311,3.6144,8.8361,6.4731,-2.4795,7.9964,
-6.7667,-7.5613,-2.9118,0.00038363,14.168,-2.8667,1.0268,-4.3047,4.4571,-1.9049,5.4137,7.0488,-0.40231,8.4807,
7.7393,-3.9742,-3.46,-2.6507,-0.78206,-3.4176,-2.1683,3.9073,3.9487,-2.9959,0.027617,3.9748,-6.4042,5.3208,
21.375,-5.182,1.086,1.8466,-14.8351,-3.6944,9.049,0.78083,6.6038,-4.7443,-2.3846,-0.60251,-10.3582,5.0015,
34.1925,-2.9426,-1.3896,5.5924,0.15497,0.38338,2.7212,-1.1944,6.6897,-13.1365,-5.1338,-4.9049,-6.3625,9.04,
18.0409,-2.7663,-0.34209,2.3642,12.5584,4.2165,-9.9753,2.2514,3.878,-16.205,-5.7899,-5.5747,-5.4986,11.8718,
2.8585,-7.1796,3.7758,-2.8389,-2.2951,0.34858,-6.2433,-3.9092,-1.4164,-11.1353,-1.3452,-3.553,-5.4097,9.9542,
-0.085091,-6.0262,2.3442,-1.9459,9.5323,-11.0008,-0.8077,-6.326,-0.12632,-8.7802,3.797,-4.063,-1.9518,7.67,
-6.3467,-5.1824,-0.20683,-2.3109,19.5654,-11.7867,-6.0617,-4.5004,-2.5291,-10.1814,4.0513,-6.2295,0.093247,6.2457,
-9.8221,-8.7276,1.734,-6.0288,4.2915,-3.367,-5.6977,-7.1226,-7.1974,-4.75,3.3261,-1.5172,-0.39405,10.2095,
-11.6433,-5.3119,8.3784,0.59988,-10.066,0.69141,6.2133,-3.8028,6.7318,7.1042,10.3574,9.1791,-1.3347,19.7198,
-13.3549,-3.5469,5.9475,1.0458,-9.7028,-4.1703,0.53786,-1.6464,10.6662,6.196,11.1822,7.1821,-6.0749,13.234,
-9.6613,-3.3344,0.28825,-5.2837,-11.049,-4.8842,-12.0277,-2.0298,2.7952,-1.8888,8.5828,-1.9257,-2.3362,2.7987,
-9.0814,-2.6521,-2.1394,-6.4127,-20.0268,-5.0733,-8.8957,-0.9439,-3.1569,-4.6677,7.1038,-3.2562,3.1064,2.1491,
-6.3673,-2.734,-0.80575,-6.2689,-4.7252,-3.0817,0.55615,-3.0564,-8.993,-8.967,4.0265,0.072222,-1.1773,4.6713,
-5.2622,-1.3649,-0.9986,-7.5802,9.6583,3.129,-5.0211,-6.4882,-5.8021,-13.9723,2.0974,-4.0292,-3.2761,4.1503,
-13.6235,3.5377,-7.2057,-1.8228,-2.2496,3.9051,-16.289,0.16758,-0.15179,-11.6882,3.8998,-4.7518,-0.187,2.9369,
-24.6163,-0.28995,-8.4601,-2.4363,-16.2146,-5.2468,-13.6244,0.88042,-3.2757,-17.4944,2.4609,-2.7795,-1.3811,0.59154,
-21.9344,-2.4417,0.48319,-2.0491,-5.9625,-5.6553,1.2931,-1.3416,1.0182,-15.7218,3.0362,0.52032,3.7635,0.31508,
-23.2692,0.83805,-1.7147,5.0634,0.90344,-6.0392,3.0232,2.3541,7.9467,-1.04,1.167,-1.1979,6.189,-1.8732,
-27.8991,-0.41753,-4.7453,10.7852,-8.0688,-10.2561,-0.77384,4.8644,16.388,10.3506,0.37363,-1.367,0.27403,-2.4837,
-21.1632,-6.8997,1.5652,3.1484,-11.1999,-8.4357,4.3343,-0.006955,12.2715,8.0426,3.0025,1.8483,-2.3937,-1.6116,
-7.119,-9.6192,3.6404,-3.548,-2.5742,-0.45772,7.6896,-0.72944,4.5453,8.2829,5.4739,3.907,5.7036,-0.31004,
1.985,-10.0062,-2.8448,-2.371,5.7752,0.53384,1.4439,3.6529,6.201,9.7144,1.2889,0.77984,6.8079,2.6008,
2.5888,-7.7186,-4.3613,-1.9878,2.7772,-2.6312,-4.1863,5.6029,6.5518,6.48,-1.4395,3.8665,-2.0367,4.6144,
3.8797,-8.2198,-0.24323,-0.90416,-8.4767,-2.4733,5.2239,4.3024,5.6768,1.2709,-3.7633,5.0808,-6.7348,1.927,
10.3954,-8.2085,-0.22864,0.11395,-1.7016,1.0491,11.1769,2.598,4.3719,-3.1441,-4.0199,-1.491,-1.9923,-2.045,
10.0129,-5.0647,-2.8662,-4.9543,12.5005,-0.21896,4.4806,-2.1374,1.4582,-4.6425,-2.5736,-4.0524,2.2243,-6.0199,
7.7251,-1.6276,1.8853,-1.5238,11.1483,-5.7492,3.0067,-1.2861,1.13,-5.087,-4.5881,-3.5685,1.3682,-5.4175,
8.7076,-0.56581,3.2186,3.87,-3.6206,-5.4045,3.3084,1.2015,-2.312,-4.2997,-3.8307,-5.2824,-2.5705,1.1743,
5.5339,-0.77306,-4.4465,-2.8699,-1.114,1.4275,-4.3621,-1.04,-2.4145,0.055446,0.014338,-4.2423,-0.72929,3.2732,
1.3454,0.71958,-6.1079,-5.5902,12.4502,4.7163,-6.5105,-1.4595,-1.3058,1.9803,0.97735,-1.5776,4.1352,-0.29764,
4.8799,1.3995,-1.1624,-1.1572,5.1955,-2.0748,3.2799,-1.1312,-0.50428,0.1745,-0.76829,-3.6524,0.27142,0.92528,
5.5514,4.2081,-1.5741,1.8047,-6.6849,-7.7345,0.19103,-2.0272,4.3467,4.9847,0.24213,-2.4689,-0.70874,6.1724,
0.1569,0.82189,-7.0235,2.4196,0.70582,-2.209,-13.0766,-2.6287,3.3628,6.8546,-0.49553,-0.15139,3.4314,4.1151,
2.0752,-7.9041,-1.7814,1.3101,7.8939,4.1901,1.808,-0.54281,6.0531,0.65873,-3.3583,-3.0348,1.7792,1.9395,
-0.21823,-10.5631,1.9411,-1.9018,-6.6798,-1.1228,15.7995,0.21335,11.2337,-2.0317,-5.8077,-1.6477,-5.3172,3.0287,
-10.8104,-7.5196,-3.9604,2.5506,-12.1841,-6.84,8.5844,0.20009,12.0055,3.3924,-2.0852,4.2358,-2.588,7.6672,
-14.5001,-12.3706,-9.0254,1.9157,2.647,-6.4296,-6.0307,-2.222,6.9468,4.6351,7.1989,5.9098,1.4237,9.1354,
-2.5431,-10.6643,-3.6634,-1.5735,9.1166,-1.2233,-0.24574,-2.5709,6.0483,7.2493,14.9619,12.3039,1.3385,9.5513,
1.4661,-6.6498,-1.9971,-1.4788,-1.0711,-4.0422,9.8926,-1.9345,4.7213,10.189,9.2437,13.976,3.1861,6.0864,
-0.79081,-6.01,-4.0467,2.707,7.911,-6.451,9.0578,0.83293,5.6431,9.3365,4.5915,8.5579,0.82603,7.8902,
-1.9487,-4.9265,-3.5629,1.8217,12.4975,0.44354,3.4527,-1.3862,9.4019,5.6428,6.0033,3.4647,-8.1416,8.6216,
-1.1088,-0.051198,-1.6619,2.9177,4.7583,6.4429,-2.78,-2.5083,9.0787,5.5452,5.4021,5.9084,-1.6276,4.4893,
-0.80111,5.0133,-2.7672,0.57323,-3.4812,-0.45135,-5.7465,-0.18844,-5.566,3.5255,-1.4297,5.7951,-2.253,2.5325,
3.5853,7.6046,1.2552,-1.3898,-0.38027,2.4678,3.7569,-1.6234,-7.7626,6.206,-6.6466,3.0368,-15.6152,9.129,
6.5034,4.4974,2.8669,1.8273,8.5608,10.2737,6.1828,-7.5518,6.8031,3.6648,-7.4529,-2.2069,-14.9195,4.9661,
4.6672,7.6018,-4.0538,2.1994,8.5289,0.9804,-0.93684,-4.6883,4.1051,-3.7862,-4.5958,-4.9667,-3.9012,-4.4907,
3.4231,14.3763,-7.6672,-4.6813,2.2324,-2.4531,-3.7729,0.41348,-7.7106,-5.9694,-6.248,-2.7408,-9.4519,-3.2571,
9.2434,14.7193,-2.6272,-6.0874,-11.6397,11.7941,0.069102,-0.33446,-10.8632,-1.5136,-5.6319,5.86,-16.3564,3.446,
6.2783,11.4255,-3.9158,-1.8658,-18.6545,15.5457,0.54689,-2.7245,-6.8374,-2.3871,-2.8839,7.9186,-13.4468,0.34671,
2.5273,12.668,-8.5014,2.1023,-3.4353,0.51296,-2.8601,-2.0789,-4.4987,-1.7618,-1.7468,3.1049,-10.2296,-2.5664,
2.6169,9.257,-8.7144,-3.0853,10.8709,-3.4949,-7.7504,-5.0874,-11.2185,0.031407,-2.847,4.1237,-9.8571,3.1314,
2.2187,9.4243,-4.5764,-4.1052,-3.8814,8.0432,-5.598,-3.0952,-3.5557,2.1985,3.3491,10.8659,-2.276,13.7896,
-1.5296,12.4745,-0.68613,1.6849,7.0775,7.8018,3.1738,0.2238,4.1297,1.3439,11.1026,8.5269,3.4044,13.2034,
-7.7048,0.63877,-2.0912,-3.2369,20.7528,-6.1641,8.286,-2.1998,0.50744,-5.4857,11.4003,-4.0358,-1.6206,1.8059,
-7.0011,-3.0145,-1.7243,-4.7294,10.9513,-8.4454,5.6197,2.512,6.0206,-2.505,19.1524,-2.5883,3.5383,8.6874,
-11.4018,-1.3878,-6.924,-6.8562,-3.8058,-5.5285,-7.7329,-0.04933,2.2849,1.0193,16.557,5.2793,4.2904,10.0944,
-5.1743,-0.099515,-2.4109,-1.3834,9.3175,1.3109,-0.27927,-1.2514,7.2097,8.4302,8.0916,9.0601,1.8636,4.9092,
-1.0072,-1.0576,-1.7841,2.5562,-0.88229,0.75055,8.4144,-0.21225,7.2589,3.1039,-2.0347,-3.0524,-2.5868,2.2043,
-3.3571,5.7545,-2.1592,3.8489,-14.8093,4.0797,7.4273,4.621,1.039,0.50731,0.015373,-4.3158,-0.021244,8.8207,
-4.8429,3.2401,1.1038,-0.96136,0.17923,6.968,6.2588,2.1745,2.1815,6.0205,-2.1547,1.9687,-1.2253,10.9426,
1.7144,-1.7748,2.0017,-0.9039,14.2685,2.6937,4.9192,2.5262,-1.8056,1.8026,-10.2204,0.40457,-2.5978,6.4299,
-1.5219,0.50083,-3.1801,0.35516,4.4945,-3.4939,-1.8839,6.954,-11.5796,-8.1875,-7.438,-0.825,3.1017,5.3207,
-15.5306,0.95317,-6.8457,-6.8965,-9.7544,-3.2838,-6.5911,3.6447,-12.8126,-4.3218,0.72153,2.117,1.4693,6.9301,
-16.6475,1.1367,-4.748,-9.1341,-0.25133,3.4205,-6.9188,0.29226,-4.5723,10.0376,-1.9735,5.1233,-6.0909,9.6476,
-7.4539,5.8888,-3.4987,-4.7296,-2.1644,8.036,-6.9861,0.27472,-5.2623,11.484,-8.6036,0.95947,-2.8329,7.1405,
-5.0785,7.4636,-2.8069,-3.482,-9.7478,-0.15896,-5.1206,2.6684,-8.321,0.67158,-7.6054,-6.8109,5.0499,0.44511,
-3.3273,4.6059,2.6639,-1.3446,-3.3781,-7.38,0.9714,5.8829,2.3014,-0.33281,-3.7749,-8.8126,10.0493,0.41863,
0.24634,3.8472,7.3248,3.0744,2.6091,-1.1527,4.7695,4.0837,5.5378,0.16909,-5.9585,-7.32,10.4107,2.8036,
-2.6605,2.1705,4.4752,4.3362,2.935,6.6293,8.3397,-0.017698,3.2773,-2.7331,-4.1547,-7.8446,8.8221,6.0099,
-9.0083,-2.5394,0.10934,2.8712,-0.85654,1.1698,8.0803,-0.2576,5.7322,-1.8462,3.084,-7.133,8.0514,8.3004,
-11.6011,-5.5203,-3.0309,-1.3987,-4.4208,-2.9975,5.4266,1.4449,2.737,-0.047998,5.5502,-3.0893,7.8095,2.259,
-7.2898,-5.9122,-0.19776,-3.9661,-1.5042,5.1359,12.0906,1.1174,0.88531,4.0525,7.3866,2.1575,7.0997,-1.4922,
-11.432,-8.6908,-2.3548,-5.4151,-14.1882,1.6945,2.4473,2.2554,-3.7473,7.9064,6.2203,9.0177,0.64844,-2.1254,
-22.3154,-11.0616,-12.3367,-6.5367,-27.4369,-8.5303,-11.7995,4.0481,-4.9685,13.6988,6.8112,13.779,-0.35456,-2.9624,
-22.1814,-14.9772,-13.2837,-5.4212,-20.1266,-6.3313,-16.5147,3.5642,-1.055,10.7077,6.1615,8.373,4.7279,-12.6666,
-8.7994,-13.1147,-0.43558,0.20676,-4.819,2.2438,-1.4238,5.2786,6.2392,6.6908,8.6844,8.8349,9.265,-19.6194,
-5.8611,-11.3637,4.893,-1.7341,0.16992,-7.0501,4.8077,0.14137,13.0954,4.8433,7.1987,10.2328,10.637,-20.3702,
-3.8219,-4.1737,6.2869,2.4676,-1.5273,-10.7242,9.5807,-0.10785,17.3716,7.686,10.8649,12.7526,20.3634,-20.8349,
1.4686,-0.79028,8.0788,9.7909,12.6644,-8.394,13.1032,4.9598,11.7496,1.6812,13.346,7.4077,18.9001,-28.5034,
3.0675,-3.8761,10.2454,8.9627,7.4457,-13.4338,16.4146,1.529,10.3215,-5.8912,6.5195,-5.3291,4.9919,-33.3007,
1.6784,-1.4742,10.8357,5.2917,-2.8832,-10.4583,16.1528,-1.2141,10.9072,-0.95826,6.3695,-1.8761,4.9336,-30.5795,
-4.9298,-0.18088,5.6063,0.8768,-1.023,-2.359,1.0837,1.9923,2.781,3.1966,5.7464,7.6365,5.3605,-30.9141,
-4.634,0.79384,5.7519,1.3061,-4.8185,2.1208,-13.0814,1.3903,1.1679,5.8969,3.4729,7.1783,-4.6021,-25.2029,
-0.4996,0.26428,9.2631,3.156,-15.6161,3.4398,0.237,-6.8878,3.5084,7.9536,0.85488,4.8194,-7.7004,-17.9057,
-4.8079,-1.1974,4.851,2.0027,-6.484,4.6797,-0.74154,-3.1001,0.88775,8.4407,-1.1246,7.9047,1.4387,-19.2414,
-7.653,-3.2952,-5.322,-1.7329,8.0051,0.30111,-12.0252,-0.74491,-2.299,8.1748,-2.2624,6.7075,2.5577,-19.7746,
1.4833,-2.6151,-0.182,-2.5932,13.9115,0.2835,-1.1804,-9.8588,3.6235,5.7566,2.694,3.8945,-0.48833,-13.7675,
4.0454,-1.2533,6.3364,-2.1967,0.30237,1.4713,5.8799,-13.3651,5.5753,1.7953,9.0399,3.4198,3.6383,-14.1467,
-1.2585,1.9554,4.269,2.9968,1.9719,1.624,-0.49847,-5.0914,4.0359,3.3748,9.2204,0.56355,6.5535,-15.4671,
0.021818,-0.81351,4.7358,6.4324,7.8787,10.9266,7.9671,-4.063,12.7114,2.4494,6.0161,-7.9064,7.3651,-10.9236,
7.0104,-2.4515,9.9952,3.8773,6.6831,23.0454,14.479,-8.8804,13.6359,-4.6874,7.8243,-7.673,9.0928,-2.7964,
4.1792,-0.85857,6.5034,0.27024,1.9438,17.3239,3.0049,-9.3119,2.6949,-10.6727,6.8729,-2.3919,3.7266,-1.6643,
2.4822,1.6035,3.7027,7.9668,8.0937,10.018,8.6092,-3.4506,7.3534,-2.8019,5.4962,3.5357,3.021,1.3276,
1.6106,-4.0365,3.7217,1.463,12.1876,8.6938,13.6365,-10.7151,2.3327,0.98183,5.8895,9.3494,5.4911,0.042914,
5.852,-2.3483,12.6572,-4.4091,4.2257,7.6904,7.5159,-10.5544,-1.1815,3.8152,10.8386,14.5732,6.1257,5.3428,
-1.0066,-5.8224,9.2467,-0.047219,-7.8384,-6.871,-0.40687,-4.3775,4.433,1.8991,5.127,0.44244,-3.1599,1.4068,
-2.1515,-6.6783,5.0764,7.4274,6.7319,-14.5332,9.9814,-1.9457,15.4952,7.8107,9.8806,-1.2713,4.0196,4.4559,
-2.5043,-12.5446,-1.4947,-3.1416,16.0896,-16.0718,2.1517,-15.3263,2.9964,4.9319,6.8777,1.2151,4.2603,6.1167,
1.7435,-10.1045,0.76396,-6.0863,9.0985,-11.4918,-4.4851,-12.7197,-2.2449,4.3953,-0.52463,-0.54483,-0.57479,9.3653,
-2.6996,-7.5698,1.2003,0.54558,-5.5474,-19.4792,3.9789,-5.2079,11.9898,6.0595,-6.7599,-8.2251,-2.9507,6.875,
-5.189,-0.60833,-1.5231,4.6104,-2.4428,-24.3362,7.8378,-5.1361,13.8013,4.4909,-2.7391,-7.0085,0.84203,9.5958,
9.2224,4.4898,1.7018,-1.2098,11.8038,-11.5478,5.1983,-6.5152,-1.1268,-0.35833,-0.88754,-2.9726,5.3708,16.0099,
12.6459,-3.0102,2.0819,-9.3322,14.1086,-10.3728,2.958,-9.0166,-15.1592,-6.6031,-10.475,-10.9892,-0.73627,10.2288,
3.9334,4.6423,1.716,1.5921,4.8264,-12.4015,7.3603,-2.45,-2.9217,2.2287,-3.821,-6.7144,-0.45066,13.7124,
-3.5332,9.6661,-3.6898,2.4607,-4.1401,-15.0321,0.65192,-6.6416,-1.7823,1.1309,-1.6633,-9.2038,-2.834,19.1564,
7.0426,7.3989,3.5214,1.1073,5.5079,-9.069,5.1921,-10.8228,0.49381,-1.1066,-5.1794,-12.7494,0.46909,22.5863,
7.8251,0.92969,4.5152,2.2464,10.7212,-10.2114,6.0861,-8.486,0.70538,-1.2809,-8.9657,-14.1534,-3.6562,17.134,
3.9814,4.7301,3.7621,9.8246,-2.4553,-10.0809,6.2026,6.0027,5.4835,-1.2038,-5.0536,-11.3757,-5.8472,17.552,
4.7068,5.8925,3.0545,4.4144,-16.408,-9.9579,8.723,6.1245,-2.5582,-11.7369,-9.0887,-16.4778,-3.5681,11.6782,
8.7625,6.0211,3.8353,-0.67095,-15.7854,-7.9144,11.0919,-5.33,-6.7433,-12.9606,-8.0612,-19.3457,3.3946,4.2288,
4.8626,9.0336,2.6411,5.6356,-0.73828,-4.0653,4.6416,-1.636,5.2302,0.8322,-2.2751,-12.8826,3.6731,4.4568,
-3.6244,8.4921,-1.3738,4.8155,0.63179,-6.232,-7.6885,7.6212,1.542,-1.1459,-2.1386,-10.6633,-0.40367,-0.14894,
2.8603,9.9105,3.5291,2.5986,8.7888,-2.0015,-2.4062,8.128,-7.7089,-7.8258,1.3639,-5.685,6.3692,1.3065,
3.1706,4.0132,1.8711,-1.4137,11.6359,-6.7016,-3.2262,-2.9649,-10.1389,-5.9105,-4.5025,-3.8976,1.1664,-1.6644,
-0.39408,4.2548,5.1338,3.4919,9.4915,-12.0841,-1.1039,2.5161,1.5567,3.6036,-3.7499,-4.1457,0.61491,-2.0465,
-2.0577,1.8299,7.4764,4.0052,4.8247,-13.5287,6.9156,5.4981,3.15,-2.6386,0.090024,-11.3692,5.6392,-1.6827,
3.8504,-2.6177,7.0283,5.2112,6.9453,-9.8244,12.7676,1.7938,2.9615,0.89417,3.9415,-11.6509,9.1573,3.2389,
1.4504,-7.0402,2.509,-0.64533,9.1799,-13.3326,2.1194,-3.3753,5.9171,4.9381,-5.2133,-16.4953,2.5821,-2.4992,
1.6044,0.85357,9.8302,0.59869,8.3882,-10.3635,5.1257,5.7453,2.4286,0.062073,-3.6952,-18.1571,2.6681,-5.9647,
1.0259,4.1766,7.7939,2.0088,0.65381,-10.7057,14.4589,6.8466,-4.4658,-1.3877,-1.0636,-11.7653,1.062,-3.6784,
1.4466,-2.3403,1.06,-1.9679,5.4355,-11.5094,2.0224,-3.2054,-1.7875,3.998,-2.4458,3.0406,0.034165,-1.0473,
4.9749,-4.8512,3.1653,-2.091,15.473,-1.901,-9.4273,-4.2181,-2.8853,-5.1597,-1.5759,16.9582,6.0574,-0.74376,
4.1943,-2.1498,5.8677,2.373,11.6528,0.62339,3.6716,6.1581,-5.1226,-13.527,-2.9274,15.459,7.6224,-2.1452,
-0.15495,-2.7439,0.93614,0.54316,2.0354,-12.6706,9.4771,5.5474,-2.1639,-12.4746,-3.4749,8.0238,1.6217,-4.1858,
0.57747,-5.2306,2.5674,-5.9971,6.0108,-13.5974,3.847,-2.257,2.0631,-12.9312,2.277,13.5677,5.6215,-1.7653,
1.5072,-7.3274,5.3054,-4.191,8.5422,-6.997,5.062,-0.1934,-0.95279,-15.0474,1.6584,15.6461,9.623,-1.6594,
-4.1267,-6.1641,-0.55627,4.4963,-0.40575,-5.854,3.5536,5.844,-3.065,-10.047,-0.12808,10.6098,5.43,0.60957,
-11.5923,-8.2049,-7.7537,-0.59372,8.7772,-4.5384,-5.3367,3.5651,-0.95291,-5.5878,2.2897,11.9014,3.6584,0.57299,
-7.2813,-4.0972,-4.6374,-2.2453,22.3505,1.7594,-3.8112,5.0385,-2.583,-0.1913,5.7678,20.5873,11.8745,0.77958,
-4.1931,0.24626,0.70274,2.4685,23.2996,1.4126,-0.93165,1.6024,-6.5251,1.5076,-2.0503,16.2188,10.4389,1.4559,
-1.049,2.6416,6.4452,4.7309,7.8016,-2.0461,5.8732,0.060494,-2.7592,1.4172,-3.3731,13.3175,8.3668,6.6712,
1.424,-0.40895,5.5765,0.59069,3.5974,-6.2621,3.5926,0.5388,-5.0037,-1.078,1.6495,12.5184,3.0441,5.3066,
-0.10766,-3.2769,3.3133,1.0372,9.1661,-5.8864,4.8233,0.9884,-4.704,-2.942,1.5506,4.5365,-4.8518,1.1318,
-2.2701,-4.7673,4.8019,2.18,-2.7118,-8.1845,10.5597,0.6879,-2.2523,-10.7189,-4.5678,-6.5817,-3.8371,0.82273,
-0.4467,-4.7222,8.1292,3.2545,-4.7182,-12.7547,4.8644,0.88805,2.9445,-14.6556,-0.19638,-5.9459,0.0085432,5.3531,
-3.5534,-8.0543,2.0979,2.3359,2.5543,-18.9793,-7.72,-5.1912,-0.84761,-16.9093,0.53831,-7.2763,-7.9462,1.4165,
0.51621,-3.7151,1.972,3.642,16.3808,-10.6097,-0.99027,-0.059048,-11.884,-16.3771,-3.3504,-3.4653,-3.613,6.6337,
2.1722,-4.6968,4.9869,0.29021,13.7105,-5.3936,6.5412,2.5958,-12.376,-14.6713,-10.139,-3.9805,4.5577,11.7795,
2.765,-4.6562,8.3034,3.4061,1.5599,-5.7931,4.9436,-3.1033,2.4666,-9.6935,-6.8793,-9.2851,2.1153,2.6369,
9.348,-1.4848,7.3228,7.54,13.0354,-7.8561,5.129,1.4212,5.8135,-2.8453,6.5488,-7.7641,3.9162,-4.7522,
6.8587,-5.7342,1.581,2.2671,23.8222,-12.6871,3.8571,3.2639,-5.6228,-1.2286,6.6376,-5.3698,7.0559,1.7997,
-1.0248,-7.5591,-1.1652,-1.4841,13.4751,-11.2028,0.49244,-2.4758,-6.4905,-2.3599,3.588,2.4239,-0.83952,7.2351,
0.96531,-6.6236,0.35098,0.051215,8.8102,-12.9407,1.4268,-1.8448,-2.2446,-4.6285,7.2296,0.83224,-8.9839,0.052528,
7.4149,-7.4315,3.9449,3.6636,17.1996,-14.3339,4.9566,3.3275,-0.90468,-2.1816,10.4108,-13.3177,-5.7937,0.77228,
3.5955,-9.3958,4.6725,1.0332,13.2756,-11.0633,6.1054,0.71729,1.0778,-1.5683,11.7148,-26.6186,-0.14346,8.4387,
-2.4048,-11.7241,1.0177,-0.47463,0.4275,-14.7378,3.329,-4.6279,3.4233,-5.3311,15.8322,-39.1215,-0.61678,6.0042,
-5.1526,-12.4669,1.439,1.964,4.2582,-27.9536,1.683,-11.5811,4.6641,0.29191,28.9822,-22.6742,5.2048,5.162,
-11.3513,-13.888,1.5937,-2.7336,6.1719,-36.038,-0.58715,-18.8404,1.2508,5.3356,31.7023,-7.2138,6.0978,12.806,
-18.383,-18.3574,-4.287,-4.0159,-7.6958,-34.8401,-3.4444,-15.2999,0.69381,3.0873,34.1385,7.3191,2.357,17.3403,
-18.9671,-25.6919,-6.1987,-2.5694,-8.4391,-46.0058,-1.5503,-17.0327,7.1599,4.5895,46.1902,16.7621,7.2775,13.6486,
-13.4909,-25.1147,-1.9706,-7.2357,3.1543,-50.4765,1.9169,-25.17,3.838,1.4214,33.4161,1.6564,-1.3541,7.5272,
1.4185,-9.5078,12.2476,5.4907,17.065,-33.3479,8.7916,-9.5598,-2.9,5.4337,17.3112,-12.543,-12.1189,21.1756,
15.4334,5.1627,15.4901,10.9459,30.1411,-17.2471,4.4077,4.632,-5.6185,8.964,2.1725,-25.8904,-14.2842,34.0051,
8.4821,-0.6907,9.9809,5.7094,31.4659,-24.166,9.6868,-5.5283,1.2265,10.1134,-0.12678,-16.2626,-11.74,32.6879,
6.045,0.31507,10.3464,5.3673,28.1321,-19.3416,17.3008,8.9034,-6.5598,5.6502,-12.6527,-23.4815,-25.0149,25.424,
3.995,5.8398,5.1459,4.3219,27.649,-23.2428,7.3447,14.2745,-14.6024,6.0341,-9.2424,-23.2779,-28.5756,23.1752,
-5.4039,-6.5619,-1.9116,-1.2399,28.4005,-35.9482,-4.6654,-0.68196,-6.4956,15.3133,5.4121,-7.7812,-12.7611,27.0875,
-10.864,-12.435,-1.3147,-5.504,32.4812,-35.5988,-1.9751,-14.741,-6.1056,11.9841,8.3416,6.7856,-7.7774,25.9445,
-5.6324,0.12173,4.3078,2.78,37.5222,-20.6884,5.6152,-2.2874,-1.1596,10.5422,13.3847,0.59391,-6.5878,24.6288,
-6.5,1.319,0.43368,4.3002,33.5835,-26.4372,-4.1219,0.019216,2.5252,14.4887,24.3915,1.2814,-5.4694,30.1407,
-4.4226,-1.8934,3.059,1.3913,33.2554,-24.1278,-7.0079,-2.1513,0.2043,14.3425,13.0463,7.7122,-12.6133,40.1426,
5.2428,6.1744,12.2754,6.369,44.9989,-8.9416,3.7769,8.824,-0.53086,13.7234,-0.028957,-0.7047,-19.3278,44.7234,
0.34847,5.0806,5.9953,7.6741,46.3963,-16.3591,3.3093,5.6435,2.1521,10.2484,0.21375,-14.7624,-22.266,41.3171,
-2.3233,0.67865,6.8411,6.9729,43.8537,-25.7414,3.8339,-2.1672,4.6743,5.054,3.8166,-17.6121,-24.5452,46.7921,
11.5542,6.1813,17.7586,8.2416,53.0324,-14.7969,17.7039,7.3631,-2.5958,-1.7569,9.6134,-15.3503,-31.0265,48.0821,
11.1021,2.1948,11.6316,0.75696,46.7172,-18.9708,14.5927,6.6801,-16.1786,-9.6055,-0.36368,-25.2758,-43.2649,31.0972,
10.436,11.7045,14.3082,7.4604,40.5397,-19.7607,-0.38284,3.8692,-1.1079,5.0708,2.0683,-13.154,-54.769,39.7157,
2.338,8.3507,9.8343,5.808,28.7073,-14.9597,-1.4444,-5.281,5.3458,14.0463,5.0777,-9.2317,-65.5829,48.179,
3.4028,1.8243,9.485,4.2544,35.9032,-6.1084,12.7422,-2.7948,3.82,4.7676,1.6397,-14.2212,-71.1684,33.4779,
1.5112,-0.45451,8.6747,3.758,41.7025,-11.7676,-2.1223,-5.2789,6.724,14.3633,-5.4487,-13.1267,-61.8368,17.3693,
-0.74818,2.2239,6.9494,6.1836,33.6567,-12.2664,-14.7694,-8.5771,10.8999,27.6015,-4.8804,-2.9391,-55.9572,12.1093,
7.0093,3.0545,7.9784,7.2591,35.012,-1.4073,0.21674,-2.7601,-0.8411,13.5329,-12.7825,-11.9216,-51.6357,2.2239,
18.3991,7.9327,14.0074,8.9925,43.2749,6.6307,2.7346,7.2877,-8.7446,-1.3791,-14.1849,-22.0528,-37.6915,-7.7921,
20.4284,10.5905,14.8544,8.6941,41.884,6.9562,-3.4548,9.5018,-0.26596,1.2345,-2.0054,-14.7038,-27.4758,-3.709,
20.4077,8.2676,10.3475,2.6286,42.5042,5.3337,3.2597,5.7984,-5.7934,-5.3473,-1.6444,-10.6883,-26.5506,-9.9941,
23.0397,5.8433,9.7267,-4.2775,35.1332,3.0855,2.5822,5.9324,-17.0154,-15.1494,-13.5968,-18.2417,-26.4039,-23.4945,
22.6216,3.0826,12.5175,-3.539,20.0098,2.418,-0.94718,8.9509,-14.5482,-9.4202,-17.1198,-21.486,-24.3372,-36.1848,
18.131,1.6926,11.5257,-2.6035,17.6042,0.10399,5.1354,2.87,-16.3266,-5.7217,-17.2976,-18.5094,-23.6001,-37.8699,
17.2839,7.1344,13.9674,1.6503,24.0199,-0.62538,8.9249,5.3492,-11.2495,1.6117,-14.0904,-14.7475,-20.0147,-38.249,
16.2471,1.4039,12.1653,2.5154,13.4199,-0.58763,2.6046,3.5822,-8.1641,8.2637,-10.8346,-18.6831,-21.2242,-48.4873,
22.021,-0.12634,17.2197,8.6312,8.7581,13.5476,5.8225,-0.0069763,-0.92561,10.6602,-7.2922,-16.5981,-12.7201,-40.7576,
24.3149,6.3889,18.3559,11.2466,9.9196,24.9061,4.2681,5.5368,1.2989,2.0666,-11.9162,-14.3971,-13.6442,-31.3225,
17.5534,5.0413,10.9876,2.8586,8.8425,15.699,1.6019,8.5791,-3.5993,-6.2526,-15.058,-8.713,-23.4308,-32.8176,
13.8491,1.1234,11.0517,1.0003,4.6966,10.6597,9.4595,2.5207,4.5704,-3.2259,-10.0567,0.24588,-17.9274,-25.7869,
7.2333,-4.2464,8.4602,4.3145,-9.6852,10.5023,2.6252,-7.7537,2.3682,-5.9246,-14.7558,-7.4819,-15.8876,-21.3474,
10.6562,-2.5454,12.7733,9.3583,-5.6092,16.1386,3.432,-1.9858,-0.18404,-1.7127,-10.496,-8.9612,-8.6676,-16.2101,
3.7498,-11.5517,8.1505,0.11966,-3.3444,13.2421,9.0107,-1.3847,-2.5836,-4.0201,-7.9385,-5.531,-7.1835,-17.1657,
-1.0542,-15.4381,5.0102,0.35368,-13.9898,5.9404,8.7112,-0.5785,-1.223,-7.3941,-11.0773,-4.476,-8.4395,-13.9664,
2.624,-12.8246,8.8069,7.3223,-12.4275,1.9685,6.5013,-3.6768,3.9116,-6.7095,-14.0281,-10.233,-4.3179,-13.3694,
7.2873,-8.1987,12.1349,7.8469,2.4181,15.9504,9.9676,-5.3849,-0.17952,-8.2356,-9.3301,-10.5833,-0.68461,-14.0135,
9.019,-3.6092,12.1299,7.6172,11.0706,29.0934,10.0927,0.48207,-6.6765,-11.8386,-6.1189,-7.7789,-5.2226,-14.8601,
14.5036,-1.7057,14.5354,11.7397,9.2013,33.8553,14.5486,1.6582,2.16,-9.9232,-8.4031,-11.4098,-0.81211,-15.1736,
19.1772,-0.88021,15.8326,7.9021,10.8182,23.388,15.3627,-2.5389,2.7536,-7.1584,-8.6221,-14.3404,7.1906,-14.9863,
12.2418,0.1367,9.5803,3.0894,9.2054,25.359,5.2821,3.3983,-7.0528,-7.2111,-5.6944,-9.6238,1.9387,-15.0512,
1.8663,1.0924,3.2204,5.7961,7.6888,29.1401,0.62641,5.1226,-9.0398,-6.7784,-3.9069,-6.6362,-2.0345,-16.0763,
4.4052,5.6063,5.1966,10.0279,10.8427,27.1505,9.0247,0.71764,-2.954,-2.7565,3.7995,-5.033,7.0059,-11.0142,
12.5772,4.5473,9.4643,9.1854,11.3972,11.4215,15.9553,0.43384,1.8027,-4.2781,13.4537,-9.7925,15.5034,-10.1126,
11.5816,-0.78723,8.6555,8.3934,10.9548,-3.3638,16.6852,0.64878,2.8999,-6.6725,17.7082,-14.7481,16.7428,-10.2287,
7.994,-0.74022,6.6901,8.8534,8.3691,0.93535,19.5402,-0.35425,1.7618,-8.2006,11.3428,-16.2736,11.3992,-8.6509,
14.5045,5.8119,13.2783,10.4916,11.0002,8.8332,24.3936,0.87207,-1.4772,-13.7343,8.0109,-16.9846,9.0282,-8.855,
14.5983,9.3198,12.4814,10.8262,14.1968,2.5189,19.5558,0.33759,-2.3527,-15.3206,8.4944,-17.8935,11.3788,-11.216,
9.3838,7.7965,6.4306,11.1407,14.3091,-8.7193,16.4545,0.31756,-1.2474,-15.365,2.2004,-21.1584,9.2501,-9.5789,
4.0001,5.4001,2.1879,6.6159,8.1479,-11.571,13.5385,3.1906,-9.3677,-22.1564,-11.9114,-26.6378,1.9462,-9.4861,
0.38609,5.5585,3.5029,3.8088,0.91009,2.621,10.798,5.8917,-6.3951,-20.3446,-16.9813,-22.147,5.2039,-8.917,
1.0858,4.0197,7.3901,5.2675,6.3991,13.3096,9.9092,1.9227,1.9424,-9.242,-6.08,-14.3107,13.3278,-7.659,
4.3951,3.2965,5.5004,4.9514,15.6561,12.511,10.279,0.36111,-2.0306,-3.8667,3.4438,-10.5596,14.9382,-5.7532,
-3.0999,3.0988,-0.61421,0.31558,3.1476,9.3502,6.7697,4.1958,-5.2832,-0.74268,0.34465,-9.9265,10.6675,-9.2644,
-13.2775,5.5642,1.1101,1.9841,-6.9234,10.9586,6.6047,9.0055,-2.7968,3.8814,3.4572,-5.7152,11.7144,-13.77,
-14.4091,7.1585,5.3818,5.7214,-0.24105,14.6399,8.6186,7.9833,-1.6647,2.2027,12.4088,-1.5155,18.7248,-13.4257,
-14.2676,7.4521,-0.0030014,1.7625,-0.46778,18.8225,3.5219,6.2987,-5.1809,-0.099295,15.2795,3.6365,19.7702,-10.4513,
-14.1347,7.7281,-1.6894,-0.51218,-3.573,15.5242,3.5518,10.5008,-6.5566,6.8968,7.3731,9.9264,20.2715,-9.1011,
-15.4558,5.5772,2.9913,3.6159,-2.1533,8.5672,8.8823,8.6655,0.82623,16.3649,-7.1693,8.1256,19.2961,-11.2061,
-11.8771,9.8221,2.0887,2.6758,-2.7472,14.5604,3.2875,7.9043,-2.3566,12.7317,-20.8392,3.0585,16.9329,-11.2573,
-3.4517,13.0892,2.4453,-4.2336,1.274,20.4357,2.6083,13.2147,-11.8562,0.39861,-33.6888,1.4287,16.8812,-12.0277,
1.5759,11.3397,7.601,1.3228,10.8383,21.1375,14.0212,16.2784,-3.9142,5.1952,-34.6802,3.7534,19.7245,-10.3419,
-3.3394,7.7668,2.3247,1.2439,0.54702,13.6027,7.8773,11.4453,-3.1974,9.7042,-38.384,-2.7383,13.7208,-18.3985,
1.4409,10.9164,1.4621,-3.4103,-12.26,9.6533,1.8612,13.8918,-9.0309,5.5063,-38.7323,-3.7791,16.0308,-20.4279,
6.175,6.4048,4.7486,-1.7596,-12.0066,6.6638,6.0877,11.1304,-7.043,9.0325,-45.0852,-3.0707,19.4075,-17.2738,
3.6348,-1.4513,4.2227,1.9614,-13.9373,2.6485,6.4458,2.9907,1.3333,17.8906,-51.2982,-6.0194,15.5919,-24.6735,
4.3811,4.4204,0.59487,0.87938,-19.85,4.4178,0.27443,4.2571,-6.4594,9.1044,-47.256,-6.6226,17.5485,-28.9776,
1.9491,6.8067,0.31821,-3.7527,-19.8638,3.9118,0.98087,7.6175,-19.3283,-5.1807,-49.4823,-5.02,20.111,-21.6954,
5.4473,3.747,6.8068,1.5339,-16.5026,0.54381,10.8042,10.2937,-7.8045,-3.1824,-51.0929,-7.3701,21.5557,-12.4397,
12.1103,3.2812,7.1213,2.1648,-15.7538,0.75214,7.0224,6.0602,-6.1309,-5.643,-41.0374,-18.2563,20.5033,-15.7906,
11.1425,4.7713,2.115,-5.4367,-8.3009,2.3945,-1.8348,-0.32869,-15.6452,-6.5095,-37.852,-18.8477,17.5861,-19.9047,
6.6176,4.4851,1.5062,-7.5206,-4.4284,3.2147,1.6497,2.1012,-12.7783,1.1119,-47.6325,-9.0402,16.5309,-21.121,
6.2208,2.288,-1.9589,-8.0335,-11.8757,2.0577,3.9611,1.9753,-12.0114,0.081121,-50.0769,-11.872,17.467,-27.0843,
10.909,1.4276,-3.0464,-7.3102,-14.2964,2.1754,5.4104,-3.687,-13.4601,-1.6107,-39.6007,-18.6317,18.1065,-23.7723,
12.906,2.0648,-2.6227,-8.0769,-6.9307,1.8039,5.8092,-4.1887,-14.8216,-1.7551,-32.1626,-18.7186,16.7791,-20.1763,
8.275,0.97684,-6.8039,-9.0383,-3.1406,1.2135,1.1221,-1.527,-15.3784,-11.7729,-34.0894,-21.9341,15.2902,-27.6431,
6.0908,-1.2509,-3.7445,-1.0247,-9.4601,-1.0289,5.1521,-0.71252,-6.9843,-11.3079,-30.8392,-22.7877,19.9159,-26.2254,
6.6899,1.2345,3.2293,5.304,-13.7125,-1.4489,10.6278,-3.0801,-0.78046,3.4705,-20.7939,-11.2968,23.5419,-18.3852,
4.842,0.67825,3.0353,1.1291,-6.1416,0.56603,9.508,-2.4132,-4.1079,2.1777,-20.0285,-8.691,18.2728,-23.0669,
2.3824,-4.4241,-0.27986,-3.036,-7.4598,-0.67276,6.7683,4.7215,-9.8869,-8.3168,-26.2986,-14.677,15.9716,-26.7441,
-3.0632,-5.1225,-5.5657,-1.8899,-21.1123,-4.0069,3.9516,3.4739,-5.9197,-0.58742,-24.2387,-8.9762,20.7979,-21.7654,
-4.5667,-0.7183,-4.0269,1.8389,-17.0742,3.223,8.2938,-2.7601,7.6918,11.2584,-13.3844,0.9624,26.0575,-19.2542,
2.2155,0.53032,2.7224,1.9697,-1.9497,13.8761,13.822,-1.8714,8.9178,7.9316,-11.8582,0.66346,27.1454,-18.3402,
2.8055,-1.6707,-1.0559,-1.2819,2.8675,8.4642,11.3059,0.41009,2.3572,-0.016119,-19.1004,-7.812,23.3475,-16.0345,
-5.5578,-2.5345,-14.0082,-3.6154,-11.4046,-2.6491,2.9145,1.3496,-2.6052,-0.49731,-25.185,-13.1281,11.3416,-18.9285,
-6.9113,2.1971,-17.7472,-5.0854,-18.0714,4.9818,-2.3218,3.9199,-10.4024,1.22,-28.7354,-8.2428,2.7071,-20.9261,
-10.3533,3.0293,-20.539,-8.6369,-11.6847,7.0928,-10.8598,-0.17188,-15.0811,-5.12,-34.7243,-6.3022,1.5806,-20.6351,
-11.1783,5.7396,-23.1626,-5.2262,-14.84,-4.9019,-15.5104,-0.6435,-15.6221,-8.6692,-34.569,-7.3699,-0.92438,-17.9507,
-6.892,7.5647,-16.7114,-0.33311,-20.4573,-5.3309,-7.5901,3.9746,-12.0339,-5.4977,-25.0233,-8.1332,-3.5202,-19.0431,
-13.2274,5.665,-13.7805,-1.7594,-22.1219,4.6304,-3.2784,0.84409,-6.0087,-3.7216,-19.665,-7.6448,0.065429,-20.3101,
-18.2181,9.1812,-12.4715,-2.136,-11.1539,11.5832,1.2569,-0.65305,-1.7921,3.7323,-14.1466,-1.4017,8.2564,-8.0045,
-17.1248,1.8817,-9.3129,-5.864,-11.9307,1.2474,3.1099,-3.9881,-1.2024,12.1853,-12.3337,-1.7993,7.2789,-6.5602,
-15.6156,-0.15964,-7.3085,-1.1741,-18.9278,-5.5766,-1.8976,-3.2666,0.79774,19.6491,-6.7736,-3.6198,8.7701,-12.4333,
-22.6326,2.0193,-16.7517,-1.8263,-22.3717,-1.6263,-11.6655,-5.24,-2.3834,17.747,-9.0181,-3.6438,6.075,-18.195,
-21.2742,1.4162,-17.6748,-5.0912,-18.1369,6.666,-9.0374,-3.4794,-0.31218,18.1285,-15.2259,-2.4609,0.88977,-13.2469,
-19.998,2.7773,-12.7582,-3.8216,-24.7616,16.3891,-8.4953,3.4781,1.6345,16.5586,-17.6866,-0.86718,-2.0559,-1.8471,
-27.9573,3.0928,-22.1158,-4.5564,-37.3759,27.4571,-15.2162,8.0899,-11.4788,3.9957,-25.7847,-1.7792,-8.1993,-0.77213,
-23.6286,12.307,-22.4759,-2.1136,-31.3973,39.9097,-9.2418,15.0765,-20.6717,2.0689,-23.5144,3.389,-7.9481,-5.3053,
-24.1391,18.3175,-21.6092,-4.8793,-29.9958,44.8664,-15.9181,15.1358,-19.4319,2.4267,-22.5855,-0.67076,-7.4712,-4.987,
-26.5469,24.4491,-21.2768,-1.6943,-40.7293,54.2258,-23.158,17.1199,-11.9992,8.0659,-20.2663,0.81551,-4.1306,9.4122,
-23.99,26.3563,-19.5185,2.2635,-44.0699,63.9874,-16.948,18.985,-13.2072,11.9201,-22.9069,10.4078,-7.7394,14.9937,
-22.7915,23.0882,-17.1421,0.44096,-43.1129,66.6561,-12.7977,25.3177,-16.5122,11.9282,-28.5219,13.8807,-16.1927,8.0686,
-16.8445,27.7282,-13.4622,4.0297,-39.3211,76.7567,-14.6811,34.1628,-12.8701,17.7203,-22.2311,19.0736,-13.0522,15.5384,
-11.9777,32.8132,-9.2803,9.0903,-37.9259,86.2513,-12.8362,30.667,-5.3497,20.5132,-17.5232,22.7497,-7.9305,23.2825,
-13.6692,33.7369,-5.349,10.4731,-39.5068,82.0401,-7.7277,23.0424,0.75634,11.0877,-15.9897,13.6719,-7.4547,17.5473,
-7.7873,37.7383,-0.44831,12.9782,-31.1108,82.1794,-5.5763,29.6136,1.9163,4.3969,-6.5942,9.7181,-6.284,11.9151,
-4.1871,40.5356,-0.66284,15.333,-31.4133,81.346,-6.9294,32.8984,-2.2965,6.3022,-13.1884,14.6786,-13.8612,13.3694,
-4.6587,43.1652,-2.7918,16.5822,-38.4461,82.9732,-7.7185,29.7192,-6.2561,7.6113,-23.2431,23.1979,-20.0189,21.9672,
-1.9691,45.3955,-4.071,16.5511,-27.9451,88.5996,-1.9532,34.6845,-5.3988,1.3701,-7.7485,28.0726,-9.1773,26.4338,
-9.3228,37.6101,-4.0677,12.907,-14.4578,76.2938,3.2257,33.3268,-1.9414,-5.702,6.8164,26.1472,-3.083,17.8579,
-15.2713,31.2562,-3.1007,10.9272,-22.5084,66.1725,-1.0652,27.2294,-1.102,3.5582,3.2737,31.0859,-9.406,16.5454,
-13.8729,22.6321,-8.2171,4.4873,-35.1374,61.2381,-6.3037,22.7038,-3.4462,11.5396,-1.2608,30.6672,-13.1797,14.5886,
-12.0764,15.4894,-8.2058,6.6284,-26.2805,53.7076,2.2694,27.1259,4.4735,15.1858,10.8661,29.3094,-0.81954,7.9289,
-18.8234,9.0166,-8.4366,8.3996,-28.8008,39.1572,1.4101,29.5959,9.2666,20.3,12.8655,31.166,-1.0116,-2.429,
-17.694,8.4756,-8.4123,6.9318,-37.1961,35.8435,-3.4952,22.5175,10.6388,19.5644,8.2372,29.778,-5.7711,-9.5141,
-10.1247,10.1365,-6.7025,5.7927,-28.4566,37.3085,1.7764,9.8385,9.7597,9.4727,11.8401,22.4479,0.60046,-14.4866,
-12.6504,4.9488,-8.4697,2.3119,-25.5442,26.1517,5.767,5.6326,15.1994,6.7349,11.3709,15.5576,2.7338,-19.1612,
-12.3738,-0.16886,-8.9254,1.2089,-34.1344,23.6187,3.0108,10.1153,22.0003,9.7048,7.7961,15.588,1.6055,-19.4578,
-5.6056,-1.3638,-8.6311,1.3771,-31.8456,18.5859,-0.78547,8.3029,13.6906,4.543,10.4616,17.3041,3.6785,-19.9774,
-4.0642,-7.7897,-9.3183,-1.3564,-26.8012,3.3708,1.431,2.7437,0.57687,-0.79102,10.0751,15.5427,5.6272,-22.8763,
-8.1587,-12.6249,-9.7235,-6.5777,-32.4239,-3.7004,4.2377,-2.2416,-2.8322,1.1846,5.1323,16.5383,5.2896,-29.2165,
-8.633,-12.3494,-11.0683,-8.1112,-27.5864,4.2344,5.4292,-8.3736,4.5686,1.5959,5.3063,15.0641,6.9004,-30.8375,
-3.536,-11.8496,-12.5731,-4.9732,-15.0848,6.1493,2.4522,-6.1842,6.9458,5.1154,10.0493,10.5446,8.6553,-25.854,
-5.9751,-15.2362,-10.1317,-2.5059,-19.7235,2.6471,0.13611,-1.2336,4.3596,11.3162,4.3849,13.0452,6.449,-27.4365,
-14.2935,-17.2139,-7.5954,-2.3553,-29.1452,0.56027,-0.35422,-2.6057,10.8472,10.155,-3.109,13.227,4.1336,-32.5387,
-9.3381,-13.53,-8.345,0.43756,-22.8167,1.2496,-0.57394,0.68417,13.3299,7.859,3.5857,6.4079,5.0909,-27.9351,
-3.9578,-12.7184,-10.2546,1.8573,-20.0021,4.5488,-1.986,3.053,8.1911,5.4585,9.6368,2.6487,7.1958,-21.4385,
-9.9866,-14.8476,-10.1215,0.7818,-30.3709,3.7937,-2.3485,-3.3969,8.1818,5.6132,9.0584,8.2746,7.2462,-18.7062,
-13.244,-13.9565,-9.9959,1.2171,-29.0309,2.1201,-4.136,-6.5673,10.5831,7.2048,8.5151,12.1167,7.2931,-15.6556,
-10.28,-13.3598,-13.4938,0.4209,-16.4425,5.6085,-3.6467,-4.0039,7.7792,1.2292,1.9789,11.1485,10.9531,-13.511,
-9.422,-11.8356,-12.9253,-2.2557,-14.7328,10.3334,3.0798,1.7797,5.625,-3.4241,-0.79138,8.3102,14.3935,-8.1208,
-13.1957,-14.9821,-10.2214,-4.5307,-21.0799,8.7493,2.8948,4.5652,9.1437,-0.32638,3.5944,4.4373,7.7451,-3.2954,
-14.3319,-18.4212,-8.1621,-0.40223,-19.333,2.4396,5.1315,2.8453,14.8623,6.4419,8.1992,5.6171,7.7626,0.27696,
-14.1951,-18.0391,-6.9492,3.2371,-14.5578,-0.35812,9.4031,2.4334,17.1038,8.7067,9.3945,7.4495,14.2865,5.8037,
-10.9333,-18.8849,-4.6041,-0.33159,-10.3099,4.4841,8.8389,1.8054,15.5952,6.738,7.3846,0.73555,10.0548,6.4198,
-7.3848,-17.2699,-4.8098,-2.7218,-2.4604,12.4097,5.8985,-3.1236,9.3573,4.8875,5.0133,-3.6469,3.6669,2.1783,
-5.9776,-13.8233,-6.9315,-0.14861,-1.3487,11.6649,7.4725,-5.8285,7.3493,5.0764,4.7125,0.91046,7.3031,4.4575,
-3.6905,-13.958,-5.5516,0.82486,-6.0883,7.1089,7.0244,-1.6221,4.9804,8.146,4.43,10.979,6.3832,9.0109,
-1.5411,-13.1203,-4.2544,-4.0451,-2.8307,11.9852,6.6032,1.3675,1.3074,10.0676,3.2001,21.8896,1.1797,5.0961,
-4.8229,-12.3333,-4.9632,-5.7308,-4.5888,18.4967,7.1711,-1.6069,6.5313,10.4277,1.0799,18.6478,4.0012,6.7183,
-5.4976,-11.1112,-5.1476,0.87976,-7.2062,16.9047,1.9199,-4.8851,9.9956,8.8379,6.3177,17.5287,9.0636,16.4383,
-4.2036,-14.3011,-8.6949,0.82721,-3.8811,7.2136,1.8049,-8.9301,1.6833,1.559,9.3129,24.6724,2.7354,12.0778,
0.6281,-10.7917,-4.558,0.53638,2.859,2.2013,13.9889,-3.8148,7.1257,2.6705,8.9953,23.9147,-0.080038,11.5939,
0.83138,-2.19,-3.5611,0.26323,4.3747,-3.4744,9.5341,1.9577,6.4572,4.1975,6.7684,16.9362,-0.3162,18.37,
-4.7621,-3.2639,-8.8911,-3.8499,0.49725,-7.8452,-2.3661,-1.7752,-3.8122,0.33022,4.6751,17.1253,-1.5025,15.5806,
-3.7533,-7.6476,-10.0451,-5.3064,-0.73811,-7.1338,0.42719,-7.6944,-4.3066,-2.8229,4.1534,18.2668,-2.1355,7.6561,
0.32809,-2.3683,-7.032,-2.5776,3.6447,-4.7773,4.2577,-6.7506,-2.1202,-0.72552,4.8682,13.7965,-0.078949,3.8221,
3.4419,5.2456,-4.4409,1.6744,8.4877,-0.87529,5.6899,-1.7658,3.0691,2.4515,7.7096,12.7278,0.16675,-0.022216,
5.4048,3.7258,-2.9694,1.3327,3.3989,1.8286,7.0355,1.4729,6.5002,0.61741,10.8623,12.6872,-0.56638,-2.6722,
0.5012,-0.59507,-2.0679,-0.91595,-1.3843,0.51355,9.2645,1.626,8.2793,1.7857,13.8259,12.167,-0.77336,1.5855,
-10.6166,0.88644,-2.4262,2.513,4.9653,-2.8917,16.9033,-0.40024,10.1927,6.4988,15.8889,12.4013,-6.5115,2.9366,
-13.3538,5.6537,0.12971,7.1827,6.5953,-5.1281,17.8176,0.10593,11.9915,8.5192,17.8279,9.2468,-12.8695,3.2426,
-11.1065,3.3865,3.0142,5.7876,-2.4773,-6.2669,10.4818,-0.86452,10.3079,3.1871,14.3478,0.49709,-14.0258,4.0117,
-7.7888,2.9422,4.0384,4.2353,6.1073,-3.2396,12.9861,1.3567,8.4844,-2.0656,10.3537,-3.6303,-10.5329,4.4941,
-10.4547,-2.7782,0.18094,-1.0802,16.1049,-7.6247,12.9301,-2.8222,5.324,-5.0749,2.2604,-5.0995,-15.4448,1.5731,
-9.3455,0.281,2.0983,-1.9798,13.2105,-6.6853,8.7798,-0.72472,6.9327,1.9785,2.6068,6.2937,-15.9639,5.8171,
-9.0258,3.3976,-1.643,-4.994,3.9822,-6.5252,3.1918,-3.3323,1.937,-1.7556,4.62,10.0134,-17.6576,4.2632,
-4.869,3.9169,1.5888,-1.0792,8.8047,-5.4105,10.4719,-3.3736,9.2928,1.001,9.8862,4.3512,-13.9468,4.7305,
-11.3256,-3.0673,-1.8808,1.8779,7.3118,-7.4962,6.4693,-3.1714,12.1095,4.7971,7.3646,-2.1766,-12.6279,0.10815,
-12.0921,0.0095324,-4.6602,6.5857,3.017,-2.7079,2.2246,-1.5346,11.3832,2.0994,10.2974,7.1128,-5.6034,-0.3805,
-8.4742,3.3832,-3.4165,3.7802,-5.8409,-3.5095,0.64506,-10.6014,9.7361,-7.1858,12.0899,7.6501,-3.8212,0.60643,
-6.5195,3.6621,-2.7296,2.1076,-6.9367,-8.1192,9.2835,-13.8217,11.562,-6.7547,10.4002,-1.4856,-6.9659,-3.2861,
-4.1997,2.4785,-2.5658,4.3912,-5.5562,-14.381,18.3674,-12.9924,10.8683,-3.4569,11.7048,-0.91448,-5.1017,-6.9453,
-3.4662,-0.080767,-3.3762,3.6454,-17.7563,-15.4463,5.6958,-14.6234,6.8418,-2.2856,16.3047,8.2994,0.024185,-0.74426,
-12.6583,-8.5116,-11.6093,-1.6346,-30.4295,-15.2429,-8.746,-15.9152,6.6722,-2.3894,11.2291,7.5605,-4.0746,-1.9044,
-10.9345,-7.0368,-11.8768,0.87386,-14.5037,-15.7743,0.81731,-13.5142,8.2003,-3.6921,8.145,5.1784,-5.2762,-4.2005,
2.9782,2.7854,-2.7281,6.847,0.46651,-10.7301,10.6507,-9.5699,4.5748,4.0012,10.3078,8.0012,2.9946,5.4515,
-0.81588,-0.032811,-4.734,3.3027,-13.6615,-18.5224,6.3962,-8.7547,8.3977,4.0021,5.5915,1.9775,6.9123,3.9191,
-10.4081,-6.7797,-11.6808,0.69439,-20.675,-31.5111,1.6737,-10.6396,13.1965,-3.4688,0.91773,-2.4794,5.0513,-7.403,
-8.0964,-7.0961,-11.2207,-0.55234,-11.9625,-36.9717,-2.5239,-10.2419,8.7895,0.83688,2.5499,-1.6075,5.4713,-2.8613,
-1.1029,-4.9829,-8.3781,-1.7243,-16.7884,-27.2814,-1.1674,-5.5303,6.0927,-7.6492,2.6379,-10.9113,6.3481,1.8897,
10.0503,2.0648,-0.16284,8.0199,-8.0685,-20.3421,13.0027,-0.85992,7.1732,-14.9033,7.3001,-6.8824,10.3058,-1.5981,
7.0371,-3.3618,0.81126,6.0929,1.5746,-27.7987,20.7791,-9.003,5.7789,-4.8501,3.0057,-0.2025,4.8667,-8.7329,
2.5175,-6.7755,0.039683,1.63,-1.6529,-24.4435,17.3632,-3.8836,13.3859,3.3952,0.65618,-0.43132,4.3337,-3.1472,
1.1612,-5.1639,-2.1321,1.7729,-9.0257,-15.9868,9.8132,1.4109,10.4134,-10.9086,3.2681,-4.503,7.207,-1.7533,
3.2607,-4.6131,-1.2813,4.3177,-4.3868,-15.7509,8.0196,-5.1812,3.763,-12.5441,6.6872,-1.5817,7.9799,-3.8175,
-1.0323,-7.4696,-3.3733,-1.9667,-0.50799,-21.3136,4.4052,-10.8961,4.7423,-0.46308,3.6349,0.20061,4.8497,-6.2395,
-1.6933,-4.3701,-4.8584,-5.4639,-1.6826,-16.9011,6.3098,-5.6629,10.4836,1.7341,2.2118,1.3936,1.9074,-7.5524,
4.1929,3.1228,-1.6746,-0.79798,-0.13559,-7.6925,12.198,-6.2872,4.0697,1.6298,5.9352,3.7204,-1.0993,-9.0274,
7.3153,7.7561,2.7642,6.4807,4.2109,-2.4107,9.056,-5.428,1.4154,5.3884,8.4716,5.9073,0.41291,-5.5937,
-2.0412,4.1573,-3.4272,4.4047,-4.4779,-2.989,-3.298,2.3695,4.9459,0.9673,1.9373,1.455,0.62911,-12.2478,
-11.5599,0.53359,-7.5601,-0.6801,-14.3321,-9.0764,-5.9924,3.1914,3.6851,-3.4288,-3.4813,2.8142,-4.7111,-22.118,
-11.3485,-3.355,-4.2142,-2.5677,-7.6876,-14.7985,2.0801,-10.4977,-1.3565,-7.0797,-8.0929,7.4658,-12.1414,-19.827,
-7.7751,-6.528,-3.4792,-0.48523,0.96856,-11.0179,6.7758,-16.6165,-2.2392,-0.87012,-5.6792,14.7309,-10.4488,-9.4781,
-13.0934,-10.9568,-11.4654,-3.8308,-9.6946,-9.8751,-2.3076,-10.3171,2.7156,5.9308,-0.51772,17.2213,-7.4115,-8.9097,
-14.4767,-14.3967,-10.5365,-3.8415,-10.318,-12.4156,-4.3383,-4.154,6.65,5.334,2.1644,15.4651,-5.762,-16.3288,
-6.8597,-10.6406,-4.1195,0.24519,-0.057956,-9.7427,3.1526,-13.064,4.805,4.5318,4.9269,15.5008,-1.5597,-16.3132,
-3.3146,-3.4945,-6.0417,1.4355,-1.2595,-6.0244,5.6148,-19.2698,9.0962,4.501,7.2826,11.4375,5.5236,-6.8985,
-7.9362,-3.767,-12.4274,-0.096622,-6.4864,-8.0733,-1.9527,-12.3288,12.4071,-4.4459,-0.38499,-0.33573,1.8179,-12.7511,
-5.7728,-4.2639,-11.9232,-2.7419,-2.9642,-7.348,-5.9329,-13.7587,5.1547,-9.7228,-2.5313,0.88971,-3.8348,-25.2427,
5.1786,2.2587,-5.9054,-3.0596,5.4086,-0.15841,-0.27452,-19.1995,2.4351,-2.8726,3.8876,11.4414,2.6621,-24.21,
6.5551,4.7743,-4.3458,-2.635,6.7713,0.57399,0.46485,-14.9145,-0.36214,-2.9417,-0.4435,10.5139,-1.1131,-26.3728,
-2.756,3.7647,-3.8438,-1.7538,4.678,-5.4858,-0.28571,-13.7784,1.3466,-7.8267,-2.1039,8.678,-10.4461,-36.1184,
-7.4116,7.3952,0.24272,4.6179,7.2894,-6.6033,8.89,-18.2543,13.7993,-2.0544,8.6272,9.1212,-2.107,-38.2901,
-10.3411,2.6132,-0.73571,2.8946,3.4776,-9.5811,8.8385,-17.641,8.1506,-0.48489,14.3765,3.7532,3.8045,-43.7055,
-9.9616,-4.0516,2.9239,3.4443,-6.1311,-11.1754,3.247,-11.0389,6.9387,3.1592,23.8778,6.1796,5.7454,-41.3243,
-13.2201,-6.2186,4.1947,4.2015,-8.6552,-16.7714,0.15966,-13.7511,17.6096,7.3084,25.3377,4.3626,7.8108,-37.3984,
-11.4628,-3.9173,-0.39532,0.093026,-0.9051,-17.2114,1.1144,-17.7462,17.9993,3.0135,10.32,2.1726,5.4139,-33.7085,
-6.1957,-0.54898,-4.9511,-0.63569,-1.5741,-3.4045,1.7707,-11.1381,5.5909,1.6276,1.7469,14.8165,-1.4186,-26.1423,
-7.9931,-0.27485,-7.7878,-4.2127,-4.6127,6.682,-4.3613,-6.8546,-5.5906,1.2888,3.8114,22.3634,-7.3593,-28.1892,
-12.0931,-0.98149,-6.5974,-9.5038,-2.649,3.6297,-6.751,-8.1303,-3.5682,-4.3319,0.93143,14.0319,-4.2664,-29.1492,
-6.7882,2.2107,-1.622,-3.3897,0.16129,3.6527,0.16179,-5.9555,4.5999,-8.6515,0.63435,9.5748,4.9074,-22.8207,
4.4654,2.3192,2.5729,-0.053101,4.2492,5.6029,5.6955,-6.8033,1.1906,-6.9274,4.2119,11.6517,4.8542,-29.8874,
12.8748,5.0724,9.1672,-3.4241,10.261,5.7489,4.872,-8.805,-5.1475,-3.1371,8.7797,14.8092,3.5988,-33.8785,
10.6556,7.1781,8.6172,-2.2548,6.7524,5.8859,-1.2053,-5.867,-4.8387,-5.8418,9.6987,11.0277,4.3468,-29.4359,
4.2319,3.8554,5.2081,-0.67327,0.56309,7.9429,-3.0607,-1.1762,0.75428,-10.3116,7.671,6.0277,2.1582,-32.4902,
6.6291,2.9009,8.5108,-1.356,5.5908,6.7432,-3.6002,-3.275,3.8423,-7.5235,11.7898,10.7275,6.1259,-31.7459,
4.3033,-6.4322,1.7336,-8.0231,2.3633,-5.7125,-10.6151,-15.6115,-1.2085,-4.18,8.1904,6.7098,5.7583,-25.9845,
7.1784,-4.3592,1.3884,-1.034,2.9441,-1.2722,-2.0242,-11.5416,4.8893,4.0248,8.904,6.066,3.7258,-19.8461,
3.1325,-0.48225,0.10027,-4.1054,3.0089,2.4196,-2.6256,-6.7517,0.4986,3.0604,3.3085,9.3175,-3.0052,-25.1629,
-1.635,0.27004,-4.0036,-7.9565,2.105,-2.3049,-10.9042,-7.5515,-3.1467,1.1895,-5.3261,22.8584,2.2363,-22.9302,
-2.5012,-6.4951,-10.5123,-9.4077,-3.8059,-8.4336,-15.5526,-20.5962,-3.9223,-7.5589,-3.0784,33.1768,6.4405,-23.4828,
6.326,-0.80295,-5.543,-4.5047,-0.20329,-3.589,-6.9069,-21.7708,-0.31224,-9.9977,11.2063,32.1503,7.9824,-31.2326,
2.331,2.8607,-5.4514,-4.9573,-2.3603,-2.6508,-3.841,-14.9209,-0.53447,-9.1569,14.9932,25.1596,7.2625,-43.4587,
-6.7267,-1.4083,-10.1855,-10.2035,-11.1365,-6.1067,-4.3334,-11.3741,-5.5641,-6.9202,4.6936,26.7835,5.6215,-52.7818,
-8.2515,-3.734,-14.3951,-10.5556,-9.5042,-8.6328,-6.002,-13.5842,-2.3382,-4.5768,3.4477,29.0329,2.8741,-47.2047,
-5.3461,-4.4743,-14.9776,-9.4399,-1.2212,-10.043,-13.3547,-15.1793,-1.7155,-6.7123,-0.13362,22.4702,5.1118,-48.7108,
2.9284,-0.59015,-5.1611,-10.0786,1.9854,-3.8971,-7.0096,-8.7251,-5.2282,-5.5865,-1.3307,19.435,11.7947,-49.8857,
-7.3704,-4.8935,-7.7435,-21.043,-10.1849,-9.9298,-7.5533,-13.5038,-2.5039,-2.3592,0.67737,16.8226,2.4104,-60.3899,
-13.6769,-5.0818,-11.1353,-19.2985,-6.1993,-15.6005,-13.3666,-17.0323,4.8767,8.3876,5.4574,26.9005,2.7477,-64.4793,
-5.3844,-6.9461,-6.8518,-11.1512,5.9828,-11.0495,-6.5391,-13.3593,-3.3697,-1.0337,1.0322,29.3838,14.8749,-57.4775,
9.0386,1.4244,7.6593,-0.59971,18.8802,3.7135,7.9533,1.5422,-1.4803,-8.9254,11.3346,29.79,27.7212,-40.2901,
22.5963,-0.10731,6.3562,-7.7946,14.3729,6.9858,2.7761,-0.35777,-1.8734,-7.908,18.3673,31.377,21.7191,-40.7652,
16.661,-7.0905,-0.53292,-13.3522,6.039,-1.3873,-2.9339,-11.1823,-2.4841,2.9311,12.6857,35.5202,20.6576,-47.7191,
8.6717,-9.3164,-2.6703,-9.4178,-1.313,-2.5091,-0.58847,-9.7883,0.31627,7.3343,9.7556,31.2196,23.0334,-51.8458,
0.67961,-16.7112,-8.0537,-11.9862,-9.6704,-9.8304,-8.9893,-9.9243,1.0202,1.833,13.7496,20.4283,16.5897,-56.6888,
-2.2535,-19.5649,-9.0163,-14.6415,-11.9824,-15.989,-14.7164,-13.1848,1.4414,-1.1695,15.3347,8.5978,13.1842,-60.0361,
-3.8055,-14.2939,-5.8245,-10.1478,-11.9866,-8.5224,-14.0747,-15.5274,2.0776,0.58766,12.7277,6.3945,14.5621,-60.0496,
-6.4694,-12.9541,-5.4748,-7.1286,-12.7137,-4.6368,-11.3022,-15.0779,4.8452,1.5165,10.9999,15.1701,12.7242,-54.5184,
-5.3581,-10.0077,-4.9053,-6.9419,-5.4431,-6.5278,-7.4906,-9.5935,5.2778,0.70261,11.0628,9.6801,11.2379,-44.2575,
-7.688,-4.3455,-9.1903,-11.5866,-7.7676,-4.9308,-17.405,-8.7769,1.8277,0.41948,10.1581,-5.0007,10.8046,-34.1302,
-11.3243,-4.3258,-12.7362,-11.6147,-19.5939,-4.8759,-21.4224,-14.7578,1.959,1.1172,7.3794,-18.8006,10.8792,-27.0209,
-10.1627,-3.5841,-10.0441,-7.5432,-10.7055,-8.9219,-12.4241,-14.3545,3.2879,0.086086,7.9008,-13.0931,12.6368,-20.579,
-8.8298,-3.6102,-7.2723,-8.2961,0.30095,-6.6992,-9.0273,-9.3959,5.7415,-1.6061,11.0419,-15.4408,13.0837,-18.6213,
-9.0231,-7.4909,-9.4873,-7.5574,-6.2248,5.031,-14.5117,-6.1808,3.7098,-1.7507,10.6204,-15.2372,7.7194,-24.4937,
-5.5892,-10.4157,-6.5077,-6.6218,-7.7795,10.0315,-12.1945,-7.256,-1.3328,-0.19961,8.5371,-5.1642,4.3639,-24.4701,
1.0124,-13.1652,-2.2608,-8.635,0.88196,4.127,-7.6069,-13.0876,4.5313,-2.1158,9.9531,-6.3006,8.4404,-12.8792,
-11.0996,-12.3755,-2.1254,-6.6705,3.2392,5.3254,-11.489,-11.8204,5.2235,-6.3274,13.6944,-13.6356,13.2364,-4.3937,
-24.5337,-11.3918,-1.7567,-2.655,2.3219,7.6572,-14.4149,-4.1213,1.2949,-8.5991,15.5241,-11.13,12.2015,-6.7812,
-37.1616,-9.0208,5.3388,-0.80828,8.6903,6.4746,-6.5599,-2.1868,9.1712,-6.8781,13.3876,-5.4007,10.7462,-2.2767,
-49.0319,-1.0078,9.5978,1.8913,7.446,12.1122,-3.9971,-5.1889,16.5747,-3.3319,9.4508,-7.2458,13.235,9.6702,
-60.19,2.4269,4.6836,3.2243,1.6968,11.8676,-9.5416,-4.8773,11.724,-4.0961,9.8479,-11.1492,13.8869,7.1618,
-70.6786,0.59383,2.2334,2.3077,9.0666,-2.1011,-9.6927,-2.4157,5.9587,-4.5735,9.9801,-10.2395,10.4024,4.5627,
-80.5379,-2.5748,2.3401,1.9278,9.2455,-14.7495,-5.0138,-4.4399,13.5553,-2.1299,7.2122,-14.6868,5.6809,10.3145,
-89.8056,-4.1076,1.4768,1.5717,-1.1912,-18.4438,-5.4359,-8.7531,15.8751,-2.2431,7.0204,-18.3849,3.1708,14.7573,
-98.5173,-1.9329,1.388,-0.93322,-4.012,-12.5169,-9.9304,-6.2997,6.2454,-0.66223,5.1529,-8.1232,-0.87625,16.282,
-91.16,-1.8172,0.82256,-3.2876,-2.3252,-6.4635,-13.1908,-1.5834,2.0146,3.7161,1.9515,0.55912,-4.6798,17.2333,
-91.475,-5.0826,-4.0471,-3.0903,-6.0421,-14.2704,-13.8456,-7.7549,-0.034501,1.5649,3.2806,-0.92023,-5.3634,15.2352,
-91.5299,-5.0181,-5.4915,-1.6996,-8.3307,-17.9934,-11.8096,-9.4588,1.6548,-1.1805,4.771,-2.0703,-2.8719,13.116,
-88.9304,-2.3072,-6.608,-2.5617,-7.3489,-7.2731,-13.9933,-0.6963,4.9297,-2.0738,5.4489,-3.3921,-3.6637,8.4727,
-85.282,-2.8916,-9.8272,-4.5772,-4.7388,-6.5957,-13.877,1.0325,4.8749,-3.1542,8.255,-1.5014,-5.6135,7.2412,
-81.1292,-4.6466,-8.7556,-3.8209,-4.9366,-16.8051,-13.0442,-7.7066,3.1364,-0.55507,4.3854,-1.4115,-4.7945,13.5554,
-72.405,2.3809,-0.035331,2.6751,-3.1942,-9.0481,-12.7437,-4.3517,7.2868,4.7811,4.6045,0.6016,-0.65026,17.5625,
-63.24,5.1304,1.413,3.4787,-1.0743,-1.7565,-9.0868,4.5863,11.1881,-3.7007,5.7742,1.0477,-1.0934,10.2423,
-53.1791,4.8228,-1.564,0.37771,4.2928,-3.0972,-7.0955,6.2393,10.0347,-11.6736,6.3919,-1.4256,0.41823,6.7355,
-45.4088,6.7026,-1.7111,-1.8141,11.9889,-2.188,-11.2491,-0.16058,-1.8956,-8.804,3.8392,-5.4374,0.15217,7.5364,
-32.5612,14.9775,4.6583,4.5617,14.1621,4.6918,-8.646,-5.4536,-3.2281,-3.4551,1.6807,-3.1829,2.5532,10.9406,
-21.4485,18.8993,4.3785,5.2521,7.5276,6.8206,-8.127,-7.0546,0.33977,-2.766,-0.83054,-4.9204,3.8465,6.4278,
-21.1257,16.801,4.5982,0.5982,7.0759,4.9651,-7.1574,-6.1491,3.6938,-4.0459,1.1475,-12.3379,2.6513,6.0421,
-25.4015,11.6959,8.4199,-0.16036,11.7133,0.088151,-3.5947,-12.7698,4.1953,-7.9007,-2.0546,-16.6591,0.32334,14.1157,
-24.3598,9.0655,5.9861,-0.63313,8.5999,-1.3639,-3.861,-12.0039,3.9436,-7.9086,-1.4494,-14.2138,2.2317,15.6787,
-22.8982,6.5936,3.6989,-1.0773,5.6735,-2.7281,-4.1115,-11.2836,3.2248,-7.9163,-0.88028,-12.3968,4.5081,16.6661,
-21.0424,4.7517,2.5127,-0.53074,3.8871,-3.0463,-3.3829,-9.6425,3.5133,-6.9593,0.6188,-9.7248,7.1302,18.5585,
-19.5384,3.2615,1.639,-0.25724,1.9669,-3.1043,-2.9387,-7.8587,3.5441,-6.7825,1.7867,-7.4539,9.3537,20.0965,
-18.1254,1.8608,0.33538,-0.0010664,0.16164,-3.6416,-2.5216,-6.6643,4.0542,-6.1348,2.8846,-4.8373,11.4438,22.024,
-16.5557,0.30286,-0.64884,0.48093,-2.2584,-3.905,-1.8879,-5.7822,3.8109,-5.7667,4.1578,-2.6188,14.1316,23.5948,
-15.3214,1.0078,-1.333,3.1034,-2.3641,-2.9476,-7.8004,-3.2661,6.7155,-3.2513,5.5953,1.6354,13.0425,22.902,
-18.0175,-0.73964,-1.976,2.1941,2.8394,2.2907,-5.6454,-1.8651,5.5895,-0.40494,6.947,9.4913,14.4293,26.5896,
-19.8288,-1.6596,-5.714,1.5805,-1.1876,0.22507,-5.7886,4.9955,0.91576,1.5475,6.5298,9.4037,16.4556,32.2248,
-16.4699,-0.35495,-5.6121,1.2445,-7.1419,-5.3318,-9.0565,3.9728,0.61962,4.106,6.3792,8.1164,13.2989,28.6043,
-13.5533,1.5948,-2.3831,-0.75817,-4.303,-3.0839,-10.4415,-3.0142,-1.3455,1.9312,6.4786,12.4499,6.7166,29.2982,
-14.1863,0.052822,-2.2399,0.25119,-5.0089,-3.3808,-7.8868,-2.8334,1.1453,3.2616,2.7154,13.1491,6.7956,36.2174,
-5.8633,0.29085,-0.90045,4.3337,-9.7698,-5.8293,-4.2804,0.46991,7.5843,7.1635,-2.027,7.7807,11.9317,31.393,
2.6834,2.6835,2.528,0.21729,-6.7733,-4.9972,-0.6491,1.888,4.2372,-0.015212,-1.9049,-2.3271,6.3951,20.8326,
3.0043,3.4866,7.1966,-0.75984,-2.0286,-7.1077,6.1385,1.7747,3.5008,-3.8705,-1.3089,-8.4543,0.70894,23.921,
3.0653,3.0364,5.0778,1.9368,-4.5582,-10.2966,1.1909,-3.3935,3.5317,-0.5052,-6.774,-7.2236,-0.53889,27.5474,
10.112,5.2644,5.7372,0.85676,0.053874,-6.3044,0.15514,0.18459,-1.9828,-2.885,-6.8495,-6.3083,0.45777,23.0022,
10.2281,3.7435,4.6699,-6.1847,1.7376,-9.5418,2.3152,1.3784,-10.7817,-16.8119,-1.3771,-11.4736,-0.29328,15.5961,
3.8301,1.5904,-4.7694,-5.8134,-10.4177,-11.3796,-6.0186,-3.5246,-8.2064,-21.7083,3.0441,-8.8568,0.68887,17.5529,
6.9745,5.3514,-3.0369,5.6226,-11.7208,-4.4299,-8.0676,3.4356,1.927,-11.247,5.2716,-1.5765,6.4321,23.2484,
9.4483,3.1023,1.4836,4.3211,-6.1971,-9.9489,-3.245,6.6039,-3.4915,-5.7517,0.61672,-6.3024,1.2257,19.4433,
11.774,0.98801,-1.0155,-4.1328,-7.7535,-15.6185,0.32413,-0.54104,-7.6203,-0.58585,0.57972,-3.996,-3.1866,23.0972,
12.2724,0.68753,-5.5344,-8.4648,-7.0473,-11.5481,-6.6854,-6.5344,-6.44,4.0288,3.6782,6.1254,1.5841,28.2189,
11.536,0.16435,-3.2739,-8.4389,-2.2861,-6.035,-8.2125,-1.804,-6.536,5.7153,1.0474,7.2042,0.52519,25.5616,
15.4236,-0.56864,1.5021,-4.3169,-0.94345,-5.9136,0.71662,3.3662,-1.0819,4.6492,-1.6663,4.1211,-7.4603,27.6436,
24.6213,-1.0167,1.8939,-0.68366,5.8616,-6.041,2.6016,0.75385,0.42903,3.8881,1.8079,8.2119,-3.6385,38.5182,
25.3132,-2.1605,1.0571,-1.8479,9.6073,-8.3296,2.6865,-2.4249,-0.31961,-0.44252,2.9042,2.1756,2.1235,33.0739,
22.5891,-0.82583,3.1629,1.3962,4.9335,-13.3737,9.033,0.37195,5.2429,-3.5492,8.2734,-10.2473,1.2729,18.315,
26.2953,0.4289,8.5168,7.8203,5.8424,-13.7764,14.9984,2.5187,12.4001,1.7251,20.5518,-3.607,6.2581,25.1699,
27.3688,-2.2483,10.657,4.7001,3.3228,-10.2984,10.4832,0.68044,11.4152,2.3446,17.6311,6.0095,8.0519,37.7598,
23.7985,-2.5953,6.6431,1.0436,-6.5177,-9.1986,2.6233,0.63962,3.9814,-4.5448,4.0402,0.34631,-1.5902,33.2044,
24.0578,1.6578,7.4498,7.0065,-2.0291,-12.744,6.0814,6.1449,8.8042,-1.6208,5.0031,-1.3612,1.6387,32.8994,
23.0966,0.11215,9.4133,9.4788,4.3595,-11.0151,11.5012,5.7763,11.1686,4.2612,11.9334,5.9509,9.2532,41.0487,
17.8542,-3.269,4.9919,5.5351,-0.72278,-7.4619,6.4728,0.12705,2.7852,2.5592,7.8429,6.0758,3.8773,37.6214,
21.6034,-1.6266,6.1387,4.7213,-0.67941,-9.4246,5.1203,1.5657,10.813,4.816,4.4801,2.819,2.6806,34.4,
21.5124,-3.6983,4.083,0.82251,2.4947,-10.5465,1.6795,2.6767,10.4051,6.2144,8.309,3.855,1.3148,30.6489,
18.0525,-2.2713,-0.74127,-1.8779,7.8887,-8.2264,1.3382,1.3113,-2.9932,4.1543,9.9796,9.6497,-3.3434,32.9073,
20.8257,0.27529,-0.69703,1.127,8.8614,-7.7326,7.5242,3.1605,-1.8495,3.4229,5.5242,12.445,-6.9994,42.5021,
21.5044,-1.1873,-2.1012,2.5054,0.61691,-5.3407,2.7342,4.4169,4.0458,0.32501,8.085,10.2518,-4.6515,42.3623,
19.2503,-2.5623,-1.493,2.8375,0.58013,-3.574,-2.732,1.2599,8.1419,-5.9608,21.0977,4.3345,3.8228,35.9642,
27.7362,-0.48035,9.6838,9.8976,14.0427,-5.2878,11.5319,3.1125,21.1507,0.18146,33.9319,10.8229,17.0908,42.9653,
29.6873,-5.0309,12.2359,7.6167,6.6923,-10.0321,14.3348,1.7205,19.6403,5.7141,42.1392,17.6454,13.4139,41.5924,
20.1933,-3.765,8.1275,1.857,-4.3143,-7.0198,3.3513,0.17128,7.3752,4.8891,25.5109,10.8021,0.55797,30.9021,
8.3766,-2.5749,3.3015,-3.0748,1.7292,-6.1165,-0.70578,-2.2492,-2.7084,4.1137,9.8802,0.99483,-9.1166,30.9763,
4.7405,-10.3743,0.93398,-4.0956,2.8305,-6.9548,-0.42246,-4.2837,3.4796,5.0721,2.5388,5.0325,-8.3286,36.1074,
7.3484,-10.7159,0.87806,-3.3676,-8.9086,-8.4656,-4.2536,-3.5444,9.5377,6.6959,-0.50566,4.7309,-4.9365,32.9769,
12.451,-0.19109,3.4766,-1.4786,-7.1689,-8.1988,-7.1318,-2.1268,3.9034,8.4634,-7.4651,-3.989,-6.8098,29.311,
14.1143,0.78447,1.3398,0.05658,5.7945,-7.7068,-5.7398,-6.3377,-1.6332,3.1351,-6.0531,-7.1239,-10.2574,28.0343,
22.4265,3.1478,5.1158,1.4992,13.1599,-3.388,2.7996,0.79146,2.8033,-5.2479,2.505,0.052241,-5.3034,29.2447,
31.2039,4.8872,9.6292,1.8913,1.7649,-6.5591,5.0418,2.6721,3.5991,-10.7177,3.3187,-0.9151,0.7995,27.0078,
34.6343,6.5219,7.1235,6.5983,-3.1613,-10.986,-0.081169,-7.6112,-1.4373,-4.2899,2.1555,-0.85997,2.6795,30.208,
30.1458,6.6129,2.8396,4.2741,8.1155,-7.4347,1.3698,-6.1905,-2.3151,-2.5866,-0.86646,3.0479,-2.3016,36.5904,
31.2295,3.3237,6.0435,1.1255,17.2697,-3.1321,9.9646,7.1962,1.1982,-6.7696,-3.7066,-1.4734,-0.23546,35.8411,
36.1044,0.71393,10.9836,1.5401,14.3053,-3.9083,8.4027,4.8363,-2.7299,-4.4352,5.1926,-2.831,7.9736,34.6547,
29.1177,1.1531,6.4681,-3.3731,9.1083,-6.084,-2.7069,-6.0591,-6.905,-0.31282,8.7378,5.0515,6.0493,44.1447,
14.3553,-0.36207,-3.5608,-9.9189,1.8134,-4.2725,-8.3288,-4.2491,-11.7931,-7.5247,-3.8378,1.3742,-4.4368,42.942,
15.9041,1.5878,-2.8654,-3.5397,-2.6342,-0.64216,-1.5626,5.1645,-5.3009,-3.217,-6.982,-0.63693,-3.2067,34.0988,
17.3602,-4.7742,-2.2113,-2.363,-11.153,-9.7627,-4.3614,-1.4119,4.1762,8.5454,-5.1168,3.7401,-9.2809,32.535,
17.2827,-4.4875,-4.0068,-3.6675,-11.4477,-10.6229,-10.3662,-5.1836,1.0335,9.4789,-3.8459,11.2284,-17.4011,35.8856,
26.1276,3.2533,1.2948,-2.2423,-0.397,-1.5499,-0.34445,2.1171,-8.4287,0.95622,0.96434,12.7237,-10.8137,30.5987,
32.032,1.8531,7.2431,-2.3485,5.1707,0.7125,4.7381,6.5698,-11.0562,-4.1626,8.3785,10.2732,-4.1386,22.2555,
33.7255,1.0188,9.9418,-0.52064,6.0655,0.42901,0.83865,10.7551,-7.2596,2.5949,11.0091,13.2725,0.68924,18.2689,
35.5584,-0.0064622,5.0072,-3.3817,0.39914,-5.8635,1.7524,8.1816,-3.4493,3.8852,0.22539,9.5839,-1.7625,5.1217,
44.5119,3.3684,6.1526,-3.1788,3.2673,-6.9582,8.3957,4.7982,-0.35033,0.27764,-0.27052,7.5626,-0.69286,-0.48852,
41.3592,3.6482,3.8552,-0.09554,5.9635,-4.1303,1.1431,5.4744,-1.2936,-0.22096,5.5307,7.5907,1.7588,0.022957,
28.0312,-2.1143,-5.2942,0.63309,-5.7227,-8.462,-6.8792,5.3869,2.8813,5.3359,-0.34471,4.4837,-3.4084,-7.9324,
30.9289,-3.1926,-2.8072,0.35403,-13.8149,-9.1592,-1.4049,3.8587,7.77,6.2209,-8.2779,-3.2567,-11.1573,-11.5537,
42.5709,1.8195,7.4844,4.1893,-2.863,0.067306,-2.2844,6.5194,5.3757,1.0271,-4.4066,-4.0255,-4.2212,-3.1476,
38.3292,6.772,3.4197,4.6608,8.637,6.0888,-16.2473,10.2256,-3.3825,-0.72177,1.8828,7.5442,6.3959,-1.7539,
27.1116,2.7501,-8.5956,-1.6441,2.0932,6.4466,-28.1676,8.407,-6.7952,-0.43727,-2.8092,10.2248,-1.4594,-3.8178,
26.208,-0.54796,-4.4644,-0.34066,-6.9505,10.6391,-22.8622,11.9999,0.12047,2.722,0.01046,7.9241,-2.5771,8.7035,
21.5023,-4.6127,-0.098986,2.3311,-8.2204,6.8675,-17.875,12.9674,2.7646,7.1387,11.3383,13.4744,6.0134,17.5816,
19.2479,-5.2999,1.3531,6.5297,-3.8709,4.0452,-6.6795,14.5996,12.7217,16.351,21.7448,21.3432,13.3655,16.0444,
17.611,-12.6948,-3.0668,1.3175,-9.4234,3.3204,-5.7967,12.7594,13.8865,11.9958,17.548,13.7959,10.1533,11.7074,
19.2056,-15.0665,-2.6417,-0.9308,-11.5092,3.8442,-6.1719,12.2347,15.2223,10.5528,17.7003,16.5835,12.1956,21.8511,
17.3302,-15.8496,-0.31389,0.81239,-9.1315,-0.48366,-2.1863,6.4393,16.9607,9.6785,16.3969,15.8296,10.7406,24.6375,
17.0135,-18.514,-1.5003,-0.44188,-10.7528,-1.1778,-0.85004,2.4375,11.3635,3.5542,10.8336,4.0333,7.4448,14.2412,
17.1979,-18.6084,-2.6153,-2.5842,-10.8306,0.58001,-0.075792,3.9784,8.5124,-1.2384,6.0866,-2.2344,5.7932,10.7355,
16.6481,-16.5277,-2.4585,-0.98321,-7.7706,5.8477,1.3749,-0.11662,10.4119,-5.9847,4.2752,-4.5103,-0.33933,15.8761,
24.808,-13.1259,2.0274,1.004,-11.1609,19.5969,-1.1179,-3.0021,12.1973,-7.0719,6.9108,-3.7578,0.16296,19.744,
32.4784,-9.9281,6.2444,0.94385,-17.722,27.4593,-0.56882,1.0345,11.4656,-3.273,8.9064,-0.15819,4.974,13.2566,
28.8427,-11.5016,4.1825,-3.6923,-9.1869,14.4838,0.67037,-5.0531,0.89551,-4.2817,-0.063898,-4.2458,-6.6529,5.4715,
23.2557,-12.7398,4.8955,-5.881,5.4643,5.4199,1.1124,-12.945,-1.0865,-4.989,-6.8086,-8.8119,-15.8948,6.5894,
24.0296,-12.6984,2.4327,-3.3589,3.3288,-3.8232,2.7326,-8.0708,4.5224,0.37189,-2.3026,-7.0778,-6.5048,6.917,
27.8905,-7.5979,2.7687,2.1451,0.71891,-9.8606,6.9072,1.0905,6.6614,5.6522,3.1379,-4.7247,0.1522,6.5023,
26.217,-4.2498,5.977,2.4985,4.05,-6.8586,6.4927,1.9892,3.8514,1.9386,-1.3889,-9.2621,-4.6774,4.6659,
22.4746,-3.2719,5.8594,-2.2309,5.9764,-1.8676,3.4518,3.5568,1.9333,-0.829,-0.58243,-8.9472,-6.0842,9.4474,
22.0904,-5.0037,2.6156,-6.4357,5.6177,-2.7197,4.2089,3.8255,1.335,-3.1895,-0.54737,-6.9644,-7.6472,18.0397,
24.6213,-4.7034,1.0124,-6.0493,4.3165,-4.4847,4.9205,-2.1886,-2.1193,-9.2646,-10.6377,-8.4745,-10.0807,18.8855,
25.3132,-1.288,0.22857,-3.5172,1.4062,-2.5284,0.045755,0.11184,-4.6437,-13.2885,-8.7941,-8.207,-7.7886,16.0651,
20.42,-2.1748,-2.6774,-3.3064,-4.4627,-0.44852,-5.7416,6.3719,-0.50847,-14.4194,1.3743,-7.2329,-7.8035,17.0294,
17.5078,-3.7315,-4.6859,-4.3131,-1.5436,-2.1088,-3.7098,1.41,-3.6112,-16.2053,-2.3234,-8.4859,-12.3967,19.6233,
23.4472,-2.7843,-3.6817,-7.1873,5.5388,-7.0438,3.0205,-6.6283,-11.3483,-14.9918,-8.2095,-7.7358,-14.7864,18.6869,
27.5838,-3.8224,0.63671,-6.9972,4.9654,-6.3801,4.5263,-3.0972,-5.6058,-6.6206,-1.2096,-4.1383,-11.2478,16.3602,
21.5904,-3.5932,1.5625,-4.1673,-2.0813,-1.1769,-0.083679,4.3193,0.51499,-0.43891,5.6118,-0.033698,-6.2347,10.5583,
23.6692,-4.3417,0.98681,-1.025,2.8641,-2.0704,3.7777,2.132,3.8583,1.0337,6.7211,1.4148,-1.5221,10.8889,
28.5157,-4.0813,2.8557,-0.96315,10.4051,-1.4641,5.9613,-2.8165,3.1448,1.9356,1.9794,-4.4548,-5.7692,8.7894,
22.2253,-2.6312,2.9254,-4.039,-1.0653,3.6853,-3.3143,-3.3706,-1.6233,2.0606,-7.0571,-12.6237,-13.8591,-5.838,
22.3379,-0.063119,1.7857,-2.3503,-6.7861,4.9103,-1.6693,0.20601,1.3663,-2.8836,-6.1516,-12.8301,-12.5455,-15.2494,
29.4335,-0.78235,-1.4548,-1.4865,-1.7995,-1.4099,2.5283,-2.9397,4.4177,-1.9874,-8.4339,-13.2657,-15.89,-12.1651,
29.1137,0.22869,-4.7418,-3.3255,1.201,1.085,-3.8901,-4.6915,4.6345,6.3266,-19.0149,-16.808,-22.6493,-12.3993,
35.5617,13.2303,0.36334,3.1407,14.6261,15.1199,-4.6207,9.69,1.9464,-4.176,-10.1614,-10.4968,-14.5418,-14.5475,
39.9356,12.6775,-4.7203,-2.1093,20.2562,13.3691,-4.5845,8.2649,-12.2703,-18.0255,-5.4544,-14.9286,-13.4282,-22.1107,
42.6011,9.7477,-4.1958,-5.1158,16.8719,0.75683,2.1985,-4.5232,-17.6803,-31.0439,-13.5628,-23.4328,-14.7917,-18.1327,
45.8299,13.0192,3.7687,1.9398,17.3056,-3.6271,5.9227,-6.662,-8.9069,-22.1916,-16.6055,-22.509,-10.53,-10.2961,
41.6338,9.8277,2.5785,-0.10474,21.5699,-7.2659,2.6753,-1.4418,-10.7826,-23.2702,-13.1988,-23.0867,-8.9341,-16.427,
37.6895,7.792,2.4238,-7.3293,25.0962,-11.1685,4.9249,1.0549,-8.6894,-20.9099,-7.1042,-25.0759,-8.8797,-17.8515,
38.3203,1.0579,2.2784,-5.4432,25.5185,-24.4778,6.5577,-6.7211,-4.7939,-8.0862,-8.606,-24.0534,-8.8292,-8.5856,
37.2266,-3.1029,1.4186,-3.4296,26.157,-30.4809,4.9592,-9.9332,-5.7114,-2.5394,-12.6694,-18.0307,-9.0226,-9.7577,
36.6799,-1.2299,3.0206,-10.6955,30.1308,-29.3753,4.9023,-5.24,-10.9122,-8.8948,-10.7041,-15.7437,-9.6864,-18.5724,
40.2637,-3.5662,6.6958,-12.4643,33.1433,-37.2538,7.0183,-9.2639,-6.4011,-9.8074,-10.0618,-19.1374,-7.659,-16.9758,
45.32,-5.5213,6.5351,-9.065,31.8779,-45.3825,4.9103,-15.6979,-2.8836,-3.1931,-9.6992,-21.6047,-4.548,-13.788,
44.2877,-3.021,6.8662,-11.1726,33.0988,-40.9724,7.7488,-10.1766,-8.7365,-11.4375,-8.3942,-22.4777,-5.4803,-15.6122,
38.015,-8.3833,8.141,-9.7789,32.3177,-41.6476,12.3456,-7.8788,-8.9352,-24.8513,-7.1677,-22.8162,-7.803,-15.8805,
28.7444,-17.7624,2.5912,-5.0947,26.7634,-53.2487,8.9534,-14.3956,-7.1937,-23.2396,-5.0503,-21.2062,-3.7193,-15.1685,
21.9582,-21.276,0.26671,-6.4763,23.9524,-61.5023,7.2115,-12.8088,-2.1827,-12.4451,0.31454,-15.8363,3.9758,-10.1612,
20.6408,-27.7126,-0.71374,-12.8365,22.5154,-62.1508,4.3683,-13.4867,-2.052,-5.432,4.1517,-8.1374,5.1831,-3.2849,
20.3667,-29.4238,-4.5271,-16.4047,25.9851,-59.3856,-0.23212,-18.4618,-6.7492,-1.7314,6.3132,-3.3108,6.8003,-4.0517,
18.1802,-25.2484,-2.3274,-11.082,32.6206,-58.2329,5.0843,-14.9441,-0.55976,-4.5201,7.3805,-7.4506,13.623,-6.701,
13.233,-27.5899,1.6687,-7.5247,28.2533,-60.5235,10.5639,-12.6012,7.6685,0.089616,8.8659,-9.8959,12.8057,-0.51432,
10.993,-31.7191,-7.1083,-12.8578,18.3631,-60.7485,6.5553,-21.0041,4.7985,9.2433,7.3699,-3.5175,5.2886,1.4447,
8.405,-31.2619,-12.9486,-16.4249,20.1536,-58.5499,2.7878,-23.1181,-2.2381,1.4578,6.4455,1.0321,4.9716,-1.5342,
6.696,-29.1451,-6.1458,-14.2342,24.0062,-54.7958,8.6462,-14.7413,-1.8627,-6.5835,13.0488,-0.23502,5.8782,2.6553,
8.2224,-28.3605,-2.8847,-13.3802,14.8526,-49.0977,11.0199,-10.0004,0.65919,1.0424,17.0861,-0.22092,5.0436,5.8702,
13.2723,-27.3821,-2.9527,-13.7826,8.8999,-45.4288,2.8866,-14.462,-2.0318,7.0055,13.8919,0.51535,10.7666,3.3487,
16.8144,-26.2213,-2.7757,-14.4018,9.3299,-46.5596,-1.1429,-17.4507,-3.838,2.7286,11.6118,0.48454,12.5309,4.112,
17.9748,-16.2122,0.52423,-8.9582,9.9755,-42.0789,8.3258,-7.4857,-1.4384,3.2879,6.3359,-2.6779,5.2712,11.8191,
19.0657,-9.6959,3.626,-0.46678,18.2948,-39.7951,13.852,-2.9392,-0.62898,1.4037,-5.3727,-9.989,-3.9629,14.2432,
18.163,-15.1396,1.7215,-4.0542,19.3665,-43.433,7.9595,-12.6448,-1.7963,-1.3319,0.97544,-5.7743,-5.4121,8.8094,
14.6627,-15.1955,-4.1665,-12.4879,4.1045,-38.4168,-1.6775,-17.6708,-5.5453,6.9429,15.0169,8.0697,-1.7133,6.3525,
12.0956,-13.0786,-7.0499,-11.9795,-6.8673,-31.5321,-8.0844,-12.5131,-5.9356,14.9621,5.5595,6.8625,-5.226,12.9611,
14.5034,-13.9811,-5.4218,-7.1634,1.9804,-31.8096,-10.2505,-8.1469,-2.9279,11.413,-4.656,-1.5035,-8.0455,17.7268,
21.346,-6.8755,-2.6864,-7.2157,12.9488,-26.5268,-4.8152,-5.7299,-4.1985,7.3538,5.2643,4.3713,-5.1526,14.2531,
22.9577,-2.6063,-2.0428,-5.3365,3.4952,-21.5605,0.29445,-7.3143,-4.4285,8.3591,5.4304,5.5557,-4.3616,12.916,
21.58,-4.8605,-3.8487,0.28607,-6.8376,-24.1235,-2.1336,-8.3217,-1.7529,9.7855,-0.19783,-3.9369,-6.5102,14.069,
21.0085,-4.8098,-3.8586,-0.93604,-5.2224,-30.1478,-4.6568,-6.617,4.3782,10.8857,2.9474,-7.7981,-3.9501,11.0558,
24.0862,-7.8955,-1.699,-5.7005,1.3576,-31.2313,-2.4493,-5.7381,4.5973,10.7146,8.555,-7.8123,-2.2669,7.9822,
27.7027,-5.2526,1.0543,-4.1534,9.7122,-15.2574,-2.0614,0.63192,-6.0424,10.7946,11.1752,-1.7999,-8.1565,14.011,
24.3533,2.0522,0.26787,-1.2526,5.5141,-5.7856,-4.5888,3.2451,-5.9208,8.9421,3.9968,-0.4871,-14.175,17.7496,
26.2665,2.8934,0.25203,1.2327,0.84493,-12.6691,2.9174,-1.7699,5.0397,7.9234,-2.0276,-3.8319,-13.3243,16.2027,
23.7265,-1.6188,-3.6195,-1.7336,1.7583,-15.2831,1.2963,-8.4123,0.88072,7.448,-1.4238,-2.1559,-16.8634,16.1946,
18.2051,0.64751,-6.0539,-3.799,-4.3732,-9.3049,-8.6638,-3.3286,-1.8237,6.7602,0.83079,-1.3037,-17.0569,18.8384,
20.7282,1.8137,-1.1111,-1.4019,-4.8337,-7.0594,-8.8669,5.3073,3.3474,7.0775,4.8783,-6.2867,-12.418,18.9129,
19.7259,-4.3206,-1.2854,-2.5228,-0.44631,-12.1795,-4.7195,-0.072822,4.3519,6.4118,10.6111,-5.6685,-12.3961,17.0552,
13.7214,-7.4359,-7.475,-3.8177,-9.0964,-20.6077,-6.8467,-12.1198,0.71608,8.9194,10.4566,2.8661,-14.5446,17.9599,
17.9598,-1.928,-5.8215,-1.4193,-11.6841,-20.0944,-6.6768,-8.2591,-0.53172,13.9279,10.0702,4.8637,-9.5746,15.6774,
18.3282,-3.2586,-5.9541,-4.7086,-6.1626,-13.5861,-7.7227,-0.53272,-5.8027,10.1999,1.2711,-1.2129,-13.8206,5.578,
16.0237,-4.7503,-8.2482,-8.0412,-4.5875,-5.2991,-11.8386,-0.74195,-10.0338,13.6853,-5.3127,3.9216,-14.6786,12.7151,
13.8572,-4.2243,-8.9586,-11.6563,-3.5891,-4.258,-11.8515,-6.241,-12.0831,18.4075,-4.7532,5.3733,-8.254,18.4595,
9.6516,-1.5603,-8.4208,-11.4387,0.00042664,-3.0382,-10.1763,-1.5278,-15.6962,7.1804,-6.8779,1.1947,-6.7947,13.0138,
10.7597,3.1128,-5.7462,-2.3167,1.2057,5.58,-6.4322,6.0357,-11.139,-3.6143,-3.3317,7.631,-0.36146,20.6691,
13.4881,0.51572,-6.3658,-1.2133,-4.6512,8.1372,-8.9388,2.781,-4.6866,-6.2902,-0.7217,3.7987,4.4809,23.2849,
15.5711,5.3053,-5.9838,-1.6227,-0.034064,9.5772,-10.3304,5.0245,-5.8514,-7.841,-0.67863,-3.6603,4.2119,12.729,
11.7446,7.8792,-5.6248,-2.9718,1.4145,5.6281,-6.8183,3.7587,-7.4287,-9.7809,-3.0483,-1.5123,1.0669,9.073,
12.2452,1.8626,-3.6003,-4.4808,-3.7321,1.675,-6.1682,-2.4924,-2.8857,-1.2403,-1.6601,4.604,0.76187,19.8568,
16.5722,1.9921,-1.6968,-0.59603,-5.6773,3.262,-10.3774,2.7189,-3.4354,5.3421,-2.2834,6.015,5.2954,17.4601,
13.4084,2.5955,-2.3184,0.16241,-4.1316,-1.9954,-10.9603,6.6529,-6.8445,3.8165,-5.762,1.0746,4.2546,5.5664,
7.3015,-3.3446,-3.1431,-7.0779,-4.8478,-9.1066,-10.7844,-1.4589,-11.2543,4.5516,-2.524,-3.8104,2.0714,8.6067,
6.3813,-8.9285,-3.9187,-10.5097,-9.3774,-5.1857,-12.5477,-4.2636,-7.2048,9.099,0.51972,-3.0996,3.8755,13.3932,
8.1678,-9.1159,-3.9245,-7.7099,-9.056,-1.7411,-12.9999,-0.87455,-0.26482,8.7943,-6.5011,-1.2266,4.848,7.5281,
6.9543,-3.9895,-4.4122,-6.5242,-7.7893,-1.8776,-11.9789,-3.9553,-3.8643,7.5432,-6.352,-1.394,4.7981,7.7993,
8.9477,2.0345,-1.7371,-0.82987,-8.7682,2.0915,-5.9576,-0.82572,-1.7043,8.5369,1.7419,-4.2029,9.3309,16.9723,
12.0261,4.0817,0.53643,4.2813,-7.0369,6.0632,-0.056601,5.7316,7.7983,7.3017,-1.0138,-9.4942,10.9401,15.231,
15.4018,4.56,3.1555,3.3014,-3.9635,9.7969,3.5621,9.4852,10.9457,3.7302,-3.6042,-9.6476,9.0788,7.8095,
13.5134,5.7322,3.93,2.139,-4.6898,12.5833,1.4202,10.8441,5.9502,-0.35023,3.8429,-2.32,11.4261,0.59205,
8.3642,7.3165,0.31974,-1.846,-2.4802,9.9001,-7.8241,9.2293,-3.0839,2.5633,6.5044,6.0139,9.2943,-7.1562,
8.8267,7.8418,4.1572,-1.7348,3.4532,6.414,-8.8004,10.604,-3.8628,6.2659,-3.0445,4.6892,4.3983,-10.5833,
11.1892,10.2634,9.2102,5.1178,6.6205,10.3675,0.88618,19.6085,1.1897,1.5516,-7.6825,0.069041,5.5802,-15.2509,
9.7947,8.9247,6.0065,4.57,-0.28447,10.9505,0.59227,21.0833,-0.086721,1.6993,-0.71385,0.3061,5.0047,-23.7359,
15.2328,10.5584,8.7793,2.6083,0.45573,8.6063,-3.0589,15.2388,0.15922,12.9257,3.9085,3.421,6.3914,-22.5527,
18.6574,9.9251,8.7347,1.4882,1.8744,6.6441,-5.7672,8.5401,-0.81397,8.776,-3.0747,-1.6043,6.9724,-25.5378,
19.2251,5.7139,5.0772,5.4958,-2.8173,9.8606,0.60391,12.607,4.2961,2.7058,0.24282,-3.6777,12.0973,-29.5494,
16.6254,-0.89542,-1.0118,4.2022,-9.3972,6.3767,3.9421,11.3686,4.0383,4.9536,2.6388,-2.0107,7.9974,-29.2225,
26.4743,7.1123,5.0744,5.1551,-4.2539,6.7172,2.5005,9.4815,5.9654,13.0923,0.31111,3.1714,6.3125,-25.7819,
36.937,12.952,8.1442,4.3639,-2.0704,8.7243,0.42231,12.769,6.5714,14.7169,3.6669,4.9093,10.2721,-26.1632,
36.4078,3.739,2.5941,0.96854,-4.5975,10.8522,3.0483,16.5823,2.08,16.4852,11.8828,9.1942,11.8252,-17.6035,
29.1616,-2.993,1.2334,1.6336,-4.0807,12.8524,2.6244,13.9002,7.9807,15.2551,12.3747,13.7043,12.8024,-5.2193,
22.8326,0.32004,2.3644,2.7406,0.74365,12.3222,-2.1126,13.3071,12.5631,9.2781,15.73,12.641,13.2396,-7.5575,
21.2216,1.0239,-1.3927,0.40712,0.94011,11.824,-2.2269,19.4985,4.3378,6.5526,20.8116,9.2314,13.1684,-16.0218,
21.8764,-1.93,-3.7196,-2.9919,-1.0446,21.2375,-0.16496,19.7745,0.22106,4.7131,15.7064,7.713,12.3782,-13.1324,
19.3585,-1.0913,0.11896,-1.6073,2.1516,32.2556,-3.2885,14.9726,2.377,2.7431,12.1129,6.5274,15.2505,-5.3548,
13.136,-5.1229,0.83495,-1.7518,5.1557,31.0434,-6.2245,11.9053,2.4755,2.8197,12.5912,6.8588,17.9511,-6.2386,
5.8399,-7.4671,-3.3127,-6.7084,-0.69723,26.5294,-0.30741,10.4676,-2.7347,-2.4112,4.8459,3.7958,8.4379,-12.8541,
4.5254,-0.75234,-2.6318,-8.2341,0.3087,25.9018,2.6033,12.7318,-7.3911,-6.6051,-5.568,-3.6626,-1.2272,-13.047,
9.5563,2.1851,2.829,-0.5092,4.1468,25.7939,-2.3734,14.3783,-1.6452,-1.3883,-3.3055,-4.4069,2.2211,-9.3716,
13.8039,2.0542,4.5872,5.3062,0.041368,28.1027,-3.1951,14.9619,2.3101,3.0336,10.3904,2.6062,9.3185,-5.9171,
10.0833,4.3413,1.4197,0.64924,-1.4071,18.7037,0.37087,15.0285,-2.167,1.8875,9.7668,6.7883,5.3851,-2.6697,
7.0678,5.5266,-0.59369,0.61029,0.60548,3.4815,-1.5796,15.0906,0.37312,6.5945,1.9499,7.8273,3.6158,0.38273,
7.6079,2.3029,1.37,3.4658,1.5334,-0.94555,-3.4131,15.1492,4.207,5.7167,2.3152,7.8395,8.2194,1.3238,
-2.972,-2.6559,-1.1224,-1.5627,-0.0050155,0.075392,-0.31591,11.3478,-2.794,-3.7849,1.2118,3.9945,0.97724,1.2442,
-4.4807,-0.80932,-1.7782,-0.26342,-2.656,4.1682,1.8724,14.2826,-2.8675,1.9855,3.7905,5.9243,0.67787,10.0876,
0.60883,1.6496,-1.1891,3.6088,-8.281,10.667,-1.6144,14.8719,3.5715,3.3127,3.5635,3.1587,7.868,14.785,
-2.3202,3.4786,-0.15392,6.2843,-5.3743,14.8473,-1.9997,15.9076,6.2493,-5.0808,-0.50716,-1.3696,5.4673,11.4878,
-5.7962,7.8496,1.0606,5.1846,4.8304,13.2335,-1.6383,16.6403,2.741,-5.4991,-1.1994,-3.9383,-1.8499,9.1115,
-2.0742,3.5222,1.9608,-1.3932,5.0227,7.1369,-2.9865,9.3752,-3.6902,-1.313,-4.0202,-10.4507,-4.6317,6.1545,
0.21987,-2.7146,1.1203,-4.9251,0.62398,1.6474,-7.3866,0.85937,-9.9762,-3.8853,-4.5019,-11.0285,-4.1123,8.4363,
-3.168,0.82224,-4.7317,-0.7734,-1.8238,1.5481,-6.9436,2.2534,-6.0034,-4.6163,0.58872,-3.6186,-1.4557,14.1969,
-2.0138,7.5218,-4.9298,5.0578,-6.0529,4.8299,-4.5988,11.2774,2.0698,7.712,2.4818,-2.9193,1.5239,9.4884,
3.6508,10.204,1.8737,5.9594,-6.4124,5.7452,-2.6356,14.216,1.7044,12.7931,1.6098,-3.9492,-0.25451,2.4119,
1.7446,5.4942,2.0023,2.4684,-3.3766,-0.14313,3.0661,5.8912,1.3612,-1.2313,-1.6203,-4.4356,-2.8903,7.3284,
-2.9398,3.4771,1.159,0.15086,-0.5229,-2.7859,2.6412,5.2965,0.55614,-5.7367,-4.1746,-4.8924,1.38,12.4323,
-5.1734,6.1612,0.12583,-0.82206,-5.7939,3.648,-10.5327,13.6559,-6.7074,1.8386,-3.4415,-4.1167,2.2617,4.9377,
-1.2478,10.3708,1.3229,-1.9778,-6.6514,9.9369,-12.5518,13.5596,-10.8849,0.040801,-1.0661,-1.2183,-0.52529,3.9183,
7.0218,17.943,7.992,-1.3772,5.3164,15.125,-3.6045,8.4073,-14.5701,-7.1925,-0.038274,0.7825,0.95203,14.288,
7.3239,16.1435,7.7539,-1.5355,4.2745,13.4946,-7.0032,10.5544,-15.8651,-8.9301,-5.0972,-6.7358,0.17201,8.8515,
8.3302,13.2472,5.8424,1.9311,-0.32027,11.7208,-2.7266,15.7057,-7.6823,-4.5379,-4.7914,-5.8497,2.5723,3.5001,
8.3123,13.4162,2.5998,0.36893,-0.78298,11.4995,-2.0811,8.9788,-8.1857,-4.7476,-4.5039,3.6603,2.4175,8.5923,
5.1627,12.8525,2.2026,-0.85827,2.3973,11.5329,-7.9815,1.9323,-9.3816,-6.6321,-3.0286,10.4303,0.1035,12.1743,
5.0937,7.5018,0.86537,-2.4942,5.3867,11.0819,-5.3337,2.0576,-10.0238,-6.4754,-1.6418,13.9021,-4.9642,7.8287,
3.824,3.677,-2.0788,-8.6109,1.6892,11.3811,-6.4597,3.8621,-14.7252,1.6262,-4.4356,21.2629,-9.4868,4.4667,
-3.6363,3.4564,-1.4722,-8.5766,-0.3403,10.216,-9.9285,7.0048,-13.3598,3.4568,-4.1695,28.1818,-6.9899,6.6088,
-10.6487,-1.5715,-4.2761,-7.0979,-1.284,6.7108,-8.3687,7.5486,-8.7016,-6.3918,-2.4733,24.5625,-4.1601,5.7301,
-10.0098,-1.9591,-5.4654,-4.2614,-2.1713,14.0211,-4.0102,8.0601,-1.4306,-4.5621,0.085724,26.4632,-1.4999,6.8326,
-15.1936,-1.8413,-6.5839,-5.4522,-2.0408,15.1078,-6.6619,4.6842,-8.0934,-1.396,0.56228,28.732,-3.8203,8.3506,
-18.1388,-3.1774,-2.8144,-4.1608,6.2764,7.9346,-2.8882,2.4745,-9.0541,-3.2405,-0.43532,26.0438,-1.6629,9.7777,
-15.1223,-3.4687,-3.6099,-3.9111,4.9359,7.4586,-3.1968,0.88019,-1.7624,-6.4205,-5.2299,15.3221,-2.0455,3.8889,
-10.1171,3.7291,-2.67,-3.9174,0.54243,12.0727,-6.62,-1.8242,-1.8976,-2.4198,-2.2646,11.2698,-6.502,0.040132,
-7.8229,6.6389,3.5158,-1.0313,7.4993,8.6973,-0.19722,-3.4015,-7.8093,-2.9976,2.4506,9.8707,-2.9784,4.1351,
-7.5947,7.9275,7.402,4.574,13.5571,11.7906,5.358,4.7561,-7.0995,-4.9871,3.5086,9.0368,6.1181,11.8405,
-14.6108,1.9083,0.9323,0.20217,0.9335,10.842,-0.025159,2.3016,-4.5044,-9.2676,-1.7636,5.8435,1.1713,8.9609,
-9.6368,3.9634,2.5636,-0.050925,3.5286,10.9148,2.146,-1.9339,-0.13678,-10.8803,0.51186,9.1083,-1.0682,10.1105,
-4.4791,6.3764,1.6866,1.1572,14.6453,14.3573,0.32975,0.83349,-2.7799,-8.5404,1.2043,12.1774,-2.6911,12.6371,
-12.1641,1.4146,-3.4758,-1.5633,-0.33342,11.8086,-8.1257,3.4346,-4.3003,-5.8589,-5.3759,7.3494,-12.4115,10.674,
-10.4701,3.74,2.0352,0.45889,-6.2185,14.4746,-3.782,5.1569,1.7425,1.2413,-4.5712,12.2109,-12.6309,20.1567,
-10.0831,1.346,-2.1845,-6.5587,5.0007,13.3649,1.0244,-1.1783,-2.4596,-0.038195,-6.9483,12.6833,-12.5962,24.4907,
-7.0678,1.7477,-4.4633,-7.1289,10.9674,12.5632,0.48126,0.82085,-4.722,-1.4819,-3.6391,7.5838,-10.3944,22.5396,
0.10519,7.9093,3.0348,-0.43461,12.7194,14.2196,-0.030005,4.628,-2.5109,-1.875,-1.4925,6.1649,-11.217,19.2585,
7.0883,16.8348,9.3607,4.1708,16.0536,18.4278,6.4797,6.5195,6.0759,-4.414,-2.6083,7.9641,-12.7131,24.611,
7.8681,17.0297,4.7015,5.6075,10.5109,17.5631,2.9572,5.4052,3.06,-16.4415,-0.76432,-1.9139,-11.2272,24.8213,
8.1193,13.8388,4.1784,6.9587,10.1217,13.8583,1.575,3.3936,-6.0412,-25.8188,-0.95943,-10.2348,-8.8664,15.8607,
9.8013,16.6239,9.9533,8.228,14.0937,15.1959,8.4703,3.431,-0.61751,-17.7622,-7.4098,-5.5233,-12.9141,12.2575,
7.5258,15.8676,5.2589,2.6729,6.2584,15.9712,1.9363,6.3584,3.5167,-10.6707,-4.7958,-0.13049,-18.1646,15.1372,
4.1822,11.5411,3.0152,1.0667,4.9186,15.9772,-0.10803,11.7615,-1.5146,-3.282,3.2047,5.18,-13.2183,20.9779,
-4.0225,8.1971,1.629,0.27932,8.2389,11.8851,4.4777,5.0302,-9.3775,8.725,-7.8338,7.5203,-16.5231,23.3346,
-10.2888,10.3566,-2.5663,3.3958,2.2007,8.0387,-0.37044,-0.33304,-3.7534,13.7454,-15.3178,2.9715,-14.3261,24.5859,
-9.6715,6.8432,-7.7145,2.7101,-4.6798,5.1463,-7.5786,-0.31306,3.2208,7.1361,-5.2397,-5.8834,-7.682,18.29,
-4.7527,5.9504,-7.2519,-2.7553,2.8316,8.2117,-3.7497,-0.77644,0.61715,7.1901,3.2696,-6.4945,-9.1495,11.8902,
-5.673,4.3883,-3.6835,-3.7951,0.49278,10.3703,-2.3196,-0.97059,-0.14301,6.9994,-8.2545,-7.3099,-13.662,12.8638,
-5.5732,11.1149,1.1172,2.4586,-4.5985,10.4713,-1.9395,3.6669,0.10654,2.0001,-11.8566,-2.774,-9.2268,17.1536,
-2.8286,24.4273,-0.87844,-1.0634,-1.9124,8.397,-2.7874,3.9289,-8.0946,-6.315,-8.7351,-10.8022,-11.5657,12.268,
4.5715,35.4951,4.4769,0.92864,6.3975,12.7134,4.1287,7.0676,-1.8243,-3.5255,-0.98012,-24.2541,-8.4612,14.424,
1.4049,26.6167,4.6905,3.7652,0.22882,9.0583,2.435,3.2693,0.69505,-4.7605,1.0066,-36.8989,-2.6511,18.8614,
-3.2587,18.0299,2.7223,4.2627,-5.8105,7.7919,0.11971,3.3141,0.89477,-8.0898,-1.7048,-43.844,-2.733,20.8632,
-4.9911,21.2866,2.5587,3.5247,2.2512,8.7704,3.9687,5.0432,1.3233,-7.1223,-6.423,-39.2851,-5.4613,17.2011,
-3.4866,24.5889,5.0565,3.0721,13.4441,8.9673,7.8281,-0.32082,1.0027,4.633,-3.8683,-36.2049,-3.4462,18.8204,
-3.0364,19.0163,3.5478,-2.1739,6.1299,8.6702,1.8148,-5.3628,-0.26279,9.8987,-2.4313,-27.5251,-5.891,19.3784,
-3.8184,18.8394,-2.4499,-1.5613,-1.9509,12.0066,-6.007,2.6715,-6.5138,4.0023,-8.5522,-22.4989,-7.9479,12.9128,
-1.9023,24.2167,-1.5793,6.9682,4.6739,12.9732,0.37915,9.0189,-5.8817,2.5571,-6.3516,-23.3184,-2.4091,9.9691,
-2.0289,17.2199,2.6126,6.7913,7.5267,4.2411,6.8641,0.52383,-2.8775,0.71623,2.9473,-29.8733,-0.09562,10.0941,
-3.3534,10.884,2.4558,2.527,-1.602,-0.35191,3.0778,-2.8821,3.5616,4.0477,9.5189,-29.5271,-0.089883,11.4162,
-6.0445,13.6052,-0.10186,4.7858,-12.5929,0.63331,0.48279,1.1475,9.6147,6.6971,7.5018,-23.4169,0.39767,12.1777,
-8.0922,12.3072,1.3507,7.8733,-10.3913,1.5594,1.4184,1.0789,5.6636,-1.4177,-0.66088,-22.4939,-3.4828,9.5186,
-6.1604,11.0864,2.7155,4.9903,-3.9832,3.394,-1.0773,1.0141,0.50306,-7.1172,-9.7803,-25.4828,-9.5403,1.2347,
-5.309,15.2417,1.1065,2.7629,-4.7083,4.6364,1.3977,5.7738,0.95504,-5.2441,-13.0501,-24.436,-8.9682,0.67846,
-10.5339,12.1582,1.7633,3.8022,-8.041,3.1534,2.037,5.1861,1.1389,0.13241,-6.7232,-18.8722,-1.9219,10.038,
-14.2404,1.7876,2.6216,3.0919,-8.0407,2.482,-1.4595,-1.8737,6.8549,6.3908,-2.9456,-18.2221,1.5676,9.9179,
-13.8679,0.71643,-2.8384,-0.94999,-8.0402,4.7435,-2.3362,0.16692,9.3362,5.0434,-8.0715,-20.503,-5.2753,-0.80057,
-12.7949,5.2527,-4.8372,1.2762,-6.3525,7.11,3.8295,7.6287,1.7861,1.6073,-8.7925,-15.1754,-8.0918,3.3448,
-14.6785,3.2506,-4.3058,0.47647,-8.1407,3.0679,1.9127,2.1095,-4.8288,3.6803,-3.6854,-12.0957,-7.3656,11.58,
-12.8335,7.8758,-1.1554,-0.03405,-8.1342,10.1145,-6.3972,1.0186,-3.5752,9.726,1.3564,-7.5136,-7.888,11.8496,
-12.3047,11.0189,-0.84487,-2.6833,-7.8874,13.1233,-9.6286,4.0908,-5.5296,3.599,-2.3402,-4.8934,-6.2092,10.8974,
-10.3615,8.6701,-1.5175,0.6107,-7.6555,6.7922,-7.3636,5.5326,-3.0286,1.6959,1.4152,-3.395,4.0453,13.859,
-17.211,2.6069,-6.0055,0.81571,-14.6673,0.35916,-8.6088,0.13961,0.76872,0.87099,-2.7668,-11.6267,4.5257,7.0021,
-19.0706,3.4146,-2.271,4.141,-13.3051,3.2299,-3.2718,3.0231,5.0611,-1.1092,-10.3138,-15.2677,3.772,5.6179,
-12.142,5.6196,3.6496,4.3747,-7.6868,4.4821,0.29873,4.2877,0.41893,-5.8632,-9.2128,-14.3516,3.0635,13.4753,
-7.5573,7.2109,8.2511,5.0763,-8.1897,8.0696,-0.20136,4.995,2.8037,-7.9217,-5.2858,-10.1163,1.4337,18.4516,
-8.309,7.5014,7.5153,5.4944,-13.2417,9.2729,-4.7688,6.3823,3.8405,-9.6158,-9.5482,-11.1965,-5.642,11.3187,
-3.2311,8.7381,7.3054,7.8163,-13.6525,7.9931,-0.38531,6.7223,3.3691,-4.9415,-9.2163,-11.7298,-6.5088,8.9524,
-4.724,6.0451,5.1798,12.409,-15.4844,6.3085,-0.60293,6.078,4.8542,-1.9935,-6.9761,-12.713,-3.4667,5.2822,
-9.9844,3.9949,3.664,12.3871,-12.8684,8.5811,-1.772,7.8827,4.8042,-1.1512,-5.3525,-12.1914,-1.5717,-7.8094,
-13.4827,1.5861,0.31065,3.2082,-10.891,3.9689,0.021502,9.0969,3.7925,1.5694,-4.3084,-10.7368,-2.6827,-19.151,
-12.6735,-2.8477,-1.154,-0.35849,-7.8272,-0.60759,-2.3897,4.6945,3.0833,4.8495,-1.6391,-4.308,-1.5572,-18.0017,
-11.4314,-8.4616,-2.0489,1.109,-1.0912,-1.0533,-5.1391,1.0386,-0.47639,3.1125,1.833,1.7348,-1.9463,-17.8861,
-15.3246,-7.7127,-2.6491,2.7295,0.66169,1.1793,-1.697,7.484,-0.20661,1.7207,2.9286,0.42612,-7.3729,-27.659,
-17.7796,-1.4654,-0.080004,3.5301,-0.82427,1.1085,1.2969,12.3376,-0.19421,-0.31075,-4.9599,-2.01,-11.7511,-31.3017,
-15.9899,-0.17216,3.0583,6.4517,-3.4259,4.6574,0.014009,6.0537,6.8073,-0.051141,-5.8676,-0.20198,-10.8048,-23.8799,
-20.3329,-6.9105,-0.49967,3.6543,-16.2358,12.5727,-7.6996,-1.0582,11.7013,1.398,-1.177,-2.6002,-8.2283,-30.6421,
-21.7645,-6.2549,0.73538,-1.6267,-14.0566,22.1827,-8.4429,4.5489,10.7582,7.822,5.4011,-0.75721,0.21935,-40.6141,
-14.1919,-4.9155,4.5479,-3.939,0.28441,19.8876,1.7049,5.722,12.0412,11.6912,7.9698,0.73449,4.0623,-34.3207,
-8.2787,-8.236,6.4442,-0.087657,6.2929,15.0789,6.6642,2.2452,9.6315,7.8563,10.1427,1.8955,4.0596,-28.1641,
-10.9155,-8.4647,5.3346,4.015,3.2638,14.4152,4.5772,2.8339,6.402,1.3594,7.365,1.0589,5.5032,-31.5359,
-16.5273,-5.547,-1.2522,0.39983,3.0682,14.9963,2.856,0.73542,4.0895,-1.6149,0.17392,-0.9331,0.83448,-29.1616,
-16.7409,-3.045,-5.7568,-5.1678,3.125,14.8194,-2.8589,0.45033,-4.5916,-1.2771,0.88685,3.2202,-5.2411,-21.8683,
-11.8796,-0.4517,0.37316,-2.9295,4.3838,5.7355,-6.5438,3.3154,-6.2443,0.72819,4.2076,10.2579,-1.5522,-21.5205,
-9.9616,2.7089,5.8948,0.37975,7.7362,-5.4544,-3.9815,3.3579,-3.218,1.4074,2.7503,8.9195,2.1563,-21.4341,
-11.5332,-0.10497,4.3356,-0.36617,3.1744,-10.671,-3.5019,-0.94118,-4.23,0.11789,-3.44,-0.051583,-4.9627,-14.1223,
-11.0825,-3.7143,4.3167,-2.0317,1.7789,-8.3437,-3.533,-2.0898,-4.2174,1.3159,-2.5109,-0.28968,-8.7625,-9.1778,
-13.5508,-5.1785,2.8526,-8.417,6.7336,-4.7094,-7.4181,-2.6875,-8.062,0.5138,-3.5653,1.4152,-6.0674,-9.3503,
-13.4608,-3.1808,3.8865,-8.6351,11.3911,1.1166,-9.1424,-3.2494,-8.3014,-2.1683,-7.449,-2.2854,-7.8727,-1.7992,
-10.0021,0.62551,4.3762,-2.0915,9.9847,6.5932,-5.9428,-0.88527,-8.5262,-1.3149,-5.7968,0.02088,-13.4259,2.8881,
-9.1605,0.82895,1.4626,-1.2431,7.2165,8.3668,-5.3448,3.7476,-9.2199,0.93316,-4.2437,4.1174,-12.3794,-3.3108,
-12.9497,-1.149,0.89243,-3.5786,9.1936,5.9366,-7.9166,6.4148,-6.7385,-1.051,-3.0252,0.013547,-10.1908,-3.5945,
-18.1985,0.12502,2.5263,-2.1588,3.5805,3.411,-6.7185,4.8248,-5.6111,-6.0494,0.28959,-2.1562,-12.2302,5.5395,
-14.4553,3.2508,3.5798,3.9965,-3.142,3.9294,-1.2539,5.2585,0.75136,-4.4814,5.3337,0.6245,-2.0966,9.7866,
-10.9362,0.40486,1.1961,3.0336,-1.7484,1.0428,-5.758,7.1124,-1.4631,-3.0074,4.291,-3.9925,7.9113,4.6199,
-12.6906,-4.9221,2.5701,-0.040979,7.9974,-1.9123,-4.9308,6.2032,-2.3397,1.5113,3.5511,-4.2353,6.4723,2.4145,
-17.714,-7.0371,0.4875,-0.52068,11.3738,-0.35151,2.5961,2.9387,4.5494,3.831,4.7841,-1.0889,4.6379,6.6077,
-20.5073,-5.6508,-5.808,-2.8993,1.0506,3.0438,-0.93388,2.2803,0.42028,2.6371,4.0153,-0.54142,3.3956,10.0679,
-15.9026,-2.9014,-2.0853,-2.7256,-4.3149,6.7178,-0.87808,7.4463,-2.0153,13.5658,7.6306,7.686,4.1559,8.9816,
-21.215,-9.9581,-7.2629,-6.4185,-5.5022,0.047753,-4.1998,2.1788,-3.8226,10.8237,2.3525,12.5275,-0.91414,7.4784,
-20.183,-5.2633,-7.55,0.95652,-1.0747,2.2145,-3.7069,0.8428,0.50414,-0.18961,-0.44022,14.4269,3.2385,17.394,
-10.2954,5.1754,-1.7943,2.8273,-3.9028,2.5636,0.37191,3.6848,-1.9362,-1.6245,1.0325,6.8129,4.9724,13.9403,
-4.1336,7.9984,-1.9276,-3.3679,-1.0171,-0.24134,-0.85524,5.1509,-7.8456,4.9809,4.5859,3.2706,-0.86955,4.6682,
-9.6706,4.144,-5.6688,-2.6839,-0.95603,1.2189,-4.1784,8.6982,-7.3749,2.2715,-1.9557,5.0026,-5.1562,10.1727,
-11.5005,3.4134,1.4202,7.1186,-5.237,4.0383,3.7851,13.479,-3.076,-5.0952,-6.1767,2.2923,-1.9543,14.865,
-7.6772,0.075373,5.9145,3.0758,-6.6102,-1.7474,5.7274,9.0551,-5.0604,-8.8871,-1.2266,-8.2093,-0.14956,5.0548,
-2.3964,1.0347,7.0059,1.445,-1.3934,2.2134,4.9013,17.1884,0.063514,-4.9798,2.221,-10.1274,5.1616,7.1616,
-10.4473,-1.9194,2.7292,6.661,-9.5045,6.9013,2.1971,20.9773,4.398,-7.5731,-3.6968,-13.3759,4.37,2.8755,
-12.7127,-2.7684,4.0114,10.1175,-13.7545,3.595,3.0294,12.97,9.437,-7.1187,-2.9929,-10.163,5.5538,-3.0814,
-9.5394,-1.6379,3.2888,3.2439,-6.6624,-1.9229,-4.383,5.9253,3.5682,-6.6914,-8.1159,-7.625,4.2567,-3.3784,
-6.7981,3.5218,2.8503,3.7724,2.6551,3.7358,-2.433,12.5594,1.1847,-3.639,-11.2442,-9.3369,7.1346,-2.453,
-5.9078,1.3823,3.1617,6.4386,0.56764,5.4399,5.426,13.7345,2.0779,-2.4564,-8.6413,-11.6687,7.1884,-8.09,
-0.010186,-1.8341,4.6587,2.4368,0.77455,1.0157,2.4489,11.7052,-6.4829,-0.62175,-8.3638,-4.4609,2.1778,-4.9535,
3.1239,-1.0012,5.1026,-0.36092,5.3078,0.71376,3.0253,14.6183,-9.2269,0.13845,-5.6928,3.7605,1.3243,5.2257,
-1.1609,-2.6279,3.5911,0.86603,-1.5186,1.8762,7.9055,11.572,-0.71959,-3.4853,-0.77198,0.40137,2.4496,3.2249,
-4.7064,-1.7475,3.1345,1.0553,-9.3814,6.8251,4.7798,6.2982,-1.8815,-3.9993,-6.751,-7.5762,-0.34866,-1.0657,
-2.2549,3.9009,3.1878,5.5712,-6.6494,11.9592,3.2877,15.3198,-5.8664,-2.554,-11.89,-8.8089,-2.4969,0.68498,
-2.602,3.6669,2.9965,5.7189,-3.8398,7.8672,3.5724,21.1495,-5.032,-5.7752,-9.7303,-7.7984,-2.829,0.16195,
-0.99959,0.5548,5.7088,-0.40882,0.24693,6.4313,2.8761,10.7215,0.090152,-6.875,-9.1465,-9.7409,-0.73109,2.5624,
-0.21649,-0.68401,4.1612,-1.5894,-1.4553,10.1426,1.0161,3.5705,-2.5666,-4.775,-11.249,-9.3976,-4.7848,3.6137,
1.4835,5.8647,3.1884,5.9776,-5.4651,15.5598,-1.2138,15.1667,-6.0278,1.0548,-9.3686,1.5306,-5.7028,8.4588,
2.8407,5.9952,1.5509,4.6551,-8.5117,11.7341,-4.0335,12.8104,-4.2198,2.4378,-9.2889,3.3669,-2.9505,12.7715,
4.3575,2.502,0.7349,1.2423,-2.9398,5.9684,0.78827,1.1955,-2.2799,0.60432,-8.4906,-1.8968,-1.0862,11.2823,
3.6141,1.87,2.1371,4.5422,1.0935,4.164,6.5256,8.837,-1.1788,1.5324,-7.4987,-3.2288,-5.8413,1.9283,
-1.1822,2.9629,3.6958,4.5109,-8.3724,2.2272,3.9646,14.8145,1.5433,2.1631,-6.3261,-3.2762,-5.2501,-5.1771,
-3.0397,2.3029,2.0281,4.7219,-11.7266,1.1295,-1.5757,6.2126,-2.4059,-3.2691,-2.09,-4.0437,2.2955,-3.9023,
-0.68771,2.8881,2.1473,6.6082,-1.6226,3.7128,-2.6864,4.6346,-6.8409,-6.206,-2.2055,-4.0421,2.8812,-1.499,
-1.3696,3.9199,3.2236,2.5961,3.5362,6.1413,-2.284,5.0796,-6.6712,-2.7004,-6.6527,-4.0408,-0.42498,1.2422,
-1.7693,5.1309,2.5482,3.4046,1.3959,8.1835,0.74552,5.2572,-4.8251,-0.12821,-2.3972,-0.42386,0.082456,7.4347,
0.98792,6.0279,2.1544,5.3695,1.0711,8.4153,3.8338,7.111,-6.2228,-2.7721,-2.0124,4.1809,-2.574,10.1216,
4.5438,3.4969,1.7839,-1.4604,4.1401,5.741,1.9168,1.6224,-11.3928,-4.2927,-5.0249,6.5813,-7.963,9.2731,
1.6201,-2.2566,-0.49229,-0.64985,4.6146,0.81729,0.59649,-4.0186,-4.6837,-1.866,-0.62603,4.9816,-1.9416,10.404,
-6.6723,-3.085,-3.8372,5.6557,-0.48297,-3.0886,-2.3318,-2.3312,2.8282,1.1385,2.786,-1.1023,2.5132,3.0313,
-6.9946,0.71526,-1.92,2.6655,-5.9974,-3.626,-4.8428,-0.50385,2.4173,1.7933,1.8957,-1.7589,-1.7347,-7.0328,
-5.1289,-0.29176,-0.35829,-0.86915,-7.0836,-6.3011,-4.5524,-1.4382,-0.62005,-2.6529,1.2998,-1.1716,-3.559,-7.5749,
0.24006,1.413,1.8324,5.6909,0.81325,-2.3077,4.6388,1.2997,-2.752,-1.2889,9.1755,6.8524,3.6444,2.2796,
2.1539,-0.6,0.7581,2.457,4.1389,0.24139,8.6988,-3.1166,-2.105,0.23474,6.2149,12.2263,3.9077,5.5173,
0.81979,-1.2869,-0.97415,-3.716,5.5778,-0.014059,3.5976,-7.027,1.6368,-3.8767,-2.5937,4.9848,-6.6907,4.4633,
-3.8089,0.95925,-3.0851,-0.35979,3.0737,-2.6645,-3.6084,-3.4721,-1.5947,-6.2954,0.21326,-1.3401,-10.3868,6.8464,
-6.4727,2.8301,-2.4183,4.4823,-3.3774,-2.9868,-5.8018,-2.2997,1.3933,1.7953,10.8055,5.0071,-0.60481,11.2561,
-8.2535,-4.8115,-7.3344,-1.8122,-6.7902,-7.3874,-7.6233,-12.0441,2.9969,3.3748,3.6493,3.0194,0.15438,1.6627,
-3.6607,-2.8354,-3.2792,-1.9442,6.8738,-7.6668,0.78807,-9.1521,4.0222,0.521,-5.0056,-1.2589,1.8326,-1.5699,
-1.754,1.9138,1.0152,-0.14056,9.1127,-4.5555,1.9458,-1.6133,-1.2806,-6.018,-4.946,-4.799,2.9277,0.2113,
0.27939,3.2453,1.4362,3.7243,1.8171,1.9844,4.7216,3.3042,-0.23992,-2.2824,-1.2748,0.7916,4.1983,3.5731,
0.021663,0.88138,0.62713,6.1519,3.8772,0.66002,11.4282,1.4187,1.4617,2.9157,-7.2243,4.8415,-1.1153,10.3486,
0.5023,5.6492,4.4459,5.3009,7.9833,0.62088,6.8861,-1.0765,-4.8925,0.33066,-6.7908,4.551,-8.2788,16.4761,
-2.9021,4.8281,3.697,4.5006,-3.1012,-1.8272,0.2062,-5.8324,-1.2247,-4.5097,-3.0087,-0.060634,-10.6748,11.6309,
-2.246,1.6459,3.4752,11.4614,-4.3611,2.1393,8.3885,-1.1441,11.3822,0.58163,-4.2745,-1.985,-2.8032,6.1128,
-2.5932,-0.3806,-1.0717,5.4716,0.72101,5.8673,6.4394,0.37076,3.9508,1.5106,-5.9462,-5.7222,-3.1172,1.8896,
-3.6431,-2.0452,-0.76664,-1.8468,1.4009,-0.028564,3.4013,-1.3389,-0.86618,-1.2314,0.9183,-6.5842,-5.5815,3.4633,
-1.7371,-1.6813,0.48488,2.8435,2.5219,-4.124,7.2948,-2.4632,2.8014,-0.91628,-0.34186,-7.8762,-2.5953,3.4967,
2.9467,2.0348,2.1428,3.8779,2.6118,1.6668,4.2058,-3.039,2.8741,3.7182,-5.8652,-8.6089,-1.2345,-1.2926,
-2.2918,-4.5948,-0.15494,-3.8265,-5.0167,-4.9406,-5.9285,-8.8822,5.8351,5.6643,-0.4516,-0.62031,-0.43706,-4.3486,
-6.0107,-8.6579,0.33629,-0.22249,-3.7514,-11.875,-2.1983,-8.8312,12.2339,0.9861,13.6755,13.5169,8.7482,0.73305,
-10.9527,-10.5485,-5.4685,1.7191,-9.3114,-15.0192,2.7538,-5.8912,10.5356,-7.7502,23.3395,15.9596,4.3665,-5.5779,
-18.2493,-14.4949,-9.7196,-1.0352,-22.491,-21.5896,0.41942,-7.7069,10.1444,0.66859,23.6264,22.4739,0.0071147,-11.7507,
-27.2774,-19.8922,-12.029,-1.9372,-28.8543,-24.1508,-4.9082,-15.9214,10.4998,10.2697,20.7628,35.2254,4.3452,-2.8507,
-33.5945,-22.3139,-15.4046,-3.5082,-33.1486,-16.676,-9.1932,-16.6533,9.6289,11.3407,17.3479,43.8377,8.1819,6.7203,
-40.9789,-27.4827,-18.5777,-4.9849,-38.1496,-19.2909,-9.8467,-5.7722,10.2564,14.2757,16.548,37.1101,9.3782,6.0761,
-41.8944,-33.0646,-16.4989,-6.6142,-34.8965,-24.8821,-6.8457,-3.9793,11.569,14.8652,13.6267,32.955,10.7439,2.8193,
-29.0168,-26.9834,-10.4478,-6.9403,-20.9926,-19.774,-6.6762,-17.4794,3.885,4.5733,12.5681,34.5932,10.8222,3.8549,
-14.9833,-14.036,-4.759,-1.4622,-9.8506,-18.8283,-6.0342,-16.6716,-1.8913,-0.76235,14.9475,31.7947,11.3781,3.3831,
-12.1561,-11.7478,-2.0633,1.0357,-10.7058,-21.555,-4.7083,-8.9224,0.15042,0.24726,12.6044,19.2817,7.8029,-2.6049,
-5.4012,-12.7301,3.1222,-2.1599,-13.6789,-12.3079,-3.2205,-7.6641,-0.099576,-0.0085425,8.2327,14.0274,-0.13704,-4.6178,
-0.97977,-12.6895,7.0322,-4.1995,-14.0635,-8.9184,-3.7506,-9.8554,0.6293,2.1611,2.1951,19.6933,-0.36979,-5.546,
-10.8029,-15.0613,-0.86156,-4.1885,-18.2809,-20.6753,-10.515,-10.9513,-3.5058,3.2368,-6.3723,20.6813,-3.963,-10.7564,
-10.8776,-12.4704,-4.4253,-2.7319,-16.9433,-20.1579,-8.1971,-9.0894,-3.5364,2.8011,-4.3032,17.2708,-7.8226,-5.5317,
-1.3074,-10.0352,-0.062414,-1.3632,-11.8291,-13.887,2.1769,-11.1951,3.1832,-0.49997,4.3912,14.0654,-0.36336,-1.1025,
-5.3263,-14.9765,-0.29964,-1.0399,-9.4321,-15.2229,-1.5691,-15.1027,1.7874,-3.6035,7.7431,12.9805,8.576,-6.0975,
-12.7195,-18.8986,-3.1742,-1.9419,-8.3843,-13.3457,-6.7776,-11.7864,4.0903,0.46914,13.545,17.9863,10.4716,-2.3577,
-14.6074,-18.4878,-6.5989,-3.0307,-12.4607,-9.8936,-2.7556,-8.91,9.3885,6.4665,18.276,19.0762,6.2284,7.1838,
-18.7924,-11.8347,-6.4439,-2.1257,-16.2924,-8.0945,-5.2413,-10.0624,6.1739,8.7303,14.5285,15.7627,5.1315,9.4041,
-21.5217,-8.2326,-5.0934,-1.5162,-12.4228,-6.645,-9.7476,-10.423,4.3572,6.2779,5.9436,12.4064,4.8236,-2.2474,
-11.3123,-4.6051,-0.69003,3.1545,-0.83115,-0.70264,-0.7268,-10.0386,9.1574,9.9985,5.8279,18.6519,4.7752,-6.6918,
-5.331,-0.95459,1.2791,5.3754,0.18258,6.5701,-1.6475,-11.3645,9.0899,10.3629,9.3346,18.9786,6.4169,-6.2908,
-6.9391,-2.8253,-1.6895,2.1606,-5.1306,10.5147,-9.7431,-9.7185,2.7602,2.9925,5.8827,9.1634,5.0678,-16.036,
-4.5948,-3.1379,1.3042,2.5131,0.47969,12.2942,0.00025179,-7.6889,-1.2621,2.3308,4.5657,9.0958,0.90753,-27.1252,
-1.6677,5.0043,6.7693,5.9775,6.9584,15.1717,5.5436,-1.6842,2.9108,3.8779,4.0501,7.8265,0.61188,-30.0772,
-2.0498,11.4527,8.7735,7.0653,-2.1358,15.7074,-5.8758,5.1655,0.80817,-1.6572,-1.0129,-6.7431,-0.38893,-36.467,
0.4835,7.8733,12.1037,7.6055,-6.8281,14.2833,-2.6309,3.4096,1.2418,-3.0038,-2.3982,-15.3769,-0.84775,-39.5819,
-3.4019,1.1341,12.3414,5.7029,1.7765,10.5338,6.6857,-5.954,5.0237,-0.41341,0.15582,-4.8128,1.1313,-37.207,
-13.3209,-5.2007,5.3344,2.4682,6.0083,-0.22138,5.8024,-7.0431,7.6144,0.09333,3.0385,-0.66813,6.3661,-38.349,
-17.1014,-12.3606,3.809,1.1148,-0.86018,-14.3081,8.1054,-6.3795,12.2192,1.293,5.9892,-3.7615,11.0453,-37.7355,
-14.3879,-11.3776,7.6778,2.2535,-0.085207,-24.4164,12.681,-10.0941,15.1017,1.9386,12.62,7.3107,16.4084,-28.9632,
-15.9348,-9.7309,6.7351,2.6001,8.5967,-11.3821,10.474,-9.0064,18.5338,4.2325,15.7191,20.972,20.2445,-24.8154,
-14.2555,-12.7624,5.608,-2.617,0.60917,-15.2786,3.3379,-7.743,9.9501,1.8093,9.2324,33.8137,13.4863,-30.798,
-4.2411,-6.694,8.646,-1.0142,-4.7298,-13.8799,0.24513,-4.8683,3.0865,-2.6376,8.6785,30.821,8.8207,-28.4681,
-7.8433,-0.02585,9.5732,5.7953,2.7846,-0.99581,6.015,-4.094,9.65,-2.9615,12.4963,25.5971,14.5582,-21.9396,
-15.5676,2.8682,10.9273,6.8941,12.7407,2.9203,10.9567,-3.8484,9.0708,-7.1221,10.3005,22.6152,17.5409,-19.6591,
-6.1977,8.7214,9.5485,3.8287,12.6991,2.022,7.1659,-0.484,4.429,-15.6129,1.2466,16.1968,11.9089,-9.0798,
-3.8974,4.342,5.119,0.70711,-0.11393,1.9009,-1.4588,0.50914,-0.17486,-18.0503,-11.3615,9.9226,5.4101,-6.6066,
-8.7252,-0.016103,5.535,-0.058445,1.098,7.3302,-2.0944,2.648,-5.2258,-8.5314,-9.9567,18.727,4.8443,-6.9333,
-8.6839,0.94896,-0.09955,-3.9116,2.4781,7.3723,-4.3791,-2.3318,-4.9125,-3.199,-7.4313,20.0138,-1.7131,-1.2149,
-5.0293,4.5074,-6.1194,-0.54338,-5.6243,1.3866,-9.1776,-6.2893,4.3003,3.0185,-7.7083,14.7156,-1.3689,1.9915,
-6.1737,1.8268,-4.306,2.8636,-12.9995,-5.4454,-4.2885,-3.0195,7.8986,14.4064,-5.3177,17.6889,6.9078,-4.8768,
-16.6495,-11.0572,-8.6271,-1.8876,-21.1377,-12.5903,-2.8262,-2.5975,5.7373,14.2653,-5.2398,18.3147,2.8778,-4.825,
-16.3738,-14.4913,-11.2429,-3.944,-19.6285,-14.0043,-3.8617,-6.0571,8.5266,10.2758,-2.7562,18.903,-2.3561,9.5645,
-2.1349,-5.668,-2.1324,-1.5379,-4.3508,-8.1025,3.8417,-9.309,12.5946,10.3825,3.4346,21.3842,1.8825,18.5107,
-1.2838,-5.5688,-2.7277,-3.1329,0.6105,-2.0726,-1.4504,-6.0992,2.9207,1.3238,2.9879,15.5217,-0.39972,14.7489,
-3.6171,-5.7168,-0.6358,-2.945,-9.0673,1.426,-6.666,3.4258,0.33537,-4.0583,3.7725,9.7697,0.58813,12.9001,
2.3845,-6.3379,8.5614,-4.6965,-4.185,-2.5162,0.48263,-4.9745,1.761,-5.7432,2.0999,1.9527,2.9634,7.7873,
8.9903,-5.4755,7.5658,-6.8248,8.1177,-2.8469,1.9002,-10.9425,-6.0569,-12.1471,-3.3283,-6.8411,4.7138,10.2126,
3.3894,-1.0496,2.5323,-5.2102,-1.2872,-0.50696,-1.8293,1.5239,-5.9347,-19.8541,-5.7799,-14.3846,3.7079,12.2511,
-2.5985,7.6903,0.45217,-2.9694,-7.477,-2.405,-1.7197,2.3964,-5.5786,-23.9658,-3.9873,-15.4497,-1.3353,7.6597,
0.44947,21.2086,-1.0212,-0.38114,6.9512,6.8984,-4.5088,-4.4959,-11.5104,-13.8507,1.0726,-9.2201,-2.701,14.9129,
-2.4696,18.0074,-8.1908,-5.1785,0.74953,15.1613,-14.3614,-1.3336,-13.7123,-6.7532,-2.8481,-8.6669,-3.5033,18.8384,
1.294,12.8296,-5.5297,-3.1806,-8.2133,12.0825,-7.9559,6.2182,-9.2742,-1.7682,0.45625,-2.1213,-0.15959,18.9134,
-1.194,5.3112,-6.6444,-3.9539,-10.1308,-2.7425,-4.1043,-2.3498,-8.7179,5.5685,-0.053285,3.7903,-4.0066,19.707,
-4.4963,5.9568,-6.7277,-2.7528,-8.5587,-1.4931,-4.34,-3.6551,-1.9279,19.3344,-2.9421,13.6862,-2.8019,26.2373,
-8.5651,5.1173,-8.252,-4.0336,-10.4555,4.3811,-7.936,1.8671,-5.1864,25.7666,-5.176,13.8292,-3.116,26.5915,
-8.5336,1.4358,-9.2031,-0.89954,-10.3103,5.0823,-6.0138,6.5753,-2.4651,25.1849,-3.4196,12.0355,-5.8211,26.4418,
-4.8883,2.0728,-6.964,1.3238,-6.5585,7.9106,-5.412,7.3859,3.7081,29.6992,0.88314,15.8925,-7.6412,26.5423,
1.4305,5.5638,-2.9307,-2.853,1.7888,15.8717,-4.8463,7.6656,-5.4325,20.4454,2.035,11.8054,-3.0854,24.7088,
6.6476,7.6403,-0.3445,-3.1639,6.9841,15.4015,-3.1093,5.2777,-12.3371,5.1187,-4.3534,-3.0029,3.3665,21.7802,
7.4538,0.6742,-1.5289,-2.251,1.5038,2.6673,-4.6097,-1.5467,-9.9094,-9.2884,-12.0462,-16.9227,0.51319,9.6274,
12.309,-0.81274,5.3111,-3.08,3.8235,-3.2775,0.96928,-1.936,-10.7614,-22.8311,-13.2518,-25.0662,-2.4099,1.8187,
13.2577,7.6722,11.5003,-0.72606,11.0661,3.4268,3.5622,2.2775,-14.695,-26.8842,-13.6615,-22.8388,-4.9164,3.8792,
7.6417,8.6579,8.4,4.6199,6.0636,7.5598,0.45619,5.0331,-7.0646,-23.8251,-15.7341,-21.4687,-7.0318,5.0925,
4.5319,2.595,5.727,5.0659,-2.7361,3.491,-1.2582,5.4543,-0.133,-11.0674,-11.1749,-20.4213,-8.2973,2.1356,
1.1267,-1.6583,3.214,0.66478,-3.777,-2.7443,-1.9058,5.3682,-5.1865,2.8533,-10.7451,-20.8835,-8.0402,-0.64386,
-2.0741,-3.2458,-1.0764,0.86563,-1.8632,-2.8206,0.37769,2.8767,-2.7059,3.4052,-11.7879,-13.6047,-1.0501,3.9743,
-1.9495,-7.3894,-4.3856,-0.63234,-3.1974,2.6513,-4.9472,1.7405,-3.5076,-1.1377,-7.7059,-9.4138,2.3871,14.3414,
-2.7968,-7.4282,-4.1229,-2.5226,0.36867,3.9385,-5.6147,4.5281,-4.7434,5.1976,-7.2436,-22.9489,-1.1305,18.3011,
1.4683,2.8995,1.6681,5.583,14.0851,6.3533,7.0145,9.3181,5.9055,13.8033,-4.1579,-35.672,2.0708,19.8541,
4.0316,5.3768,1.3273,2.5967,14.4453,7.6595,2.4963,4.1795,3.3818,2.611,-3.1853,-47.6317,3.634,17.4578,
6.4408,3.8489,3.4168,-1.1746,8.9988,9.8511,-5.1253,5.1336,-0.43655,-4.0531,-4.1994,-34.0485,4.6208,20.0258,
4.6085,4.1004,4.1756,5.1624,9.423,7.3316,0.48464,9.1643,2.4817,0.52839,-8.7677,-35.38,1.9334,21.2344,
5.5371,4.577,4.6482,8.4679,10.5446,5.2045,4.5529,4.0345,6.4304,0.25549,-10.4111,-36.3905,1.0943,20.2015,
4.7227,-0.035686,7.2616,2.6574,9.4302,2.4823,-0.54051,-2.9558,3.1523,-9.4006,-8.8223,-31.7967,0.06452,14.6513,
