"AF3","AF4","F3","F4","F7","F8","FC5","FC6","O1","O2","P7","P8","T7","T8",
0.48193,-7.2308,-19.2819,0.96387,13.0154,-0.48193,14.4617,19.7639,8.6771,-9.159,8.1947,-1.4463,-5.7846,-3.8564,
-2.1983,-0.28928,-18.8481,3.5574,11.0294,-1.1761,13.8347,14.9628,9.3615,-6.4401,6.016,0.80991,-2.7862,-4.3481,
0.10298,-0.51312,-15.5483,7.9234,11.0903,-1.8287,13.2458,15.7521,1.3278,-3.4028,-0.85264,1.002,-8.1629,-0.47206,
1.3019,-1.205,-9.0716,8.6531,12.5943,-0.031989,11.246,22.279,-0.92079,-1.5112,-2.4885,1.6651,-13.2165,-3.0946,
0.25966,0.31333,-8.0451,7.1703,5.09,-1.958,6.2327,21.4244,0.098554,-5.7586,-1.857,4.4579,-15.3158,-6.2831,
-1.9251,-0.91076,-10.214,8.9092,5.9899,0.32861,7.546,18.9337,0.81554,-6.1365,-4.8791,8.2878,-13.1915,1.0833,
-10.2452,-8.8099,-19.4831,0.42092,2.0151,-0.41401,1.0677,12.254,-0.43868,-8.9018,-9.1661,1.765,-13.6053,2.2236,
-10.1127,-9.7273,-19.7601,-3.9429,-1.4801,0.57493,-2.3706,13.9291,4.4086,-8.3674,0.060757,2.6232,-12.3068,3.0542,
-8.783,-9.867,-18.3335,-2.5015,-1.6322,-0.18293,-0.54161,20.5652,1.4925,-9.0707,0.78047,4.1525,-12.2918,3.112,
-7.292,-4.9364,-20.1258,-1.8692,-0.088272,2.2384,-1.4728,21.2597,-0.04307,-9.0081,-1.1948,-1.399,-10.1078,0.51488,
-2.9978,4.0366,-16.026,3.0634,4.2556,8.3708,-7.6516,19.9839,4.78,-8.4679,4.1793,-3.2435,-6.609,-0.96204,
-4.505,2.1074,-12.895,7.4591,6.6516,9.0737,-7.4332,24.3287,3.7701,-9.6468,1.7596,-0.87951,-4.5255,-2.5913,
-5.4402,-4.0448,-10.9163,2.4321,4.0831,8.288,1.4487,21.1815,4.7489,-6.4171,-2.9255,-0.10361,-2.567,-0.26691,
0.18888,-2.3559,-6.4049,-4.9442,6.2487,6.8269,7.1463,11.234,9.2847,-0.729,2.5527,-0.097391,-2.4125,-0.25089,
-0.78655,-1.2504,-5.5389,-9.4685,10.2119,2.5607,5.7534,5.2571,6.7992,-1.6498,7.22,2.8007,-3.2323,-6.0206,
-2.4264,-5.273,-8.3398,-10.5874,6.9478,2.6482,6.1314,5.1828,4.2223,-4.2021,4.6174,4.3202,-4.2434,-3.49,
0.12935,-7.3667,-9.7676,-7.542,-3.592,1.5255,0.94278,6.8001,-0.3698,-7.8064,-0.96225,0.20456,-15.558,1.5401,
2.5317,-1.6225,-7.7353,-1.7873,-7.2333,-0.012788,-2.4882,12.6586,-1.7939,-6.8561,0.05981,2.602,-21.3734,7.2318,
-1.7178,-0.80159,-7.03,-4.331,-3.1836,-1.699,-0.16956,7.8015,-0.96311,-6.6855,-0.66691,2.2051,-16.9573,0.77258,
0.55492,-0.51252,0.38168,-0.45568,2.0691,3.4646,5.3842,4.6823,5.1207,-3.6328,-0.38593,1.3499,-10.8782,-3.8531,
-0.92487,-2.8921,-0.12339,0.053821,-2.3936,4.2208,5.0614,10.6681,3.367,-3.897,-6.6295,4.1612,-13.6002,0.71621,
-4.2438,-2.2367,-3.4904,-2.8419,-2.25,5.4138,2.3471,19.1866,3.6469,-1.7354,-7.1956,8.7318,-14.2304,7.9041,
-9.0506,-4.2714,-6.4143,-8.2148,-1.8743,2.9196,-2.8551,17.3127,3.1873,-2.354,-1.7024,4.1107,-14.0997,6.7067,
-9.7127,-7.1488,-6.2706,-8.9274,-5.377,0.57505,-2.925,12.1764,2.273,-4.8641,1.533,-2.1617,-11.5663,0.76092,
-2.1398,2.1984,-4.2069,-3.3299,-0.9568,5.6025,2.7943,13.1333,8.6443,-0.47463,0.23594,2.0656,-9.1853,-0.0078646,
0.63967,4.7176,-4.1955,-1.9248,2.716,5.0253,2.3857,14.5144,7.4027,0.75868,-3.8756,4.1108,-13.6954,-0.24836,
-2.7732,-1.832,-1.5336,-3.7375,2.0711,6.1701,3.6888,15.5717,7.9224,-0.73264,-3.1611,2.4179,-11.4274,3.6229,
-5.7398,0.4471,-2.165,-3.2723,-0.2223,9.8972,-1.1123,14.8784,10.0986,-1.412,-3.6943,1.5499,-9.055,4.1289,
-3.9496,7.6507,-2.517,-1.1482,-1.1737,6.4109,-6.8301,15.4315,4.1896,-0.36345,-7.3295,0.97455,-13.3324,1.4706,
-2.2661,3.3355,-2.3657,-2.043,-2.067,3.1339,-1.1179,14.0239,-0.39986,0.14052,-5.4433,2.3626,-12.0499,-0.063674,
-3.0947,-0.72083,-0.29583,-0.47435,6.7339,8.2483,4.734,16.0748,8.301,3.9887,0.18575,8.4871,-0.23987,0.90424,
-5.8013,1.2504,-0.76025,-3.3382,6.8121,6.7893,-1.8168,17.5202,4.9107,0.85709,-3.6816,3.6393,-0.70764,1.8141,
2.2595,4.0679,0.24969,-3.1379,-3.72,4.9357,-5.0822,23.2179,-6.9531,-5.9432,-8.2814,-1.3993,-5.4859,9.8999,
8.6319,4.0648,2.8858,0.66535,-8.5585,6.8087,-3.0901,23.0301,-7.7412,-8.2382,-8.9898,5.6741,-3.9514,14.3676,
8.1137,1.4105,0.78469,2.5539,-6.5985,5.4361,-4.3507,15.8635,-5.8307,-5.3335,-10.8603,11.6008,-5.6428,10.6133,
9.7963,1.5671,-1.4318,0.23123,-6.4438,1.4947,-2.4027,10.3322,-4.2758,-2.3622,-9.0036,4.879,-6.9912,2.5044,
4.629,3.1601,2.7517,-0.98725,-3.8878,-0.28194,3.2853,7.0614,6.3453,-1.4969,-3.8839,-1.9214,-1.5098,-6.5637,
-2.3972,2.9705,6.9249,1.964,1.1657,1.1812,5.4983,6.6372,14.1593,1.003,1.1694,1.5683,6.7755,-9.5443,
-0.80731,1.8281,5.5453,2.8103,2.5423,1.5925,3.7224,6.7211,10.4174,3.3532,0.61754,3.4026,7.815,-10.8996,
3.5792,2.2006,9.5512,2.1595,5.764,0.53242,3.9808,7.7639,12.6847,7.0082,2.5085,3.6802,6.382,-6.3895,
-0.97363,-0.82371,11.3885,-3.2725,3.4902,-1.9094,3.2602,3.9239,13.852,4.6597,3.322,0.56707,7.4451,-0.22129,
1.9771,2.118,2.0278,-2.5944,-3.9503,-1.7951,1.1362,5.1345,9.1643,-1.8871,0.71236,-2.8412,8.4444,2.2023,
2.0994,6.0883,-3.637,-2.1973,-5.4005,-2.4103,-3.5113,10.8524,1.6245,-2.4967,-4.3916,-2.4297,0.4664,1.3468,
-1.4008,0.90249,6.2224,-4.4758,3.6008,-0.33724,-3.7828,13.0935,-0.88283,3.9198,-4.1279,3.5009,-1.9719,4.6407,
2.0575,-6.3823,5.3669,-2.7613,0.97444,3.0572,-2.5917,9.4156,0.13424,1.2743,-6.773,-0.083879,2.9669,3.8801,
8.6825,0.26718,0.70611,0.77887,-3.9047,5.7658,-1.9543,11.2608,3.5002,-3.1405,-6.8485,-2.9714,3.2708,-1.6553,
5.5105,5.7948,2.8329,-2.8833,-1.0189,1.3225,-6.4163,6.9698,-2.2534,-3.675,-7.1605,-3.516,-1.9871,-10.4741,
5.6622,5.4471,2.6634,-3.6742,0.97042,-5.0233,-5.5494,-3.0894,-8.3848,-3.4545,-13.9617,-3.787,1.0246,-14.184,
9.6608,2.7101,2.9855,1.8485,1.3941,-10.0246,2.0144,-5.3142,-2.579,-2.7653,-14.5703,-1.6315,3.8556,-8.5122,
8.1171,2.0654,6.1806,2.2197,4.2028,-14.244,1.8933,-7.4057,-0.49632,-0.6714,-6.4654,-2.0158,1.6959,-6.0735,
10.0404,5.7976,7.7377,1.1225,3.9504,-12.9072,1.298,-13.2281,-2.3945,0.81538,0.67116,-3.3409,2.5582,-6.1913,
7.7507,3.2806,2.2123,1.2961,1.0623,-17.194,0.49678,-19.4243,-5.3843,-3.3314,-2.5021,-3.3814,-3.1389,-1.7224,
4.393,-1.2548,0.15109,1.7005,3.8904,-26.7679,-2.9072,-19.2229,-6.5077,-4.5775,-4.2804,-0.2867,-9.6997,2.2375,
8.2274,-1.4203,3.2757,6.178,3.8986,-26.8488,-1.5277,-19.2746,-1.5373,0.27666,0.55591,0.93603,-6.4659,-1.9938,
9.4205,-1.576,5.7303,7.0126,1.9774,-24.9969,4.1075,-28,-1.686,-2.391,1.2459,-2.2536,-3.9088,-9.346,
11.5066,-0.27638,9.4836,6.8326,7.4022,-24.7022,9.4045,-30.4176,-1.8261,-2.0068,2.3758,-0.91334,-1.5053,-6.6163,
8.888,-2.188,5.5406,9.3151,10.3325,-22.2557,7.8763,-26.6644,-1.7165,1.0061,2.2337,1.0701,-2.3789,-4.7731,
2.329,-5.6719,1.1106,8.9974,8.0256,-20.6796,4.7524,-28.1978,-1.8543,1.1869,7.643,2.211,-1.0311,-6.1737,
2.4304,-3.1627,3.6953,8.2164,3.4464,-23.536,4.2265,-32.5312,-0.53794,1.3564,13.6922,2.8014,7.4671,-3.6344,
3.4897,0.16036,5.6429,7.0003,6.3729,-27.1855,5.6599,-31.7849,2.1457,3.4445,7.8092,1.9102,9.67,-3.657,
4.7263,2.5611,8.1962,10.9183,14.6674,-17.8418,10.1408,-25.0573,2.0167,7.5759,4.9303,4.6874,8.6076,0.41855,
7.8174,-0.0024715,9.6328,12.1921,11.3775,-8.0942,8.5683,-22.1074,-6.7812,5.6758,3.6704,5.3708,7.1275,3.2857,
11.4457,1.6844,6.8857,9.291,3.2226,-8.8139,9.7414,-20.058,-7.5796,0.75546,0.31666,3.3613,7.9047,1.8833,
4.9744,3.9935,3.0981,5.8415,5.4398,-14.0696,12.5314,-19.8189,-6.1605,-0.73613,-3.0763,-1.6611,5.9842,-2.568,
-2.3137,2.5488,7.0098,4.2854,7.7647,-9.1279,9.1282,-19.8348,-3.6219,3.8876,0.72344,1.0899,7.3126,-0.24455,
-8.6826,-1.7012,4.9018,-0.068807,2.2369,-3.5187,2.0728,-18.4035,1.1749,7.2695,6.7058,7.5322,6.1507,5.3135,
-16.3568,-0.15289,-4.069,-2.9572,3.549,-5.2358,3.8766,-18.2632,2.5507,7.7977,6.3035,9.4909,5.2997,5.4771,
-20.4371,1.0611,-3.1019,-3.0207,5.0233,-6.1269,4.3669,-17.4088,0.22846,7.5708,2.7918,5.7879,10.0429,2.4969,
-16.5593,-0.20738,3.1102,-1.6342,2.5527,-1.6615,4.3463,-12.7489,3.8302,8.3218,3.3476,4.7173,11.61,2.1061,
-14.1195,-0.1954,0.99492,-0.090344,0.95328,-1.0799,5.5313,-10.0557,8.4206,7.8225,1.2181,5.8805,4.6464,-1.8766,
-14.9595,1.0216,-1.2339,0.15604,-0.30921,-2.2204,2.066,-11.6216,2.3718,6.6298,-7.2907,6.733,-1.6579,-5.3795,
-7.7952,2.4064,4.143,-0.81696,2.6016,-2.0869,1.4603,-11.8884,-3.073,6.7142,-9.7455,5.3649,5.6722,-2.1644,
-0.096664,3.2263,6.7865,1.6422,2.446,-0.51546,3.7828,-9.2469,-1.4423,3.9012,-3.8581,-3.6341,8.7063,0.85799,
0.873,3.5147,4.933,7.8102,1.8168,2.8895,4.0378,-1.4612,2.0182,0.29266,2.6399,-7.2724,2.8813,-1.6041,
-4.2408,2.5806,4.8782,3.244,-0.4611,-0.41716,1.1442,0.79585,3.1026,-0.44803,0.79449,-1.7746,1.9853,-3.6768,
-3.9864,6.2822,7.4776,-4.181,-2.844,-1.356,3.4861,-1.1801,0.50636,-0.42115,-0.21751,-0.22191,6.6869,-2.9742,
2.0374,5.9053,8.4752,-2.9663,-0.74518,4.5099,5.6871,1.3008,-3.8628,-6.1805,1.2418,-9.3676,7.2495,-6.6522,
3.1202,0.0075601,5.3154,-1.5833,2.9152,7.8545,6.5509,5.3204,-5.318,-7.979,-1.484,-14.349,3.6813,-10.8325,
-7.1901,-0.95699,5.9605,-2.4524,-1.5983,6.4192,1.3374,8.3754,0.30347,-1.2335,-6.2155,-5.2931,3.4606,-9.2185,
-19.2922,0.064297,6.0848,-3.2691,-6.805,-0.71489,-4.5274,7.3905,2.2135,0.28674,-6.8069,-3.5297,-1.0858,-10.5936,
-16.6884,0.54237,4.7559,-2.1091,-1.5765,-1.6359,-3.7739,6.947,6.419,2.1977,-2.0601,-5.728,-1.9845,-9.958,
-14.0001,0.26909,5.1937,-3.1876,-0.75876,1.5955,-4.2706,8.6996,8.2032,3.2709,-0.73147,-3.6974,3.196,-6.2272,
-14.6059,0.73488,5.364,-2.5144,-3.6053,0.053551,-4.0143,7.2138,0.48019,1.6284,-0.20518,-4.9213,6.3787,-7.7818,
-8.1862,0.44959,3.8371,-2.1224,0.70815,-0.67279,3.2162,4.1296,-2.2,3.2182,3.9047,-4.8672,11.0574,-9.9662,
-5.2849,-1.0236,3.6068,-1.995,1.63,6.1165,4.9514,8.2202,3.2347,3.507,4.6343,-2.647,11.8398,-2.1379,
-6.6548,3.1358,2.1854,-0.67025,-4.4931,9.8471,-0.88906,15.199,-0.57458,-0.3186,-0.70521,-2.7289,7.5147,4.9805,
-0.22995,7.5265,2.2952,-0.871,-0.60858,7.569,0.36911,15.0099,-6.5661,-0.54091,-5.7246,-3.2885,4.4122,4.9227,
3.8814,2.4958,5.2908,2.7965,3.5255,4.4636,0.58816,9.5298,-8.3411,-0.26726,-8.9963,-3.8144,0.049925,2.4584,
-0.20784,2.828,6.4196,4.5573,-5.845,3.2319,-3.3031,9.44,-9.2869,-3.1433,-8.9385,-2.1392,-7.6658,2.3109,
-3.0879,6.0328,3.1419,-0.53683,-9.3507,-0.33649,-1.6591,8.8736,-7.2834,-5.8472,-2.6176,-2.9752,-6.242,2.6541,
-5.0718,1.573,0.30227,0.21828,-3.2461,-5.8604,0.1277,-0.094974,0.14302,-4.7735,4.5289,-1.5914,2.0867,3.2178,
-9.588,-2.3775,-0.67996,2.6155,-4.0154,-4.5442,-5.6648,-4.9093,5.9192,0.33342,7.6319,5.2528,0.9974,4.4708,
-10.6999,-0.065706,0.083738,-3.085,-4.9798,2.2359,-7.494,3.339,6.2875,2.483,5.4867,7.1067,-5.088,6.8541,
-10.0577,-0.54347,-1.3673,-6.7561,-2.7526,2.102,-5.116,9.4054,3.9818,1.8519,5.1573,-1.5146,-4.301,6.925,
-12.1055,-1.234,-2.0084,-1.2893,-2.3467,-0.67543,-6.0145,3.2972,2.5378,4.874,8.4635,-5.5208,-2.3555,4.822,
-16.6819,-1.1602,-1.8877,-2.176,-3.6519,-2.5633,-4.6896,-3.1673,-1.953,4.0994,6.5092,-2.2973,-5.5888,4.0505,
-15.4397,-0.36744,1.3588,-3.2505,-4.1555,-4.5785,-0.79255,-1.7718,-5.451,2.1665,2.5035,-0.9544,-2.6017,5.9769,
-7.5235,0.37774,3.9286,-1.3685,-2.2191,-5.9912,-0.021868,-2.8705,-7.2933,3.2415,-1.7443,-2.1022,5.0259,4.4132,
-2.9747,-1.3322,3.9339,-2.4917,0.083172,-2.9802,1.1843,-2.4573,-6.6148,1.3598,-0.43438,-3.6633,9.3037,5.3537,
-8.3401,-3.4216,2.9747,-2.101,-1.1273,-2.0787,3.7645,-0.14097,-4.5309,-5.7119,3.6888,-4.1666,10.9148,6.2371,
-11.2141,-1.2879,1.3502,-0.046939,-1.0595,-4.3639,1.1283,-1.0966,-7.1513,-6.8152,2.9858,-2.9525,11.2241,4.8992,
-6.4437,-0.48772,0.54584,-1.249,-0.273,0.47724,0.33772,2.5846,-8.8914,-2.7909,1.6013,-1.5705,8.8634,9.6665,
-1.4776,-0.21726,1.2362,-3.3434,0.9489,8.4026,4.415,11.3474,-2.3321,-0.45402,4.1566,-3.1633,8.5728,16.5586,
-3.3169,-0.68639,-1.7302,-5.0708,0.4098,8.3806,0.77591,13.0769,0.21814,-0.90848,3.9074,-5.3834,9.9864,14.119,
-5.2875,-1.85,-3.7956,-5.0075,-0.82008,5.2262,-3.3685,9.1588,-4.3747,1.3152,1.9857,1.929,9.1462,10.6203,
-2.0777,-2.2214,1.2529,-1.333,-2.6991,5.877,1.6544,9.5736,-3.6298,4.1283,3.7948,8.0798,6.6693,11.4294,
-2.4352,-3.5342,-1.7146,-5.1092,-3.5012,6.4884,1.0729,9.9633,-1.0021,0.98835,3.5669,-0.59948,6.2693,5.9231,
-6.6274,0.05233,-7.8787,-7.6952,-0.39863,5.6172,-3.8117,9.8474,-2.3878,1.8934,4.3172,-4.9023,7.339,-1.6631,
-9.1223,0.04896,-5.9599,-6.2694,-3.7489,4.3161,-3.5832,8.7744,-4.6549,3.2258,5.0223,-2.1978,5.4526,-4.9376,
-6.6468,-0.91807,1.6287,-5.4111,-4.9705,4.5388,1.9342,10.1764,-0.51945,4.4783,6.6489,-2.0657,6.0895,-1.2671,
-7.453,0.34253,2.7361,-9.184,-1.5385,1.1332,-0.35079,8.8426,1.1992,2.0407,2.6348,-5.5574,5.4834,-0.46792,
-3.6314,1.2858,0.6437,-8.6329,0.48196,2.5115,0.63412,7.3482,1.6092,3.8464,2.9586,-2.8134,6.1183,-0.92178,
3.3354,-1.6834,2.0513,-5.2224,-1.4751,8.1454,3.9705,10.2813,4.4051,4.5795,6.1555,-3.127,7.6794,-3.2766,
0.72492,1.3095,0.96416,-4.4269,-3.3151,6.6926,0.84001,9.6647,4.6225,-1.962,2.8939,-3.4215,7.2184,-3.0802,
0.6812,4.1232,-2.4684,-5.1254,-0.7058,0.5062,0.78984,2.3361,0.97095,-3.7723,-3.0645,-0.80587,2.4472,3.8533,
8.8355,-0.46252,2.0185,-3.3721,1.2647,2.404,2.6706,2.6779,-0.051632,0.79239,-3.8445,3.0989,-0.11021,7.9604,
8.7871,-2.3627,3.8254,-4.1339,-5.5598,6.5983,-4.7207,9.7478,-1.4946,-2.6294,-3.1317,3.877,2.3068,6.5187,
10.9112,0.43035,1.9088,-6.0548,-10.7701,5.4793,-6.6064,14.2249,-4.5381,-6.0873,-3.185,0.029225,2.8915,11.6714,
15.5591,2.3327,0.34806,-5.6915,-8.6776,6.5968,-2.3536,19.1559,-5.2297,1.5088,0.8625,-0.45446,2.2361,16.7557,
6.1897,-1.9048,-6.1805,-6.0731,-7.9162,6.4422,-5.3461,16.3191,-4.6752,1.1771,4.9083,-0.66839,2.825,6.832,
1.48,-0.34427,-3.3991,-3.7805,-7.9227,4.6094,-3.5786,9.5554,1.8723,-3.2319,5.5782,-2.0745,7.4762,1.1199,
4.0425,1.3634,2.3482,0.06195,-3.8322,3.1278,-1.6769,10.1876,4.4113,0.09577,2.1098,-5.0833,6.3045,4.6684,
-0.77979,-1.3695,1.002,0.29874,-0.46921,4.1449,-1.8177,14.1556,4.3871,5.6332,-0.66792,-3.573,1.8284,1.7367,
-4.1075,0.15846,-1.9502,-4.0575,-4.2974,4.8606,-0.74432,13.7882,6.5345,4.8133,3.7105,-2.8767,1.7187,-6.0802,
0.47755,4.9694,1.0591,-6.7063,-3.5574,5.0511,-2.6281,14.407,6.1422,3.0784,7.8264,-8.9709,4.5079,-11.5002,
-1.2381,0.092209,0.27246,-8.4734,-1.6565,4.5068,-3.1931,12.8194,3.6047,2.6525,1.813,-9.6377,0.62224,-10.0871,
3.6567,-0.39549,0.73782,-7.9647,0.37083,7.1287,5.193,10.6042,5.7983,5.3857,-0.70617,-0.38254,-0.86158,-3.2151,
11.8729,7.582,5.2733,-7.7283,-0.37478,4.5318,6.0867,8.7627,2.3169,2.8934,0.059563,-2.0468,-0.56892,-2.7813,
11.402,9.7786,2.7877,-5.5769,-4.9316,4.9828,-0.78598,14.2629,-1.437,1.9969,-0.66691,-1.2006,0.18857,2.4473,
2.7637,4.1302,-4.8513,-7.4119,-8.2511,8.7812,-8.2106,19.9146,1.7822,3.0819,-4.7247,5.8608,-2.9562,8.8079,
-0.053243,4.6053,-0.4629,-6.2438,-4.6226,10.9059,-9.4052,21.3713,4.8088,2.656,2.0667,3.8219,-3.0198,8.0385,
0.91405,3.3654,1.9752,-2.9769,-7.7194,8.3236,-7.3949,14.7866,-0.78218,-2.8058,6.2813,-6.0481,-2.8384,1.7718,
3.9925,3.8861,1.6155,2.7451,-6.5331,8.5468,-4.7818,13.6582,0.46981,-1.4324,1.3249,-3.5163,-0.9811,0.46001,
6.6457,8.9558,7.7853,4.9912,-0.83873,9.4805,-7.3872,17.1773,5.7445,2.5102,-1.6469,0.55129,0.042321,-0.049297,
9.139,9.8643,8.7645,4.6913,-3.1985,10.8399,-6.9439,17.5924,5.8818,3.3235,0.86203,-1.41,0.52172,3.81,
7.1444,6.8623,1.4897,1.9997,-3.0066,11.6353,-4.5991,15.0906,3.1183,0.23152,-0.15402,0.12088,-1.9202,4.5453,
2.8593,4.5224,0.43645,-2.941,-0.89803,7.5632,-5.2875,11.2931,1.9673,-3.6388,-2.073,2.5238,-2.7688,0.41621,
5.5798,0.87656,2.3385,-5.6566,-6.1468,3.7349,-4.4878,6.2772,-0.56086,-8.2407,-0.020401,-3.4123,-0.19257,0.87317,
9.8248,-2.7915,-1.4173,-7.0044,-7.4652,2.3055,-3.4957,3.7314,-5.107,-11.8436,0.22225,-10.6793,1.9881,-0.86599,
8.0302,-2.3828,-3.0197,-7.7892,-1.9558,1.9265,-5.9373,8.0866,-3.5955,-10.4098,1.8959,-9.7974,5.9664,-1.5372,
-0.64651,-1.2757,-2.3563,-12.1428,-1.8387,3.7388,-6.5451,6.1554,-2.4156,-6.411,2.7463,-7.7635,6.0902,-0.48129,
-2.7769,-1.4401,-3.4198,-14.0654,-5.3434,3.7555,-3.9833,-1.2034,-1.5474,-1.929,4.7506,-7.0567,2.5917,-3.5854,
0.76373,0.092075,-2.2507,-11.2932,-2.1307,-1.7725,-3.7443,-0.16729,5.7759,1.0788,9.7682,-0.84874,1.9538,-3.3703,
1.9232,0.80991,-1.8747,-7.0002,1.1306,-2.389,-6.6526,7.7965,7.5989,4.6299,9.9055,4.7458,0.63176,2.3755,
5.6642,-0.68495,-1.2803,-1.2776,-2.3117,1.1287,-3.3614,5.4005,0.3941,5.316,5.4543,2.5329,-4.7088,3.1969,
10.1451,-3.054,0.24276,-0.23659,-5.065,-5.6879,-0.7496,-5.0464,-3.4859,1.1407,3.1989,-1.4755,-7.8007,-1.8152,
11.4643,-2.389,1.1923,-2.1508,-5.2433,-13.0596,-4.0788,-11.9747,-4.7228,-0.8562,4.453,2.9516,-7.8148,-0.26027,
10.7765,-3.6915,2.567,-0.57551,-3.4829,-15.65,-4.7984,-17.5227,-5.8857,-1.2868,3.2219,1.8102,-10.238,0.71921,
6.5147,-3.7112,6.0282,5.4848,2.2699,-16.8804,-0.41295,-23.943,-0.95304,-1.9327,6.1619,-3.8418,-6.0081,-4.8673,
3.4722,0.60883,5.4255,5.3967,4.3029,-18.5187,0.81712,-29.4963,-1.6192,-3.0216,9.4076,-5.2986,-2.9965,-5.2982,
7.1205,-0.87327,2.6901,-0.22954,0.6705,-20.2999,0.76832,-35.921,-10.1985,-6.2145,6.9152,-4.4985,-5.709,-1.6061,
11.7552,-3.9546,3.2518,-0.45696,3.7635,-20.2869,3.3735,-36.4175,-12.7198,-6.0828,6.7414,-4.9517,-3.1971,-1.2685,
9.6036,-3.7173,4.9849,2.463,8.3584,-20.034,5.0993,-29.8937,-13.4029,-5.7178,4.8907,-6.5828,-3.0052,-2.1567,
10.4734,-2.0482,5.6499,2.7969,4.0003,-19.7961,3.8288,-26.654,-10.6708,-8.749,4.597,-9.0801,-8.6097,-3.4734,
6.953,-1.443,1.4545,1.1833,2.3145,-20.0541,-0.73924,-31.8037,-2.7997,-4.8496,11.552,-9.9816,-10.5033,-3.7469,
-3.3468,-0.63371,-4.659,1.835,7.719,-16.2,-3.3462,-29.1723,-2.391,9.1795,15.9204,-0.94677,-9.1504,-0.38927,
-7.4841,-1.0774,-5.825,0.76122,2.9178,-15.2278,-4.1095,-26.4579,-8.0318,10.5571,9.1808,7.305,-10.5289,3.9731,
-2.2148,-2.459,-0.17332,-0.73071,2.7422,-16.2423,0.95775,-34.0294,-6.1037,7.5136,10.0758,7.831,-5.5588,4.2166,
1.2925,-3.2758,1.2833,0.277,6.4341,-15.7497,5.2386,-38.7361,-5.7375,10.4367,11.3994,4.4686,1.0412,2.0354,
0.97402,-1.874,-0.48089,0.98328,2.4326,-14.5638,0.82694,-29.4225,-10.4549,9.0876,2.2798,6.3697,-0.22656,3.6005,
3.3257,0.16668,1.9585,1.4067,-0.12346,-10.7979,-0.66894,-22.3545,-11.7558,6.1323,-5.0879,3.095,-5.0332,-2.4001,
7.2235,3.2902,2.5639,5.9016,1.5712,-2.1963,4.4329,-19.326,-9.3632,5.041,-3.0954,-6.9727,-1.5982,-12.1385,
8.2364,5.5029,0.96384,4.1012,4.8514,2.2743,6.577,-12.8638,-5.9094,-0.56415,-0.49951,-8.4825,5.7285,-8.5176,
7.0193,1.5573,-0.29928,-0.72415,0.94486,-1.9595,4.4952,-14.2612,-8.2059,-3.1814,-2.1568,-5.8044,1.7694,-1.0167,
7.0801,0.49998,2.1293,6.5501,-0.076159,-0.87808,4.2255,-16.7799,-9.6417,1.3478,-2.0274,-6.42,-3.6394,2.9007,
4.7268,-0.97651,1.5193,8.0851,-0.55375,0.1387,1.5616,-11.917,-11.4736,-6.928,-5.2799,-11.8196,-4.3851,-2.0938,
10.469,3.6616,3.5971,5.9125,-0.76126,-0.11082,6.0474,-3.248,-11.5083,-12.0557,-4.7224,-8.941,0.45748,-1.7275,
16.5898,4.8882,5.3099,5.5582,-0.23365,0.86016,11.9511,-6.9095,-11.7817,-7.476,-3.9567,-5.5125,4.2864,-2.1058,
7.6406,-0.94874,2.3402,0.16307,1.4676,1.0495,8.5829,-13.9667,-8.9056,-3.412,-3.4783,-3.9765,7.1627,-3.1842,
-5.8335,-3.3022,0.75334,-7.5593,0.89737,0.02245,1.8012,-12.6466,-0.65827,3.5414,0.58701,3.4927,8.179,0.86297,
-10.7861,-3.586,-0.73812,-8.5524,-0.1208,0.98497,0.24687,-8.9957,1.309,7.6672,0.069395,4.2475,3.3499,2.7394,
-10.6206,-1.9248,-1.6579,-3.2183,7.1175,5.2644,2.6424,-5.5637,-0.69754,5.7612,1.0293,2.0642,2.6668,2.5748,
-11.9118,-2.7734,-2.5225,-3.0255,6.6902,4.9483,5.8581,-1.3733,2.2366,7.8254,6.7524,4.3507,8.2911,-1.4359,
-15.0537,-4.535,-0.92517,-6.2182,1.9507,3.2054,6.9531,-1.773,4.0308,9.2843,2.4906,5.0538,7.3119,-1.8319,
-11.2582,-0.88863,2.987,-3.4352,4.7255,7.8336,2.1974,-2.6307,-1.032,3.9068,-6.8176,2.8221,0.60648,3.5805,
-2.3875,7.8413,4.7359,4.4842,2.5138,9.2917,-1.7909,6.2042,-2.4158,5.6005,-9.783,3.1352,-1.3581,8.6683,
-0.79827,8.3354,5.8978,6.1431,-1.0113,5.8424,-0.71932,10.1705,-0.34293,12.0132,-8.7139,3.4292,-0.79445,4.774,
-3.1607,2.5324,3.1336,3.3646,-1.9147,5.4916,-2.1222,3.7755,-0.80406,7.9182,-2.8886,1.777,-0.26462,-2.7431,
1.1263,6.4778,2.7046,6.2958,1.3337,8.7776,-0.79002,0.89784,3.8235,1.8995,2.8283,3.3576,3.8486,-1.8556,
-1.1102,6.3303,2.7835,5.1949,-0.91572,5.5996,-2.4296,3.0129,2.8709,0.098048,-0.47465,0.98676,0.002044,-1.0211,
-4.4183,0.16571,2.6163,1.9909,-2.3068,7.674,-6.1405,5.7244,0.77025,1.5387,0.035535,1.4097,-1.4441,-0.47816,
-5.1171,-2.2544,2.9417,-2.9488,-0.24021,8.6598,-7.6998,2.4889,3.1346,1.9283,6.7828,4.2177,2.4989,1.9611,
-9.8717,-4.7702,-0.85022,-9.2798,-0.94869,0.18599,-6.0329,-1.2759,3.1875,0.60774,7.5806,2.2774,4.0362,-0.80765,
-9.5202,-5.2071,-0.55847,-5.5898,2.2415,0.89796,1.3187,0.0057552,2.7551,1.7763,1.582,3.3458,4.0352,-3.8929,
-5.3338,-3.6896,0.19862,1.7357,2.3482,5.906,2.4451,-0.23533,1.8671,6.2493,-3.092,3.8682,0.17793,-1.4899,
-5.2545,-4.1914,-1.5007,-1.0198,1.0018,-0.95608,1.5752,-4.3188,-0.89626,8.0432,-0.25564,1.4667,-2.9665,3.179,
-6.6264,-5.6271,0.75846,-4.0921,5.5214,-7.4067,6.06,-6.7112,1.3267,5.3915,3.3751,2.102,2.2732,-0.14525,
-9.1211,-2.8791,3.1233,0.010083,3.7441,-8.8902,1.8403,-6.7902,2.6931,0.24752,-2.6117,1.4938,3.1009,-5.9209,
-5.1996,5.4886,6.7921,7.2401,-1.7834,-4.0187,-3.0911,-3.0086,-1.3251,-1.2134,-0.045133,-0.52428,-0.94176,1.665,
0.65618,5.8824,4.2156,4.6368,-2.8815,2.2482,-1.2182,-0.17677,-7.7528,-1.8637,0.19923,-2.1798,3.2123,8.0728,
2.0626,2.155,4.4446,2.4299,2.1121,3.5596,4.1576,-2.0944,-5.8419,-0.788,-8.4898,-1.0847,9.2861,-0.60629,
6.5184,1.7845,6.3473,9.7561,-0.18399,0.69466,2.7026,-4.1381,-3.322,-1.4639,-5.8115,-1.7428,3.6675,-10.4521,
9.5015,2.1596,3.0742,10.6168,-5.4754,0.17082,-0.8338,-0.51558,-7.4612,-1.3758,-3.0525,-5.4948,-5.7114,-4.5225,
5.3162,1.7893,3.1309,4.4364,-1.5317,1.3661,-0.54257,7.4693,-7.7362,3.2863,-11.7871,-6.3702,-3.1993,3.7028,
1.623,1.6817,1.0147,0.796,-2.4039,5.1403,-1.956,9.9135,-6.7903,0.67874,-10.1158,0.27877,2.777,1.5527,
1.5252,1.0988,-1.4568,1.2297,-2.2596,8.6883,-0.39288,3.5341,-4.9366,-7.5567,-0.83223,3.1541,4.5386,-1.433,
-1.9401,-1.3774,-0.40484,-1.7359,2.6969,2.8645,1.0772,-1.0161,-3.1944,-8.5493,-2.7103,-5.7116,3.7846,-1.8292,
-5.6805,-1.7767,-4.2374,-5.0062,-2.2856,-0.68179,-1.88,1.937,-2.5208,-2.2518,-2.5476,-6.3332,5.4852,0.69114,
-9.9192,-4.3215,-11.4547,-4.4651,-8.1743,0.56419,-5.8648,-1.7949,-2.1284,2.9448,2.6667,5.8567,2.9867,1.3723,
-14.8675,-4.3034,-7.1518,-2.5097,-2.6224,4.146,-4.3073,-2.8918,6.4352,6.3837,1.784,12.0135,-1.7715,4.9056,
-12.5291,-5.009,-3.3487,-4.7693,-6.8033,6.7893,-4.0489,2.5839,7.0134,1.6619,-2.1799,5.0257,-6.9679,7.5034,
-4.7878,-3.0215,-4.8352,-4.7243,-10.9747,8.0689,-4.5296,3.6339,-0.8794,0.83909,-0.84404,3.5191,-8.7192,4.8838,
-1.8492,0.29306,-0.92947,-2.2719,-5.2547,5.8978,-2.5703,-2.1275,-3.9599,1.9938,-1.5165,2.1029,-7.4729,0.011694,
2.1184,0.2757,6.8393,1.721,-0.60089,6.99,1.9224,-1.0358,-0.83001,-1.982,0.98482,-2.3618,-0.75781,0.49315,
6.0882,-0.94613,6.6699,3.7869,-0.32387,6.8115,3.4939,0.71315,-0.057304,-5.4789,-0.27956,-4.3893,3.385,-2.188,
7.8925,4.6543,8.4389,9.1033,4.7572,5.6799,6.4182,6.2144,2.5977,0.8758,-4.8421,-0.51052,4.8691,-6.1541,
2.5985,6.7854,10.3429,7.1111,4.4716,1.483,4.5866,11.144,1.9597,2.2693,-6.4795,-1.444,5.0592,-8.1952,
0.031988,5.8963,3.4554,2.828,-0.61697,3.8041,3.8295,9.9934,1.3601,0.68687,-0.30616,-1.3573,9.5759,-6.2572,
1.7175,2.4088,-3.7416,3.3815,-0.82115,10.5655,4.3228,3.85,2.0012,0.40492,-2.4572,0.41109,8.2782,-8.0512,
4.7475,1.0594,2.5084,3.9015,4.7717,15.4752,4.7864,7.2344,4.0508,0.62159,-7.8534,0.62739,1.7559,-5.3989,
3.4986,2.9238,7.6608,1.7394,4.0033,15.0289,5.4633,12.1027,4.2894,1.0665,-5.9361,1.0719,-4.6162,-1.7003,
6.1809,6.605,6.719,3.0811,2.317,14.1269,6.0996,10.8949,2.1041,1.9666,-4.1335,2.4536,-6.2672,-1.5985,
13.7643,5.4858,6.5568,4.1015,0.49079,12.0744,1.6362,10.0002,-2.6014,-2.2488,-7.5009,1.5835,-6.614,-2.2255,
18.964,2.5051,7.3687,1.6858,-1.7078,10.6266,-0.14916,11.5694,-2.6868,-4.2835,-7.7742,-1.645,-4.5304,0.55911,
11.0774,3.3189,4.5162,1.103,-3.0514,11.4355,1.7882,11.3574,-1.0791,-0.16985,-4.415,-3.4743,-4.2584,1.4897,
0.28967,4.0839,-0.093299,1.0366,0.023993,13.1593,0.71637,6.3374,0.43169,3.2146,-1.2583,-1.8198,-4.0031,-3.4202,
-0.45107,0.22342,0.6352,0.251,3.1556,13.5746,0.91435,-0.55081,2.5749,2.7807,-4.7982,-1.4696,0.33445,-8.7586,
4.1555,-0.51312,6.1409,4.3335,-1.1309,13.9656,4.9571,2.1336,3.1436,2.3727,-7.6436,-0.65831,2.4838,-4.6179,
4.8705,4.3384,7.7007,4.074,-2.5093,14.092,8.0341,11.1646,2.473,2.2308,-1.3999,2.7556,2.3347,-0.0020424,
0.72189,3.5957,1.936,-2.4374,1.4977,11.8002,5.6239,10.0128,3.2885,0.16829,1.0942,-3.1943,1.7127,-6.7508,
2.1248,0.48789,1.8198,-0.363,4.2999,12.538,4.8045,7.0014,3.0912,-0.80568,-2.8278,-8.7872,3.5382,-12.1304,
1.033,1.9049,4.1212,2.0694,2.1141,14.1963,4.9982,8.9919,-1.9145,-0.75734,-3.6225,-3.9216,3.8078,-8.9919,
0.97104,4.6826,3.3916,-0.46538,0.058633,12.8621,2.7701,8.4519,-2.282,1.6982,-1.4769,3.0621,1.1692,-2.6683,
6.2154,0.5453,2.2242,-6.704,-1.3907,5.8239,-3.1807,0.71445,-3.5909,0.15008,-9.1011,-0.97755,-3.7217,-3.4721,
12.1092,2.441,3.5368,-5.8196,0.62072,10.2949,-2.0258,1.1537,-4.8215,-1.7869,-13.3755,-1.4011,-3.0162,-4.2279,
7.5261,6.1507,2.8424,0.31395,-0.38062,19.3184,-0.45819,8.3151,-5.9787,-0.71558,-11.1269,2.0572,0.539,-1.5638,
1.7721,2.4074,1.7078,-1.1509,-1.3219,15.267,-2.3587,8.2984,-7.066,-1.6367,-9.9772,-0.9585,2.917,1.4223,
0.4607,-0.87027,2.3284,-8.5539,1.8907,11.6997,0.43372,4.1848,-0.13433,-1.7797,-3.8352,-4.9986,3.9471,0.13189,
-1.7366,-0.095153,2.4297,-6.8354,-0.39191,14.6127,-1.2795,7.5492,4.453,-0.46766,2.9029,-2.0471,2.9873,-0.11744,
2.7064,1.3568,0.83811,1.2875,-5.671,13.7364,-5.5411,13.8451,-0.15249,-3.3321,-2.5739,-0.47802,4.2544,2.7821,
7.3647,2.2397,-1.1404,1.6927,-4.3665,10.5021,-5.2082,12.0505,-4.4817,-6.9881,-11.5785,-3.3419,3.0348,2.1333,
1.8609,2.828,1.097,-1.5426,-1.4531,12.5228,-2.7267,11.5683,-1.0795,-4.3999,-8.2325,-2.9001,-3.1731,5.1385,
1.5086,4.3458,5.6107,-0.24499,-4.4992,15.3871,1.5345,15.4537,4.5287,1.4075,3.5899,5.2274,-1.2953,11.3379,
-0.028449,0.22843,-1.9566,-5.0508,-5.6757,11.0892,-3.8605,9.224,4.7391,-0.60494,5.3025,4.432,1.6748,4.3909,
-3.1598,2.3839,-5.4546,-6.435,0.6908,10.6653,-4.3518,1.6807,4.2138,0.15426,2.8151,1.9969,2.2972,-0.93377,
-4.4164,5.1334,0.65726,-4.6026,1.1313,11.9535,-2.6444,3.99,2.9971,1.5913,1.2004,2.3591,1.6774,0.086121,
0.18709,3.3793,6.4026,-2.398,0.099313,14.1286,-3.4498,10.0173,1.3708,1.0136,3.5383,0.77149,5.4334,1.0451,
1.8629,1.0072,3.8491,-2.4953,-0.62978,9.6652,-4.4479,1.9447,-3.7729,-1.2161,4.0491,0.484,5.3481,0.74115,
1.5101,4.0802,1.9309,-3.5509,-1.3153,2.5779,1.8445,-9.0182,-5.2338,0.54361,4.0472,3.1061,3.34,1.42,
-0.50868,-0.50335,2.297,-5.266,-0.2721,-4.8077,5.1078,-14.7441,-6.8479,1.9573,2.84,-4.7931,0.72947,-7.8242,
1.691,-6.0163,0.95434,-4.2267,2.8777,-11.5091,2.6327,-20.3669,-8.6062,-0.32934,3.393,-9.5667,-0.51913,-11.934,
5.4459,-2.7633,3.3072,-2.0449,6.0795,-13.2287,5.8492,-26.3758,-2.7872,0.17281,3.6713,1.6121,0.47588,-1.0951,
4.6372,-3.0794,4.0731,-1.9222,4.2685,-14.8451,5.0158,-35.398,1.7183,1.1263,0.55898,5.3718,-1.4809,0.41688,
6.046,-6.9922,5.0333,2.2902,6.6632,-16.1237,3.5098,-38.3361,3.7842,3.2277,7.5151,0.95189,-2.1151,0.15067,
4.7196,-7.5368,5.6959,4.5636,10.6024,-18.0486,2.3351,-42.7841,5.4856,1.106,16.2234,-0.068863,-6.3268,2.0701,
3.2309,-3.9513,0.77414,1.1561,6.8326,-18.1708,0.025625,-48.1715,4.4333,1.7628,13.5626,0.65794,-19.2038,-1.1879,
4.0014,-4.6781,-4.5745,2.533,1.6024,-22.3832,-2.868,-47.6913,2.721,5.0315,8.4105,0.61846,-25.2819,-3.5267,
-1.5416,-6.3258,-0.9258,9.1297,4.3985,-26.3426,-4.1424,-46.2759,7.3783,1.8373,11.762,1.0635,-9.665,-1.8691,
-8.6795,-5.9463,1.5399,7.618,7.991,-22.8338,-1.9652,-47.3557,8.8642,1.2451,14.4308,-2.3747,4.2917,-4.1671,
-6.9536,-0.045674,1.2067,6.9198,12.573,-15.4385,5.1424,-45.2375,4.2348,9.6059,11.8775,-2.9554,3.793,-7.0503,
-7.0186,-3.8995,-2.7223,6.0224,6.0338,-20.2965,3.3873,-45.8977,-6.6244,4.6914,1.5241,-6.1523,17.6655,-9.5196,
-0.33049,-5.5938,5.1543,11.4456,3.2616,-19.5607,3.1846,-42.1795,-8.1551,-0.41077,-0.49556,-3.855,30.7055,-5.092,
3.3043,0.28547,7.4961,9.5536,3.3069,-11.3976,6.1265,-40.3721,-11.2812,-2.5553,-5.0456,-5.3109,42.9632,-7.92,
6.9624,6.5349,4.1538,6.0883,8.4111,-4.4472,14.4356,-36.5035,-12.533,0.0081636,-6.1891,-6.4385,54.4854,-4.0703,
10.1601,1.0815,4.1456,5.964,11.04,-4.9033,13.3289,-35.5184,-11.5396,-0.23329,-2.6843,-5.8108,65.3163,4.1276,
5.6941,-2.3583,4.8607,5.6062,6.0388,-5.5734,3.8521,-35.3157,-11.8115,-0.70169,-1.077,-4.0163,75.4973,5.3262,
-0.67308,5.2555,2.4004,5.5108,-0.34909,-2.5875,2.4161,-28.617,-7.005,-0.90009,-1.2533,-1.1238,85.0675,2.3556,
3.4647,8.0737,3.4612,4.9391,-2.4973,-3.1551,2.0297,-20.8744,0.88707,-0.12319,-2.8653,1.1128,94.0634,3.9015,
11.2107,2.5273,7.3511,3.9197,-3.5525,-5.6171,-2.6716,-16.9707,3.4852,-1.3209,-2.9341,4.1793,102.5196,5.3544,
10.7793,-0.27564,1.8486,1.0332,-5.5088,-2.6288,-4.6802,-19.5678,2.0705,-4.8568,-0.10723,2.7235,91.4277,-0.51028,
3.8656,-2.1873,-6.4575,-3.8491,-8.0703,-0.060942,-7.7738,-22.2501,-0.46382,-1.6733,2.7917,-3.2245,81.1213,-4.3365,
-4.0791,-4.4662,-7.0339,-5.0644,-8.0685,-0.057286,-6.3435,-18.9869,-2.3642,3.7297,1.6599,-3.513,72.3977,0.7444,
-7.6908,-3.2339,-5.648,-0.90414,-3.2456,-0.053848,-1.6242,-13.9913,-3.6686,0.13148,-0.84983,2.4824,68.5357,4.5561,
-5.3011,-1.594,-3.3809,3.4884,2.7337,1.8776,1.8473,-10.2596,-2.9665,-1.3227,0.64742,4.7436,66.8337,2.8365,
-2.091,-3.9085,-0.76796,-2.5055,4.9798,-0.16327,3.6646,-12.0544,-5.1987,-0.27898,-0.35575,-1.808,59.4497,-0.70815,
0.20384,-4.3972,1.448,-6.9346,6.3685,2.0159,5.6142,-9.6436,-8.9839,-0.98537,-2.5033,-7.2429,46.4825,-0.9064,
1.8788,2.8566,1.1197,-0.97496,4.2992,10.813,4.0725,0.33498,-9.6501,-4.5417,-8.3791,-8.0132,32.8477,1.3171,
1.2839,6.0594,-2.8041,2.4578,0.66653,11.6103,1.8997,7.5455,-9.0714,-10.054,-17.0352,-8.9789,23.6458,1.7203,
2.4122,4.0086,-5.287,1.5874,-0.096365,8.2621,3.4729,3.9593,-7.8037,-10.6556,-18.1822,-9.645,20.0579,-0.5521,
4.4366,3.0452,0.091918,-2.6052,-0.33155,8.9717,2.0593,-2.3038,-4.6844,-3.5088,-13.9578,-10.2716,10.4187,-6.0626,
-0.16812,2.3803,4.9069,-4.3773,-4.1683,9.8794,1.454,-0.23718,3.3097,0.55838,-5.8897,-3.8705,-1.2938,-6.6629,
-2.8091,-0.896,1.479,1.9109,-4.1591,7.5994,0.16102,5.8026,11.5468,-0.19848,1.4531,6.2437,-8.2061,-0.72,
-2.3998,-2.0473,-3.1893,5.4119,-2.2226,7.3846,-4.4277,4.7313,9.6489,-0.42731,1.6071,2.7358,-15.6677,1.0107,
-0.5684,5.0656,-0.82852,1.9539,-2.8119,10.0748,-3.9208,4.2067,5.9367,0.32146,2.2338,-2.9722,-20.271,1.1912,
4.5274,7.8952,1.3908,0.63184,-5.7767,9.2294,0.8937,7.0873,5.3395,-0.90312,3.787,1.7859,-20.7415,1.3607,
8.1119,2.1186,1.3071,4.932,-4.466,4.3371,1.3222,7.1442,1.6445,-3.7412,0.18553,4.0886,-21.4254,0.7969,
4.4919,-1.6242,0.50557,1.5028,-2.993,2.3898,-3.819,2.1361,-6.4082,-3.7579,-4.8875,0.22813,-24.7194,3.4004,
2.2945,-1.0441,-1.4527,-3.4078,-3.7775,1.7643,-2.6253,-1.3663,-11.3256,-4.0142,-5.5579,-0.26726,-29.9849,4.1605,
3.3618,-0.74071,-4.0173,2.822,-3.3096,0.45336,1.6293,-1.0436,-9.9234,-6.4246,-4.9837,0.95338,-33.2478,3.6697,
-0.45551,-2.8657,-5.4633,2.8938,-3.8342,-3.6714,-1.6017,-4.5962,-10.5331,-9.6548,-4.9259,-1.7551,-40.1707,4.1726,
-1.3923,-3.6578,-4.1714,0.30986,-4.5682,-3.4509,-6.808,-6.2488,-11.8291,-7.629,-5.112,-2.1315,-49.3294,7.7789,
3.512,-2.474,-3.9211,3.6657,-2.3659,2.0588,-4.4713,-0.089313,-8.7092,-4.7612,-4.3234,-0.075455,-55.0468,6.3478,
7.1574,2.4949,-0.31163,5.8561,5.0066,0.48877,3.9914,0.88014,-4.8124,-1.5832,-2.6179,4.2672,-54.1543,1.1465,
9.6203,7.1657,6.4557,3.5763,8.5628,-0.98658,7.1266,-6.8854,-2.5952,4.7785,2.842,8.3497,-53.3154,0.59551,
7.1151,2.3972,1.7303,-0.97633,2.2643,-0.44522,1.8785,-9.8465,-0.9935,1.5995,1.225,7.8489,-59.2753,2.9701,
-3.4352,-4.4955,-8.9788,-3.3283,-4.1381,-1.3828,-5.465,-3.4714,0.51237,-2.3533,-5.115,7.8599,-61.0214,6.1664,
-10.7009,-3.0205,-8.1991,-1.4414,-5.577,-0.094574,-7.3063,-0.12962,5.0609,6.706,-1.1927,12.9319,-61.4575,10.3757,
-9.0947,-2.8395,-2.8867,1.0554,-5.7246,-1.5354,-7.832,-2.0498,9.0958,9.1959,1.7712,14.5664,-71.87,9.7534,
-1.0772,-2.4277,-1.0263,-1.659,-6.104,-1.6838,-6.1572,-0.72199,7.3448,1.6547,-2.9144,11.0413,-81.6578,5.0708,
8.3876,4.2257,5.0611,2.0557,-2.1226,2.9963,4.5763,0.52639,4.7352,2.7605,-0.08866,7.2451,-90.8584,-0.77728,
9.0897,5.6593,7.8909,5.5478,1.1383,0.64737,7.4352,-3.1204,0.35369,1.3896,3.0501,-0.17901,-93.963,-7.7201,
7.3388,5.0786,6.6939,4.9738,0.82877,-2.0428,3.3739,1.1642,0.5732,-0.86317,3.1083,-0.8914,-90.0127,-6.5342,
4.4883,1.8814,5.8103,4.1934,1.2614,2.9005,1.7252,2.5406,-0.42506,0.63488,3.4038,0.12596,-86.5401,-8.0703,
0.84455,-2.5698,4.9798,2.0136,3.1135,7.0648,3.5499,-1.9502,-2.3282,0.59678,5.1277,0.60033,-77.4913,-14.3345,
-4.7495,-6.0313,0.10146,0.68772,2.2035,2.5433,3.0957,-5.4488,-2.9116,0.80217,4.5789,4.6619,-71.6368,-11.3055,
-2.2954,-6.3923,4.6751,3.2975,2.7947,-1.2243,5.0796,-3.9166,-4.9056,2.4413,1.653,3.6593,-68.5434,-3.6373,
7.0014,-1.1881,12.5893,2.6178,5.0371,3.6695,8.1488,3.5493,-6.5395,1.8129,1.0719,3.9217,-68.2874,-1.0085,
8.7502,2.0165,5.8082,-2.1188,-0.32654,3.6905,2.1165,5.0233,-6.8707,-0.4653,-1.6437,9.7117,-72.1441,-1.1892,
10.3946,1.1723,-0.083695,1.1416,-3.9221,1.2997,-0.17989,4.9631,-0.91463,0.76768,-2.7501,13.2266,-70.4666,4.4255,
10.2531,-5.1647,-0.078903,-2.3012,-4.6509,0.25759,-2.5795,5.1475,-0.37759,-3.135,-6.4418,4.7204,-71.0591,7.5347,
6.5044,-5.0958,-3.2077,-8.1886,-4.1309,5.7857,-7.004,7.9717,-0.5959,-6.5623,-5.8143,3.2319,-68.4828,7.3236,
1.0527,1.7176,-7.5943,-3.1178,-6.0524,11.4644,-5.8606,12.5548,5.4652,-3.9992,0.56035,8.0994,-58.3482,6.161,
0.99,3.0608,-4.7285,0.44373,-4.243,9.3303,-2.6165,15.1764,8.9941,-1.8306,1.4911,3.2752,-50.9907,4.3451,
6.2328,4.8054,2.3037,3.3092,4.2063,7.8061,1.8789,16.1936,7.0082,1.6532,2.8474,-0.77774,-42.6289,2.1562,
7.3051,6.9276,1.684,3.1106,6.3645,6.3739,4.6586,8.9555,5.1414,1.554,4.1228,-0.73108,-35.2504,-3.7577,
7.3487,5.0657,2.5468,-1.4143,6.9465,3.0994,7.2712,0.70535,7.2435,0.49694,3.8754,1.241,-30.2431,-10.2807,
4.7384,0.6642,5.5273,-4.9451,9.181,2.1898,8.04,-0.0601,5.6034,-2.1847,5.8123,-1.0029,-26.7415,-12.7976,
-0.60736,-1.0631,7.847,-3.4434,9.3533,4.7098,10.6908,4.523,3.5802,-2.2943,8.5968,-4.076,-23.932,-14.1989,
-0.81165,-1.722,5.2067,-0.10304,4.2126,5.6327,6.4342,6.421,5.5343,0.9766,5.4297,-1.662,-25.1472,-7.8034,
-1.9685,-5.7163,-8.3623,-5.1588,-3.9942,-3.1412,-6.7265,3.384,1.1051,-0.76899,-3.8139,4.9454,-32.0742,4.4752,
-2.573,-4.1682,-10.5114,-5.09,-6.4058,-7.0503,-6.5637,5.8327,-2.0944,-3.8561,-5.2725,8.7463,-34.2471,6.858,
4.0886,1.6253,-0.48095,4.1333,-3.8521,1.3263,1.3017,15.3645,0.68211,-3.384,-2.3049,3.6415,-31.4696,0.90269,
6.977,-3.5337,-2.621,5.0903,-4.826,4.8623,-5.766,17.0939,-4.4203,-7.2781,-7.228,-4.5305,-34.6427,-2.2847,
7.5222,-3.8036,-3.9105,4.7849,-5.0189,6.9807,-9.2765,17.0322,-4.637,-7.3238,-6.7943,-1.3666,-35.9388,3.155,
6.348,3.4145,0.42196,4.2568,-5.4406,6.3209,-5.1044,19.1437,0.70291,-4.7152,-3.7356,-0.079298,-33.5413,3.2067,
1.6286,5.62,3.7709,1.5911,-1.2576,3.5318,-1.424,19.9235,-0.78575,-2.0219,-2.5469,-5.377,-27.1902,-1.8062,
-1.1207,1.6669,3.3036,-0.67355,1.9509,1.6322,-2.0619,15.1127,-4.354,-0.69533,-0.22539,-6.2596,-19.0513,-2.4212,
4.7311,2.5312,3.1054,1.2951,4.244,2.0166,0.47242,12.2777,2.1742,0.31025,2.6807,-2.992,-13.0876,0.61659,
6.3757,4.3077,1.955,0.25326,3.5076,4.7879,4.3007,12.5052,5.8999,-1.6363,0.59185,-5.2224,-13.2664,0.57982,
5.7524,2.3623,2.5608,-1.9309,2.0921,11.4903,2.3557,11.0317,6.2695,0.14931,2.2433,-5.1498,-10.301,0.30384,
0.58655,1.2562,0.47899,-6.1533,0.038395,8.8727,-4.5346,6.0315,9.2673,0.14035,4.0369,-3.395,-9.2008,-2.6065,
-7.4026,3.8317,-4.6117,-6.0258,-4.0615,-1.0599,-5.468,4.4641,10.3983,-0.10972,4.5178,-1.5043,-14.6748,-8.4763,
-8.1635,3.3611,0.24456,-3.0129,-3.0947,-2.2014,-2.0067,2.5092,9.0512,5.4407,2.5593,-2.1372,-13.0711,-9.1728,
-8.8788,-5.2765,2.3993,-9.3399,1.1881,-0.86424,-4.5376,-2.2208,8.7494,4.3911,-4.102,-5.1422,-8.1895,-10.3094,
-3.2846,-3.2729,-0.87794,-8.0563,5.2144,2.3213,-2.096,7.3127,7.5013,1.4763,-3.6146,-2.6643,-6.4931,-3.6651,
-1.1596,-1.1481,-5.1638,-4.1987,-2.329,3.1457,-2.9343,15.0684,0.30252,-2.9508,-5.3262,-0.09451,-11.8881,5.2317,
-5.9102,-5.8995,-11.1205,-9.249,-8.9378,2.4755,-9.0248,9.8264,1.2487,-6.6297,-6.9343,2.3217,-12.6206,7.8103,
-6.5197,-6.992,-13.3456,-11.5863,-1.1709,1.3624,-7.5192,10.6829,5.5119,-5.2683,-2.1802,3.1465,-9.4532,9.2697,
-6.6105,-5.6082,-7.2422,-8.963,-2.065,-2.5757,-4.1755,12.9339,-2.0492,-6.8804,-3.4952,-4.2731,-12.2605,4.3752,
1.9809,3.8874,5.2434,4.1083,-0.49479,4.3277,0.89527,16.4967,0.96579,-1.1649,2.981,-1.6061,-3.8119,2.1845,
1.6208,-0.92585,-3.0251,2.1743,-1.6702,-2.9221,-2.7741,10.9269,-3.1897,-4.7106,4.0072,-5.1254,-6.2347,-2.5266,
1.7648,-4.4855,-1.6381,-1.5713,-0.84683,-8.2901,-1.4021,5.6922,-8.0598,-6.115,3.0437,-8.4331,-9.958,2.6869,
0.45382,-1.565,4.486,-3.6464,1.8553,-8.5154,-2.5231,-6.4597,-4.4425,-3.0963,5.0304,-6.2401,-8.6371,3.7308,
-3.4298,2.3853,0.35996,-0.053184,7.0466,-11.8613,-2.8541,-17.1593,5.465,3.356,13.8877,-0.56304,-4.2627,-0.34946,
-8.5267,0.31395,-3.518,3.8064,9.9978,-15.4879,-0.27224,-19.0223,8.9935,7.011,18.839,4.291,-0.63253,-1.7748,
-7.5329,-3.0791,1.9955,3.0958,12.7726,-15.5228,-2.6663,-25.1115,12.31,6.5901,18.1908,1.6236,0.85145,-6.9707,
-6.84,-3.6177,5.0092,1.7048,12.7292,-21.0993,-8.0499,-37.7048,12.7763,5.9537,16.8579,-4.9817,-0.40493,-10.6503,
-9.8038,-1.4722,3.2626,0.63842,12.4476,-26.0997,-5.1566,-45.204,11.0461,8.9707,19.2211,2.0659,3.476,-4.2264,
-15.9647,-5.7225,-1.2717,-3.7384,9.7723,-32.7288,-4.3655,-48.2766,4.1166,5.0583,13.2469,5.3161,-1.5533,-6.8651,
-9.463,-5.1379,-1.9185,0.10152,9.9091,-28.5955,-3.3804,-45.6209,3.6284,5.9598,10.7651,4.2745,-7.9676,-9.5865,
-5.28,-5.0708,-4.4547,-1.1101,7.1452,-21.8188,-1.0082,-43.6068,5.0977,7.7712,10.8423,3.7768,-8.2129,-4.9142,
-7.855,-5.2487,-5.1515,-4.4173,12.5013,-22.9195,0.98073,-40.0261,3.8282,6.8232,13.0841,7.4068,-2.8994,4.5399,
-5.9377,-4.4517,0.46045,1.1502,15.6078,-26.3649,4.2961,-35.6963,3.1163,7.8603,12.7812,8.4085,-1.7611,5.714,
-2.9303,-5.3899,3.0839,5.6605,9.1273,-25.0239,6.2075,-36.688,2.6884,5.701,8.3989,4.2885,-3.3429,-2.583,
2.066,-3.62,2.4167,6.7673,10.0261,-20.1483,8.2454,-29.1841,2.5268,2.4666,5.4846,1.6209,-2.6602,-0.982,
5.3165,-2.9208,4.6823,8.7714,10.3884,-21.8314,8.2326,-20.6844,-2.927,1.8367,0.33529,-4.261,-1.0545,-3.8151,
5.4794,-1.2993,7.7754,10.1733,8.8013,-23.8962,7.2567,-27.1561,-7.0901,0.28025,-1.613,-10.7542,5.2755,-17.6862,
3.4634,1.4297,6.5859,9.322,12.8525,-23.1854,5.616,-34.9267,-4.9775,-1.9057,5.4732,-11.3138,12.9129,-17.7096,
3.4966,0.13865,5.4674,5.1472,15.2148,-15.7689,8.4121,-27.2877,-1.0634,1.824,13.0985,-2.1993,13.343,-2.5471,
1.1179,-3.4849,1.0423,-4.5618,4.4197,-8.3146,5.2565,-22.517,1.1698,4.8479,10.1437,3.9584,12.7836,-0.10459,
-6.421,-3.5167,-4.5639,-0.67271,2.9497,-4.6827,-3.0126,-19.4787,6.6432,2.3878,8.8122,4.4438,16.1139,0.14265,
-14.9538,-2.5828,-7.9055,5.8756,5.9058,-6.089,-5.9654,-11.3204,5.5212,0.075394,7.5601,2.9724,10.5676,5.6777,
-11.6462,-2.4276,-5.5032,1.6664,0.73094,-5.2415,-3.6795,-5.8207,2.2977,3.4451,1.804,5.2039,3.667,7.2655,
-4.4395,-3.4873,-5.4135,0.84356,-1.964,-5.168,-6.5917,-8.1225,3.3651,6.3719,-5.2941,6.5794,3.6882,5.1423,
-5.3785,-0.14455,-5.3301,5.3722,0.32299,-6.0632,-9.8116,-7.8764,1.9579,4.3023,-7.6275,4.4969,5.6358,6.521,
-1.9225,2.0331,1.9793,3.8448,0.54435,-3.53,-8.0179,-3.3064,-0.32895,2.3567,-8.3754,4.9502,7.4668,6.8524,
7.8338,-0.017119,4.7531,4.0961,1.476,-2.3543,-4.6443,-0.21553,-0.79115,2.2158,-11.7288,1.2792,9.4292,-1.7534,
15.3178,8.9022,4.7091,12.2867,6.9313,3.3308,5.0341,9.1974,-2.9126,3.7698,-9.3381,-3.377,14.4073,-5.7454,
13.1934,11.5016,6.1138,8.8979,5.3101,9.1565,11.24,13.2251,-4.907,1.3745,-6.6086,-7.7542,15.2301,-5.1597,
9.5095,0.20594,4.7824,2.0973,5.4732,9.0893,6.2271,10.021,-0.2745,-0.6364,-4.2841,-9.6993,17.6903,-2.4402,
12.7953,-4.1447,3.5316,1.9715,7.5554,7.0976,4.8891,8.9378,3.5984,0.36611,-1.6165,-7.6711,24.8238,-1.8118,
12.2686,-1.7269,5.0069,3.0585,5.8968,2.0925,8.2112,9.6066,1.2133,-1.825,-2.7248,-8.898,22.1293,-4.3542,
4.784,-1.1413,3.7426,1.9106,5.543,-3.8176,5.7903,7.1022,2.1048,-1.2336,-2.5613,-9.8099,13.0888,-6.5031,
-6.1083,-3.483,1.5894,-5.4348,4.2465,-4.5529,-1.7879,-1.5188,4.8706,1.7325,-1.4433,-7.2936,9.8931,-8.523,
-5.7418,-3.274,5.3504,-3.1806,2.0631,0.54052,-4.5727,0.018321,8.4347,5.003,2.0173,1.8211,14.6021,-4.1553,
-5.1563,-5.2472,1.8959,1.59,-0.22985,-3.1073,-6.9499,3.6326,6.7234,4.4619,1.6553,1.9528,11.5566,-5.1113,
-4.847,-3.0037,0.81831,1.4946,3.1589,-5.3306,-5.0866,-0.44147,5.8385,3.7122,-0.37178,-4.9128,8.9353,-6.2504,
-3.8328,-3.0644,2.4564,-1.2462,0.31777,-3.8059,-5.0224,-5.4767,1.3904,1.3203,-4.4473,-7.7515,9.6042,-5.6344,
0.49453,-3.1215,3.9963,1.4797,1.504,-2.3722,-4.962,1.8416,1.066,2.4459,-4.4214,-4.1529,12.1612,-3.6096,
3.5979,-2.2114,6.8895,3.5601,3.5825,-2.9533,0.39691,8.2386,0.76106,0.61195,-4.3971,-6.0734,14.5648,-6.5265,
10.6133,6.5984,9.3691,8.6491,2.886,-1.8117,6.6401,14.4934,-4.5873,-0.38864,-4.1333,-9.5649,17.5475,-4.2062,
14.5556,14.156,11.9398,16.5661,5.8461,-0.97991,6.4824,23.0236,-8.8915,1.3217,-5.5723,-7.304,18.6638,2.5539,
13.6822,9.4503,13.1516,13.6439,7.4236,3.8991,5.6115,22.6065,-4.9836,1.2424,-5.2379,-4.4557,18.0259,5.2927,
8.5228,-0.27554,8.0244,3.1841,3.6035,6.5575,6.7213,10.645,-0.82796,-0.76013,-2.9957,-5.6343,18.8726,3.0472,
3.1911,0.22293,1.7584,-0.3814,3.8696,1.3438,3.9075,-2.0452,1.1499,-1.1965,1.0404,-1.4399,20.6327,4.7925,
2.5177,0.69194,-2.2035,-1.3224,2.6731,-6.4496,0.78095,-8.671,0.59898,-0.64273,1.4604,5.8773,18.4307,10.7715,
6.2228,-3.2062,-1.1072,-4.6173,-3.2716,-6.5448,3.6264,-4.7765,0.080881,-1.0863,-2.4838,6.0069,14.4325,11.5717,
9.947,-0.84443,4.5026,-7.9559,-3.3165,-1.0907,6.0601,3.4641,1.763,0.18437,-3.0579,1.5489,15.2538,8.708,
7.1811,-1.0347,3.9915,-9.6477,0.015978,-3.1944,1.5992,2.0509,2.3806,-0.55005,-2.6335,-2.1595,13.1333,1.6776,
3.6167,-3.1423,0.13657,-7.3816,-4.0828,-7.5825,-4.0409,-0.72345,2.4783,-0.75802,-1.7526,-5.1634,9.2118,-5.8949,
1.2301,3.5538,-0.11259,-2.8414,-7.4532,-6.8866,-7.8958,3.4173,4.4987,-0.47157,-2.3703,-7.0228,8.4181,-5.7822,
0.67435,6.715,1.8224,1.1855,-2.1853,-3.5808,-5.9758,6.1046,5.1931,-0.92521,-2.71,-4.6732,7.9131,-4.9533,
2.8033,-0.19517,1.4718,1.8375,-3.2593,-2.6429,0.40856,4.0513,3.6765,-2.0748,-3.2706,-6.5617,6.2332,-12.6096,
4.3221,-4.281,2.5886,1.968,-6.6794,-3.6894,0.62479,2.1208,3.2147,-2.6739,-1.8693,-16.0504,8.0284,-19.3251,
2.135,-0.16779,5.3258,0.88606,-3.3861,-3.9499,-0.37657,1.9937,1.0941,-0.58478,-2.2391,-17.4975,10.9214,-18.6475,
6.104,1.0473,9.5857,-0.85411,1.3966,-1.0616,4.7075,5.4895,4.6436,1.6192,-3.7922,-5.1195,13.3993,-10.0568,
10.0766,3.3951,11.9031,1.6073,4.6872,5.2686,7.7995,10.4628,10.1496,-0.88804,-3.5642,0.49033,16.4518,4.5261,
5.1332,8.4936,5.8858,1.5108,5.3699,7.8445,2.0289,10.3167,2.3098,-2.281,-5.279,-1.4673,16.9105,11.9673,
5.7893,7.0199,5.051,0.93802,8.9043,6.8922,1.9074,9.2158,0.72516,-0.21574,-2.0699,3.9232,18.7883,10.7671,
7.3704,1.7782,7.1578,-0.56429,4.0315,3.104,3.239,8.6629,3.0915,-8.3977,-0.017329,0.79549,18.6251,7.2288,
8.6151,4.8047,4.0775,-1.2536,-2.2362,6.5334,-1.053,12.7228,0.25519,-11.5095,-0.25749,-6.2419,17.2667,10.4107,
9.5445,4.9989,0.45838,0.74984,-2.1015,9.9978,-1.4717,14.8515,-2.1702,-4.07,-1.6878,-2.4929,15.7487,12.6781,
11.1412,2.0476,0.67207,1.9099,-0.77039,9.1567,4.1604,14.2016,-0.35303,1.2356,-1.3458,-0.17441,17.9371,9.2661,
12.1597,4.5756,1.3544,0.59026,-0.48342,8.3666,6.0797,13.1083,-0.091115,1.4027,-1.0239,-3.7791,19.03,7.987,
9.502,6.2293,-1.6189,-0.40903,-0.93635,5.9364,1.8586,11.358,-0.085648,0.35419,-2.8906,-2.5885,15.96,9.9184,
-0.46815,0.79429,-6.5835,-2.0717,-8.352,3.893,-5.7248,9.9531,1.6067,-0.8719,-4.8864,-0.74598,11.387,10.5281,
-3.5736,-1.9049,-4.5012,-5.5628,-9.0562,4.3823,-6.1046,13.9352,4.1614,1.8315,-3.3883,-4.7986,12.8729,7.2453,
6.523,2.307,1.3127,-1.1319,3.7795,3.3962,0.28742,17.6791,7.5274,2.9267,-1.4976,-7.6439,18.6083,-0.66143,
8.0598,3.6148,-0.21232,3.2748,2.1069,2.7105,-0.69369,14.6902,5.6299,-3.9974,-2.3721,-9.1135,15.5638,-7.8521,
2.5148,2.1924,-1.4051,-1.9836,-6.9378,9.0556,-4.2677,10.675,1.6765,-8.8194,-1.5066,-11.7002,10.5322,-7.1403,
2.1227,2.784,1.8129,-4.5159,-3.8702,9.2354,-4.2524,9.7938,1.8166,-8.531,-2.1393,-12.6854,9.1773,3.1703,
10.4315,5.7504,2.427,1.781,-0.98642,5.0658,0.58203,11.3753,0.020868,-9.7064,-3.2158,-10.719,8.8679,7.0775,
14.3849,6.1283,4.4506,3.3614,-4.0607,6.4491,5.6088,9.9694,-2.6319,-16.5958,0.11016,-15.1375,10.0228,-2.2653,
7.496,-0.74665,5.3886,-2.8661,-4.0583,4.3747,3.1029,5.7561,-0.78657,-18.7335,2.2729,-20.2548,13.5188,-8.6371,
4.3954,-1.9069,4.8246,-4.3811,0.2828,0.015105,3.6398,7.5801,7.2141,-5.7989,5.7518,-11.0855,22.1079,-2.575,
5.0958,-2.2747,4.0529,-6.5286,-0.69826,0.01397,4.3855,8.5713,9.1916,-1.1124,6.3712,-3.6717,23.1918,-2.4203,
3.1023,-4.3078,2.1225,-9.2704,2.9591,3.6286,0.50699,8.298,3.5785,-2.7334,1.4092,-6.5849,19.1487,-5.409,
0.74703,-3.8079,0.30794,-8.4732,3.9863,5.58,-3.6208,11.8975,-0.25166,5.3848,-0.84452,-4.9848,17.7588,-1.951,
0.2205,-2.6153,1.2536,-6.5183,-5.4116,4.2811,-4.8496,11.1839,-0.71826,6.0258,-1.276,-3.7211,16.6935,-2.798,
0.68944,0.91581,3.1068,-4.6812,-3.1585,6.4346,-3.5945,8.5849,3.6634,-2.5307,-2.1636,-4.4622,17.1379,-3.1118,
-0.79842,-1.5495,-2.8644,-8.7388,-0.077177,7.0126,-5.3073,11.9259,4.8896,-6.2354,-3.9622,-6.6048,14.1812,-0.51522,
-3.643,-4.831,-7.0314,-11.107,-7.3034,4.6637,-4.0249,13.1386,2.1856,-4.8974,-7.5808,-9.583,12.366,-0.96624,
-2.4601,0.76198,-2.7526,-5.6199,-4.4546,7.7583,-2.8187,8.9758,4.4651,-4.1212,-5.6797,-10.4538,15.4809,0.538,
-2.0713,-0.0068661,-7.167,-7.934,-3.4642,8.9798,-6.2652,6.7503,2.5102,-7.0072,-2.6876,-14.4061,13.8289,-2.1456,
-7.7316,-6.2734,-10.1114,-10.832,-7.5947,6.5128,-6.8532,12.1298,-2.9431,-10.9251,-5.4184,-16.9162,8.6609,-4.9089,
-15.2215,-5.6561,-6.8532,-9.4592,-7.3799,4.4348,-7.1653,14.5355,-4.4537,-14.3669,-11.6012,-14.6961,6.9359,-3.4096,
-11.8985,-2.4246,-6.4425,-15.1586,-6.4557,7.5432,-8.6636,12.2167,-3.7046,-12.0591,-12.8334,-11.8864,7.4837,-3.6874,
-2.7485,-3.9659,-9.1889,-17.3823,-5.345,13.1161,-5.0103,10.7608,-4.2052,-8.2021,-7.0017,-9.9679,12.0963,1.1136,
-0.41394,-5.4152,-6.9504,-10.7955,-5.2652,10.16,1.3159,10.8385,-3.23,-6.5047,-1.5199,-6.2364,14.0221,9.001,
-3.2814,-5.5724,-0.74854,-9.1837,-5.9134,0.39161,-1.1734,6.3316,-0.14388,-4.1864,1.9455,-2.9699,11.2523,10.3889,
0.28926,-5.2383,-0.70386,-10.5611,-3.6307,-0.11405,-5.9235,1.1312,1.7927,1.8491,3.2748,0.5823,10.095,11.6935,
-3.1021,-5.8879,-4.518,-14.7479,-2.4485,2.7853,-7.0144,-7.1314,1.2032,1.2562,2.5964,1.9941,8.0435,13.4025,
-10.1468,-4.0884,-2.3187,-14.8274,-5.1941,-4.1307,-3.219,-14.8987,2.0949,-2.1936,2.9225,-0.53638,6.1142,7.7776,
-2.0664,0.25452,4.3281,-3.0915,1.6253,-9.9086,0.10735,-16.6558,3.6567,1.5537,7.3267,-4.6013,10.8093,2.7315,
7.4578,1.4443,6.7197,5.5299,11.4099,-7.6271,3.2342,-19.7541,3.6785,2.1836,8.0922,-8.4228,13.294,-0.083749,
8.2154,2.0808,5.5934,3.5111,8.0744,-4.0358,9.5478,-26.0404,1.7707,0.36557,6.8835,-7.6763,11.7732,-2.2477,
6.2767,2.9198,5.7397,3.3005,9.0358,-5.2399,10.4212,-30.7447,-0.74608,0.34364,9.363,-4.3234,13.9593,-0.1846,
5.9001,1.2988,6.8416,6.9588,13.7963,-9.2638,8.3497,-33.2384,-1.6652,-1.1232,11.6933,-6.9563,14.0856,0.30841,
4.5817,1.7028,4.021,3.6492,8.1482,-9.6719,7.3668,-33.1723,0.84485,-3.466,9.064,-10.3953,10.8304,1.2542,
-3.1654,-3.461,-4.1745,-4.042,1.6333,-13.1894,4.2732,-36.2438,-1.3755,-4.9457,3.9399,-6.6385,5.6008,5.7583,
-7.0724,-8.315,-1.7548,-1.1479,5.1508,-13.6033,5.704,-38.1666,0.39476,0.89465,5.8731,3.6419,6.47,11.9202,
-10.9866,-6.852,0.27888,-0.59688,3.8776,-12.7869,8.2541,-37.8048,0.85277,2.7694,6.4849,4.3875,7.0459,8.7951,
-9.3635,-4.9947,-6.0044,-5.3818,0.27051,-9.1276,4.8668,-28.7876,-2.0905,-2.2175,2.7213,-2.6244,6.1412,11.6414,
0.83969,-3.2487,-6.6084,-1.6844,4.5931,5.3998,3.6109,-14.0449,-3.4113,-1.1201,3.5224,2.8357,12.0393,23.9584,
0.066181,-4.7413,-1.6324,-1.3426,3.5943,6.7628,6.5275,-15.8538,-8.2681,-0.81216,1.6236,3.3885,11.0762,17.4594,
-4.0351,0.12297,8.3479,-1.0206,6.5122,1.2958,12.6433,-23.8201,-5.6028,2.3701,-0.16108,-3.8043,10.1707,5.566,
-4.034,1.8028,7.1237,-1.6825,11.1827,0.49472,12.6081,-24.0782,-0.6869,1.505,-0.39238,-7.1914,9.8014,0.1704,
-5.4794,-2.4029,-1.7396,-4.7151,6.8965,-0.2581,6.7897,-21.4286,-2.3331,-6.5393,1.3182,-8.4474,10.4184,-4.9017,
-5.8736,-2.0178,-4.2863,-4.1912,-0.50715,-1.9298,3.2493,-20.3836,-2.9161,-8.798,2.4444,-11.0738,12.4444,-4.8486,
-1.665,-1.4146,0.30938,0.39883,-0.47649,1.0787,4.0184,-16.7503,-4.1871,-7.3061,-1.0765,-11.8554,11.216,1.2271,
2.0506,-1.5704,0.049624,1.58,-0.6891,4.6292,3.5361,-9.2378,-7.0696,-10.4829,-3.1809,-12.3492,8.8556,3.8048,
1.6861,-2.1996,-5.015,-2.1303,-4.2632,4.1105,-3.6659,-4.5862,-4.4763,-11.0592,-1.7852,-12.8135,8.5652,4.7814,
-0.58376,-2.3086,-5.437,-3.2073,-6.1765,9.8894,-8.0252,-4.5517,-2.0381,-6.2983,-1.4371,-6.983,7.3284,12.4487,
-1.754,-2.411,-4.8698,-2.7739,-5.565,15.8039,-3.4464,0.30067,-6.0131,-4.2332,-1.1099,1.8719,4.2376,21.1018,
-4.5413,-3.7126,-6.5058,-7.9101,-4.7487,15.3376,-0.829,3.6571,-5.1704,-4.4611,0.40295,2.2417,4.9472,17.9075,
-12.4635,-5.9,-9.008,-17.0764,-8.3206,11.5249,-4.6361,-3.311,-1.0038,-7.086,-1.0675,-5.6058,5.6147,4.7815,
-14.1261,-2.6537,-7.5034,-14.6058,-3.0009,16.1358,-6.2859,-4.0767,-2.3901,-0.39408,-0.52128,-4.3053,7.2058,3.5305,
-9.4219,-1.0484,-2.2323,-6.0165,7.7847,21.4348,-2.5341,5.8093,-1.764,9.7527,-1.4541,4.1481,5.3274,9.1035,
-8.1337,-4.119,-0.41158,-6.8608,5.148,18.9435,-0.21332,11.968,1.9568,2.6596,-3.536,0.28361,3.3205,3.4956,
-11.0201,-5.3177,-3.7613,-11.2696,-2.3917,13.4681,-3.575,8.8398,2.3213,-10.033,-1.3957,-10.3385,6.0134,-4.4269,
-9.8767,-4.5169,-4.0174,-10.1115,0.16212,11.214,-1.914,6.3812,2.6642,-7.5031,3.0266,-10.6825,4.2065,-3.1972,
-9.2841,-2.7996,-2.3305,-10.4689,0.1524,11.9874,-0.83528,6.9625,4.9144,-4.1604,4.2908,-6.1849,-2.7948,-3.0054,
-9.2093,-0.2213,0.21967,-8.8767,-6.6054,9.8217,-2.7136,7.0266,3.6555,-6.3211,2.1054,-9.1885,-6.9656,-7.6455,
-3.3543,-1.6541,-0.27522,-1.5952,-10.0657,5.8581,-2.5505,5.159,0.54387,-5.4597,0.050672,-13.4575,-7.0294,-6.7047,
-0.01954,-2.2782,-1.9459,3.0798,-4.4001,7.6758,-2.1565,4.1263,2.1985,-1.5171,0.77099,-12.409,-6.3667,-5.5795,
-3.1516,0.50984,1.786,1.208,-2.9306,8.9027,-4.678,5.566,0.37956,-3.1131,-1.9266,-9.0129,-8.1536,-5.4854,
4.0273,1.6845,7.2225,4.269,-2.9962,11.502,-3.1925,14.632,-2.7767,-1.2391,-3.0163,-2.9288,-3.0851,7.1357,
7.4011,-0.10375,3.1737,2.3257,-1.1292,12.9811,-3.2419,16.8876,-2.8511,0.040557,-1.1481,-0.10173,3.608,16.59,
-6.2996,1.1075,-3.042,-7.2141,0.14365,10.9971,-11.4833,8.4023,-1.9569,-1.1669,0.60826,-2.2648,5.5604,13.4252,
-17.2498,-0.64614,-5.0291,-13.2887,2.7866,10.0963,-7.6608,1.3907,-4.0086,-3.2661,-0.63353,-0.44168,7.3959,13.3426,
-9.4659,-0.60738,-0.38861,-7.1888,9.8502,16.7214,3.4041,3.7176,-5.2144,-2.5882,-0.59552,4.8875,17.0755,18.3266,
-8.4162,1.3575,1.0807,-7.7218,10.2233,16.1998,0.78952,4.9406,-7.3119,-3.3972,-3.4521,2.6658,15.0869,11.9246,
-13.9368,3.4452,-2.1176,-11.3558,7.4408,11.6124,-1.9094,6.8133,-1.8115,-2.9522,-3.9679,-0.62741,5.7456,0.84526,
-14.7878,2.5151,-6.5698,-8.5053,4.8247,9.7104,-3.964,6.1633,3.8408,-2.0522,-1.0787,-3.7232,3.7136,-6.6777,
-15.3468,-1.9741,-8.1038,-9.9232,0.67882,6.7176,-7.5825,1.4552,5.5386,0.4811,1.8781,-5.428,7.3472,-8.6872,
-16.8359,-6.1942,-10.9923,-16.0765,-4.1824,1.4941,-7.6098,-1.5244,5.206,1.8987,1.7656,-4.6202,3.5321,-5.2737,
-11.9696,-2.4479,-6.9581,-12.2196,-2.9674,1.8866,-1.8508,1.9413,4.412,1.3026,1.6595,-2.897,2.3561,-3.9931,
-3.0562,-0.85519,0.69026,-6.6659,-1.3431,1.7734,-2.2216,2.307,-0.19153,-0.70372,-0.36829,-4.1692,3.1786,-6.6456,
4.3575,1.1243,0.16645,-5.3019,-3.6726,4.5591,-4.4985,6.0252,-5.0003,-2.5897,-1.792,-4.8831,1.5421,-0.4623,
9.3987,4.9132,-5.1462,-1.6095,-9.7192,10.0701,-3.7466,14.8222,-6.6285,-7.255,-5.0589,-5.0723,-3.3712,7.7601,
11.7273,7.9934,-3.8731,5.2359,-9.618,12.3584,0.33501,22.61,-6.7127,-8.2655,-10.54,-2.8395,-5.0971,8.2589,
7.4082,6.3085,-5.3279,5.6447,-5.4255,8.9658,-2.3366,21.4944,-7.9972,-5.6004,-10.1485,0.94603,-4.0679,9.4506,
5.7585,5.6885,-2.8391,1.6906,-2.9308,8.6684,-5.8119,14.6611,-1.4918,-1.167,-1.104,6.4327,1.2374,14.9086,
2.2797,-2.6063,-2.4275,-5.4005,-5.8882,6.9437,-5.222,5.8279,2.2129,-4.2303,-1.7608,4.8419,-0.041908,9.917,
-1.9547,-4.6193,-5.4156,-7.2459,-4.8122,5.8035,-1.7758,5.719,0.39314,-3.2538,-3.3422,1.4179,3.0939,4.7424,
-5.2116,-0.0035983,-3.6442,-6.8109,1.2613,1.5991,-1.1871,8.7501,-2.5227,-0.16582,-0.24937,-2.5236,8.2106,2.5295,
-3.9348,-0.96748,-1.0152,-9.2945,1.1858,-2.353,-6.4183,5.3332,-1.8892,-4.9766,-0.23418,-7.6746,3.8619,-6.7811,
4.7374,-0.66846,-0.7133,-7.5318,-1.5364,5.26,-4.8279,3.8079,-1.5349,-5.4011,0.9847,-4.0809,4.353,-7.5791,
5.1761,-3.2794,-4.2859,-1.536,-1.6856,9.0417,0.041039,7.6768,-5.0582,-1.9436,-1.7255,-3.1129,11.0817,-3.5094,
0.28575,-2.8417,-4.7517,-0.72097,-2.7893,4.8838,-3.0949,13.7237,-6.4419,-6.4067,-7.6479,-8.4697,6.8014,-3.5398,
3.8843,5.7642,-0.36944,-1.4008,-4.3094,5.3135,-5.0781,16.9978,-3.8865,-9.6375,-5.984,-6.7565,-0.11439,-1.6404,
5.5794,6.3832,-3.2393,-1.7987,-5.9786,4.9951,-4.2915,12.604,-4.6172,-7.613,-4.6606,-1.0484,-0.58946,0.86862,
5.2449,1.6616,-5.9373,-0.24477,-7.0664,3.2494,-4.5162,10.8832,-6.2681,-4.2639,-8.7196,-0.98554,-0.071926,0.81673,
7.5815,2.767,-2.9297,-2.8814,-4.9549,2.3313,-4.486,12.3996,-7.5795,-9.0695,-10.3653,-8.8801,0.17313,-0.43734,
1.3418,-0.77325,-9.0207,-12.8314,-3.2116,-1.6652,-4.699,4.9069,-8.5707,-17.6844,-9.2612,-12.6857,2.0912,-5.714,
-2.3544,-4.3425,-6.3105,-8.4463,3.0064,0.60409,-0.80184,5.3356,2.3076,-7.2236,-1.234,0.36754,12.8117,-4.1661,
-5.8283,-4.8051,-2.7986,-7.2164,1.139,-1.6015,-4.3689,5.2562,4.8205,4.5381,-0.9192,3.4787,16.6225,-3.193,
-5.4786,-0.6604,-6.4866,-10.1577,0.10636,-1.5055,-2.1786,5.9052,2.603,9.0865,-2.3099,-1.0685,12.7327,-2.0371,
-5.873,-1.3439,-7.3029,-11.2354,1.305,-0.21007,0.12152,8.6841,3.6519,4.9256,2.8902,1.6469,8.8354,-3.1204,
-6.2438,-5.3604,-1.8029,-10.3203,-1.4241,-2.3664,-4.4653,12.2607,3.1916,2.9431,6.332,6.6098,9.5104,-3.6558,
-3.9409,-0.70045,-0.24889,-3.9165,-2.7849,-1.2605,0.14095,15.3814,1.0719,7.5868,1.1318,3.3207,9.9041,-1.9907,
-4.4276,0.064709,-2.8853,-1.9943,-4.3053,2.9127,-0.10871,15.1817,-3.09,5.4446,-5.4438,-3.3863,2.3202,-5.4864,
-0.30557,-3.3136,1.6266,-1.8747,-3.5646,6.5943,-4.9224,19.573,-3.3865,0.77958,-1.2608,1.6376,1.6986,-2.7471,
2.3643,-2.8738,1.77,-4.8954,-7.93,0.65503,-6.3143,17.6757,-4.8701,-5.2927,-1.9081,2.2625,2.32,-0.89505,
5.5964,1.155,-4.1213,-4.1198,-11.793,2.5435,-6.4179,14.6869,-1.6863,-8.3501,-3.2403,-0.28385,-2.1579,2.0507,
5.9838,-1.5656,-6.5248,-4.1138,-8.4341,11.3092,-12.0581,19.3491,1.5486,-8.5718,2.016,3.8305,-2.2692,7.9534,
-1.847,-2.677,-7.8206,-8.9282,-10.0972,8.4614,-15.432,24.6961,3.1429,-7.3346,6.9563,10.5906,1.9643,13.0199,
-3.664,-1.0701,-7.3513,-6.4645,-9.4914,0.24098,-11.1316,22.25,2.9543,-4.002,4.1288,10.4375,6.1848,10.3105,
0.41227,-4.3804,-1.1257,-1.7381,-0.72717,0.22652,-6.6073,14.6485,-2.0436,-1.3517,-1.9035,4.9906,6.778,1.4971,
-0.094628,-4.5992,0.86982,-5.9724,2.2087,5.5153,-2.3547,8.4672,-3.849,3.5499,-3.7173,4.6911,7.3354,-0.039185,
-4.4275,0.014797,-4.0028,-11.3986,1.1121,5.6666,2.1251,5.5488,2.6487,7.6754,0.36192,9.2301,10.7515,5.266,
-6.8129,1.2192,-5.4494,-9.5094,3.2146,5.0856,-1.1354,8.3493,2.7308,6.492,1.5455,8.9175,9.3835,6.6373,
-5.9222,1.1461,-1.2661,-0.7439,-0.8347,6.2267,-3.4779,16.5255,0.15678,4.6562,3.381,5.4902,7.3747,1.4184,
-2.9158,0.83632,-1.9135,3.88,-8.2564,4.6479,-4.4745,17.2207,1.3522,4.1359,2.4547,4.9196,5.7269,-6.6205,
-2.0177,5.8476,-1.0755,1.96,-3.1815,2.6815,-3.9648,12.0899,1.5123,5.5747,-0.8258,4.8654,3.2139,-10.3208,
-3.3427,7.4252,5.2557,0.39636,0.86598,2.0389,-1.3166,9.9185,-0.50689,4.7581,0.67024,5.5376,1.575,-5.363,
-1.9371,-0.97432,1.3252,-2.2785,-6.1756,-2.6629,-4.8528,7.1544,-3.1273,-1.0708,-0.57504,6.4106,-1.6527,-1.4256,
3.2408,-1.1568,-3.816,-2.383,-6.5284,-0.81592,-9.1414,8.8943,-3.6631,-0.76557,-3.674,9.6414,-2.7589,1.793,
-0.56881,0.11764,-5.756,-6.3374,-5.4136,-1.0082,-11.2442,11.4939,-10.4329,-0.47844,-6.1049,4.9653,-7.1729,3.3728,
-2.9453,0.11059,-3.9648,-3.547,-5.0888,-0.46574,-3.8206,13.6963,-11.7351,3.4067,3.4204,9.0057,-5.7782,10.8832,
-2.7685,0.10395,-6.137,1.4865,-2.8553,1.4909,1.2288,11.9107,-4.7645,6.0948,10.928,20.5169,-0.12882,19.8712,
-4.5309,-1.8307,-4.3228,1.3969,5.0286,-1.4913,1.6373,3.0011,-0.62249,2.3544,10.754,20.2495,2.2888,18.1968,
-3.7768,-2.685,-1.1711,-0.13296,10.9936,-5.7404,3.9494,-7.784,0.37942,0.76711,15.4116,10.8401,4.5618,8.91,
-3.7912,-1.3186,-2.3057,-1.3298,9.1292,-13.3497,3.9534,-21.417,2.0439,2.4083,16.6561,4.6461,5.4934,-2.4704,
-4.0459,0.68896,2.1707,2.6061,8.0993,-19.2974,1.7878,-27.9654,5.7774,4.6737,15.657,4.3673,7.0918,-9.5532,
-1.8749,1.1296,4.933,5.8242,9.5415,-19.1034,1.1986,-26.2875,4.4669,4.3933,13.7532,1.213,6.6663,-11.3902,
-1.7624,1.0618,0.78064,6.4389,9.9333,-17.9572,4.0192,-25.1922,1.3064,3.1658,10.9998,0.17611,3.8562,-8.7785,
-3.1027,0.51592,-2.1585,12.8012,6.927,-17.362,4.7421,-25.1269,1.7101,2.9756,10.3401,3.0581,4.107,-4.3957,
1.4218,0.48496,-0.10079,14.9256,5.0651,-17.7665,4.4576,-23.6193,-2.2489,4.2434,7.3091,-0.50011,2.8962,-7.024,
6.3984,2.1433,1.5923,10.8969,5.4843,-18.3875,6.8415,-17.1402,-8.1397,2.3018,-1.5654,-0.71107,0.55351,-7.8076,
5.0501,4.9068,-0.9134,11.6888,1.2989,-16.3204,6.9129,-13.7017,-14.3998,-2.1747,-11.1124,4.6342,-1.8903,-3.4828,
6.1932,2.6844,0.1055,14.3622,-4.5639,-12.9308,0.23139,-16.7362,-20.7668,-3.4907,-13.8199,1.9458,-8.5255,-0.38152,
15.2218,0.83589,2.7505,16.1518,-3.0845,-9.5036,-0.98755,-14.0446,-15.9052,3.2265,-4.5548,4.9623,-2.9526,10.4874,
10.4519,-0.66029,-1.7531,8.9159,2.8849,-11.3438,-1.4105,-14.6484,-7.7203,3.0331,1.5033,11.4137,5.4195,11.3046,
1.63,-1.1026,-5.0224,3.0783,6.5682,-9.6988,0.12042,-14.7334,-3.4007,-0.041387,2.8589,8.8003,3.6481,-0.46086,
-2.3241,-5.3752,-5.6849,1.4474,2.3177,-5.2605,2.0414,-11.9212,-2.2323,-2.931,5.5799,1.0419,3.4292,-6.2182,
-7.0052,-4.5706,-1.9696,4.2528,4.589,-1.5707,2.883,-10.7237,5.6142,-0.82714,11.0299,6.7637,13.3466,2.3502,
-13.3335,-1.404,-0.8873,5.9261,8.1698,-7.2612,-1.6285,-12.9728,9.6159,5.4892,11.3317,12.6246,10.6178,6.0654,
-9.1593,-1.802,-1.3162,8.4628,6.2336,-7.3073,-0.084783,-6.8918,7.5929,13.8367,10.1701,14.2775,1.3034,4.255,
-5.4763,-3.3806,-1.9601,9.6423,3.2085,2.0492,5.4639,-0.93469,4.4858,9.3911,2.5701,13.6618,1.4667,2.7948,
-8.2812,0.91959,-1.1196,6.8941,3.7389,2.6492,4.4132,-3.5302,0.11927,1.3558,-4.0921,9.2267,1.6196,0.93992,
-7.7843,1.8283,-2.0163,7.4448,4.4789,-5.7045,0.77394,-6.6923,-4.7081,4.167,-4.8104,4.8167,-2.3339,-5.8649,
2.5645,2.4417,-0.20835,13.0234,2.0408,-2.7113,1.9326,-4.1219,-5.1492,7.0503,-5.2449,4.7684,-1.9532,-10.5749,
9.6419,6.1516,6.5531,12.7244,0.47251,3.2364,5.1911,-2.4283,-7.7323,0.84266,-10.2324,4.9647,-2.7998,-12.3506,
6.8942,6.5054,4.9546,7.8636,-0.76113,-0.57322,4.1567,-0.11344,-13.2939,-5.7158,-13.7163,3.9435,-2.3909,-10.8866,
5.0341,2.2589,-1.6094,4.9814,-2.6439,0.42527,-2.3594,5.6782,-14.4247,-6.8189,-12.4111,0.81458,-1.2833,-3.9667,
7.8655,4.293,-1.7538,3.9596,-0.79802,8.3535,-3.9051,7.5066,-13.7998,-6.1684,-12.8713,4.3816,-2.8931,1.333,
3.7784,6.6863,-2.8537,-0.85747,-0.027013,10.0212,-2.4657,6.815,-15.6236,-5.5575,-14.2684,11.5903,-2.4788,0.52988,
-3.4382,5.0803,-3.4054,-1.5294,-0.26636,10.6252,-0.14863,10.504,-9.6245,-2.573,-9.7969,15.9565,4.1774,1.2214,
-4.6781,5.7393,-1.7548,1.9368,-4.5887,9.9877,1.3065,11.32,1.5583,-1.4543,-2.4606,13.5529,5.8554,-0.78003,
-2.2283,4.6716,-1.409,-0.34853,-4.0729,4.3268,2.9154,7.5068,4.1159,-1.6084,1.3024,9.6062,2.8526,-7.7236,
-1.6124,0.53515,-0.35988,-2.738,1.4744,-0.27092,0.81249,8.5029,3.8692,0.89888,0.74211,10.9583,2.1992,-11.5982,
-2.7208,-0.22009,4.7232,3.4521,5.0016,3.8429,-1.8876,13.0542,9.6628,10.7267,4.3132,19.7005,5.201,-5.8409,
-4.7269,-2.8582,2.7523,7.3421,5.4241,2.8888,-0.087327,10.5835,8.8414,15.1445,4.2952,21.1698,4.1653,-4.7673,
-4.2021,0.92848,-0.064147,4.2502,1.0011,0.5465,-0.80522,7.7795,0.83931,11.1026,0.90421,15.8021,1.2641,-2.3123,
-4.9141,3.7651,-1.9883,2.0673,-6.2896,1.4778,-7.5056,10.2051,-7.406,5.6159,-4.9349,17.2643,-3.6322,4.5755,
-4.8602,-2.9683,0.30019,5.0767,-4.7069,0.18384,-5.85,11.28,-8.1665,2.6279,-8.7357,22.2544,-5.1011,5.9882,
-2.8816,-4.4772,4.8617,4.5309,-0.3269,-0.55032,1.9726,5.0598,-7.4357,-0.66304,-13.2734,16.8216,-0.69787,-1.3612,
-1.0215,3.7452,4.811,4.5,1.3795,1.1699,5.4697,-0.78786,-12.0513,-1.3466,-15.6105,12.1964,3.9233,-3.4487,
-2.6472,0.86912,-0.057211,4.9531,3.948,-5.8899,0.56199,-5.3196,-15.9075,-0.54269,-13.4684,12.6702,2.4833,-3.9649,
-1.2835,-1.3522,-0.77668,2.9687,9.2548,-10.5982,1.2512,-5.2419,-9.8916,0.21277,-4.2246,16.0073,3.5391,-5.8961,
-4.5809,0.65714,0.23379,-0.10145,6.2894,-9.9623,2.6224,-5.8912,-1.5853,3.5745,3.2597,17.457,5.255,-6.0243,
-9.6085,-1.3107,-4.1188,-0.095596,-2.7649,-8.8824,-1.3911,-7.9481,3.8127,9.1448,9.8128,18.338,3.9756,-5.1807,
-2.7655,1.1785,-3.3893,3.2846,-0.67079,-2.5649,-2.7539,-4.5787,10.8148,13.4164,15.973,20.6122,4.7014,-3.906,
-2.1174,-0.33869,-1.7399,0.19523,-1.5946,-1.4469,-4.5171,0.51649,10.1656,7.7909,8.2655,17.9289,0.56267,-3.6714,
-2.4723,-1.2822,-0.67162,5.9681,-2.4633,1.0501,-0.87164,6.752,7.1456,8.7697,0.53914,21.192,0.52891,2.3335,
-5.2165,-2.1696,-4.0053,6.5739,-1.3512,0.50511,0.62692,3.4548,1.4142,9.6898,-2.8677,17.5099,-1.913,-0.21712,
-2.0112,0.85284,-2.319,5.6977,0.65787,0.95697,-1.8211,1.8011,1.8115,5.2518,-1.7315,15.9776,-1.7984,-0.20386,
1.7251,-0.88532,-4.3492,6.5609,-8.7814,-5.1262,-9.1834,1.4522,0.97969,-1.571,-4.7609,18.1522,-6.752,0.049109,
7.165,0.85525,-5.2933,10.7468,-10.4239,-4.5775,-6.9454,4.9803,-4.1405,-1.7175,-9.5367,16.3399,-7.07,-0.19457,
5.53,1.5266,-1.8425,8.8969,-6.1828,-2.1339,-0.50287,2.9945,-13.7743,0.072536,-15.9546,5.9593,-5.9226,-6.6906,
1.5828,-2.6623,1.4016,6.1935,-7.9815,-7.5495,2.1784,-0.8006,-16.5632,-0.17278,-14.7563,1.0225,-6.2902,-15.2072,
6.3083,-2.0204,-1.0929,5.8221,-9.4305,-5.1681,1.0836,4.5499,-11.2309,-3.5366,-9.5324,4.8177,-6.8769,-11.4025,
5.4479,0.028981,-4.4018,2.0983,-4.0444,3.3367,-1.8739,10.0614,-3.3267,-0.91431,-6.0684,7.9027,-5.5004,-0.11307,
-2.592,4.3658,-1.7273,4.3828,1.983,6.0288,-1.2793,8.0117,3.1397,9.2637,3.455,13.6952,-0.34988,6.1605,
-5.8109,4.1034,-2.1056,6.048,-2.9567,2.2926,-6.5052,2.7103,-1.387,7.2616,5.1759,11.9092,-4.6672,2.4164,
2.4919,1.2065,-1.7383,4.4803,-5.9123,6.2529,-9.2479,7.6094,-7.8113,-0.64591,-3.5704,3.2414,-13.7872,1.0661,
9.3321,-0.5533,0.53539,7.3443,-6.7626,7.5647,-4.5959,13.1786,-12.8864,-4.2223,-12.7564,-2.015,-17.0575,-0.68486,
10.7006,2.3722,3.8775,11.7246,-8.7672,6.1467,-4.8019,21.0647,-11.1492,-3.0049,-10.5445,-0.93003,-13.1418,-1.1259,
8.1301,3.194,3.6446,10.0565,-9.6872,8.6702,-7.4061,20.765,-7.5879,-1.8605,-9.9121,-1.3564,-14.7636,1.8339,
-0.31143,-1.577,-3.5635,5.3558,-7.9011,5.9808,-5.2745,9.6371,-10.2657,-1.9899,-17.2711,-1.0336,-18.4571,2.9292,
-3.6672,0.44584,-4.314,8.8913,-1.1601,5.1401,-0.13775,12.4333,-2.9013,3.9141,-10.9322,5.7769,-3.2497,5.6455,
-8.75,-0.54547,-1.6448,6.9113,-3.0189,0.010712,-5.9143,15.0611,0.64702,4.161,-2.0818,2.0556,4.0552,-1.9239,
-0.75278,2.6207,3.9975,9.6301,0.2957,0.73343,-3.3898,12.9526,0.84962,7.5267,0.21231,-2.647,4.0533,-7.834,
7.4871,1.4996,0.86513,6.6422,-2.6146,-2.2026,0.66996,7.3552,-1.1295,1.7729,-6.0669,-10.201,-1.4925,-13.1485,
6.7969,-0.7595,-1.3555,2.6282,-7.037,-6.6502,3.2809,6.6729,3.0356,-2.9132,0.32308,-8.8656,-1.1616,-13.5649,
2.2917,-1.4373,-0.069316,2.2291,-5.4099,-7.9384,2.3611,6.0311,4.5407,-2.0155,6.8112,-2.7905,0.59491,-14.4382,
-0.015385,-0.14576,-1.7524,-0.073785,-2.4338,-0.95465,-6.2167,12.1767,2.581,-0.68926,1.3408,-1.8997,-1.6099,-12.3666,
1.432,1.7909,-4.5395,4.7511,-1.3237,8.7438,-9.6999,20.123,2.9078,1.2801,-0.18565,1.1066,0.41461,0.42622,
2.0692,-2.4136,-6.9185,7.5993,-6.7881,3.1577,-6.4665,15.7828,-8.1127,-4.3401,-3.3078,-0.64681,-3.7074,5.4626,
13.273,3.2746,-0.4776,9.7951,-6.6215,0.31696,0.9111,22.3074,-16.0618,-5.2848,-5.7606,-0.36727,-5.6543,8.2681,
21.6357,7.4169,4.8537,8.7255,-5.7423,4.1548,0.85643,26.2716,-13.6518,-4.4853,-7.8251,-0.82716,-4.3507,8.7363,
17.6865,-0.018012,5.2854,8.4425,-8.0489,4.146,-2.8104,13.3671,-11.1455,-5.9039,-8.079,0.42776,-6.2589,2.6685,
12.2867,-1.9454,5.4504,10.8287,-7.5662,-1.4052,0.25054,8.2266,-6.1382,-1.693,-5.6658,4.7406,-4.4373,0.098043,
0.94423,-2.3106,2.7133,4.8763,-7.1122,-9.0336,-0.72836,11.5894,1.9429,2.2649,-8.2184,6.3844,-2.7248,1.056,
-10.6816,-3.6182,-0.34205,-1.6832,-3.311,-8.9736,-5.5054,12.8222,9.5391,3.5753,-4.8328,6.0013,0.81314,4.3671,
-12.933,-2.9189,-2.7319,-0.13622,-2.6306,-2.1689,-3.2471,14.4632,12.3409,6.2531,4.1341,5.641,5.5844,5.0692,
-10.7107,-6.6002,-2.568,1.3182,-2.9547,-0.11053,-0.15974,14.5593,9.1904,12.1444,6.7781,9.6409,7.6599,0.42672,
-9.8269,-4.9991,0.23744,0.99838,-0.60806,0.13776,-0.87283,12.9631,12.2546,16.9596,8.0589,18.4627,8.4054,-3.696,
-12.371,0.84422,-0.49994,-0.26658,-2.741,-3.0042,-2.9898,9.534,11.76,9.4343,6.3703,11.8111,4.2859,-7.0899,
-1.7466,1.9991,1.2175,2.8827,-4.2635,-1.137,1.7686,11.1308,3.5829,-1.0139,1.8905,1.2207,-1.0332,-4.0132,
12.4582,1.6379,2.3491,5.843,-5.6952,4.4746,5.7601,15.0425,-8.9249,-4.5687,-3.7668,3.7983,-4.5864,1.2891,
13.7594,9.7344,1.7262,6.9386,-6.7992,1.796,4.4506,16.0682,-14.6559,-7.6686,-8.361,8.3911,-9.1319,2.1756,
10.2825,9.3915,2.8281,6.7631,-8.5607,-1.9269,-0.87835,14.8633,-8.2327,-8.8959,-8.5825,5.2363,-14.1274,1.8043,
11.3526,-0.089818,4.8274,9.0086,-5.3957,0.35808,0.37942,12.766,-1.7134,-5.2289,-4.9343,4.681,-13.521,-0.95527,
1.0307,-2.0129,-0.28275,8.9503,-2.6616,-8.8227,-1.0894,1.395,-0.64651,-1.0586,-0.78163,6.3285,-6.443,-9.0929,
-9.1545,3.4106,1.6624,6.485,-2.02,-16.9699,-3.4341,-8.8116,9.9976,7.6816,13.3653,13.6616,5.0309,-7.5835,
-10.7742,-3.7842,4.214,4.4085,-0.69372,-15.711,-2.9874,-13.3448,17.8336,10.8363,25.2169,15.0108,8.8261,-7.3696,
-9.1639,-5.9672,1.551,10.8929,2.7224,-14.286,1.0487,-13.9899,13.8711,10.1862,19.8475,15.0745,8.7789,-12.7116,
-11.0239,-1.2707,-0.47046,14.5779,1.113,-21.6237,-0.46022,-17.0067,8.2188,8.129,12.3903,15.6165,1.9855,-15.3231,
-8.6755,-0.47129,2.691,14.4263,4.1795,-23.46,-0.19187,-14.7817,13.2691,11.2564,17.6722,16.3665,-5.6057,-6.9321,
-8.155,-4.2994,2.0476,15.4889,7.3027,-19.1599,1.7478,-13.4124,16.3293,16.3656,20.4683,20.6872,-5.7513,1.1966,
-15.8604,-5.4872,1.4428,15.0415,1.5623,-23.7949,-0.28523,-22.7306,15.3495,16.8299,14.9019,27.1587,-4.9238,3.053,
-15.3909,-4.6763,3.7666,12.693,1.4688,-31.526,0.21405,-29.5617,13.4645,18.7124,14.9718,29.8677,-6.5568,3.8339,
-5.3084,-5.842,4.5045,10.9671,7.6472,-32.527,2.1294,-33.5725,12.1747,19.0359,15.0379,24.2193,-5.6815,4.0858,
-0.16944,-3.563,6.1626,12.2375,6.7062,-28.6472,2.0014,-38.7893,11.444,16.4477,15.0997,23.2478,-1.484,1.9127,
-3.0516,-3.3495,1.4543,10.0568,3.4116,-27.8924,0.43529,-34.5337,9.7932,6.3016,15.1573,19.4426,-0.43083,-6.397,
0.023586,-2.1842,-0.079181,12.8278,9.4734,-25.2548,5.2299,-20.8923,8.7237,2.5491,13.284,12.4919,4.8977,-7.9414,
-0.70073,1.5623,-0.3154,18.0837,5.2896,-25.4267,2.7465,-20.8441,-1.6821,-1.7012,1.1588,3.3063,2.9166,-14.4548,
1.0285,8.4584,1.8727,22.5427,4.2493,-21.2496,3.787,-17.9062,-1.3398,0.088073,-0.59795,3.8313,3.4645,-18.6487,
-3.3717,-1.2084,-1.132,11.549,1.584,-22.3849,4.0419,-22.6162,2.1148,-3.2914,0.88396,1.673,2.2925,-20.4221,
-2.2056,-6.4385,0.86415,7.9635,1.4889,-21.524,5.7276,-26.5621,7.7725,-0.68382,4.2054,4.4647,3.1188,-11.4845,
-0.38599,-1.4724,1.5352,9.1729,1.6406,-18.0634,6.1068,-26.6556,6.5833,1.5264,1.302,5.884,-1.6476,-7.6619,
1.5656,2.9545,3.3715,10.551,2.9886,-6.8562,8.6332,-19.7534,7.6343,0.95308,-1.1865,8.9056,-3.9586,-3.3456,
2.4358,-0.5975,4.1333,8.4714,4.7373,-1.6244,5.2224,-13.7479,7.176,2.3419,-3.0438,15.12,-3.2394,7.4602,
0.12022,-0.80238,-0.21227,4.8299,3.7299,-3.6963,1.7758,-9.7898,-0.24418,3.4065,-2.138,19.7562,-4.2501,11.5921,
-0.85086,0.69156,-2.1277,8.3965,-1.3142,-3.4745,3.5975,-9.6843,-7.4604,-0.6543,-2.4917,16.6426,-0.13871,5.112,
0.16429,0.16836,-1.0355,11.7493,-4.6095,-5.676,2.4175,-13.9237,-10.387,-0.61481,-8.1265,9.3778,2.7619,-1.9434,
0.63659,-0.80583,-4.83,5.7419,-5.2975,-8.2282,0.34452,-12.1242,-7.8353,3.7602,-5.7109,4.9585,1.6321,-5.201,
0.59817,-0.27578,-8.8787,3.9509,-3.5336,-1.4677,1.2875,-4.1662,-4.9553,4.9806,0.89845,8.5171,2.4983,-0.55084,
0.32131,3.8386,-2.3205,10.2218,2.7044,5.6102,1.9336,4.5199,-5.3809,1.5487,0.60358,9.6933,6.9281,-0.27637,
-0.1799,7.9466,3.1214,8.6442,5.4342,3.3454,2.2995,9.5514,-6.9862,0.49147,-2.3252,3.3271,11.8151,-6.5268,
-2.3385,9.1568,-0.19914,2.5821,0.046689,0.97529,4.3309,8.2552,-7.2902,-1.225,-7.2471,-3.3802,6.5262,-9.2684,
0.21217,6.1975,-1.6332,4.8376,-1.8841,4.7734,3.107,5.8319,-6.8525,-4.5257,-13.5609,-5.5873,-3.0242,-13.0509,
7.912,5.3435,1.3571,11.7779,1.1213,8.8255,1.9565,4.9998,-7.4055,-5.7007,-14.1933,-5.7342,-3.8068,-17.5702,
10.571,4.2997,-0.41181,10.3481,-1.1154,4.6804,2.5622,3.0124,-6.7204,-6.5637,-11.1728,-7.0776,-4.3015,-15.7929,
7.5261,5.4875,-0.86904,5.3885,-0.56655,2.9533,4.8186,6.2061,2.8418,-1.8316,-5.1998,-3.2785,-6.936,-8.0969,
-0.39701,3.4713,-1.0581,1.9323,2.6007,3.0173,2.8425,4.1467,11.1072,0.92966,0.65605,0.5334,-6.2786,-7.3699,
-5.6756,-2.0394,-2.4406,0.85231,2.9268,-0.53798,-0.70274,-5.2613,11.4049,6.6587,3.9909,0.98356,-3.4915,-5.9636,
-1.9608,-4.3274,0.59809,2.2472,1.3052,0.45839,2.7141,-5.4274,8.7926,13.0078,4.7156,2.853,-2.7999,-1.7491,
0.56693,-4.5497,4.901,3.0767,-1.6652,-1.0154,5.4433,-2.6916,1.9981,6.4428,-0.38763,2.1999,-4.0782,-9.8394,
-0.91312,-2.3483,-0.21356,-2.4108,-4.94,-4.8106,3.6707,-4.9405,-7.7625,-3.5845,-6.6311,-2.7526,-0.45878,-15.5153,
2.0342,-4.136,-2.6113,-7.5688,-1.751,-3.5581,4.8967,-4.1621,-8.743,-4.8157,-6.2333,-7.8901,0.050676,-11.2104,
5.2861,-2.9235,2.848,-3.2583,3.6562,1.958,9.4232,2.8365,-0.98761,-1.1528,-1.5209,-3.5608,-0.91669,-5.2351,
-2.2616,0.62609,-1.6614,-3.5449,0.062611,-0.56981,2.591,-1.1903,0.99961,-5.4221,-1.9118,-1.9006,0.10241,-1.0648,
1.0075,5.6502,-4.2128,-3.0908,-0.66405,-2.7048,-1.6618,-7.1444,5.0374,-3.8915,1.3364,-1.0637,7.5681,5.0251,
5.0442,3.1418,-2.755,2.638,-0.8654,-3.748,-2.7671,-5.9926,-0.32671,-4.3812,0.53304,-2.6869,2.5345,-2.7485,
4.0182,5.1225,6.8103,14.2899,3.7658,1.5385,-0.91389,8.1053,-4.8869,-0.50288,0.25964,0.12543,-1.715,-0.89634,
-0.56098,5.2973,4.4737,12.4688,-2.2445,0.00020228,-5.1976,10.0293,-3.1472,-2.8826,-4.576,-4.7026,-0.64796,5.9061,
4.2932,2.5695,-1.5795,6.8998,-3.5558,-3.374,-1.9935,0.75068,0.41636,-5.12,-3.8192,-7.3127,4.6938,-1.1969,
0.90208,-4.5745,-4.1363,-1.9499,0.27292,-9.1971,1.2596,-10.6226,-7.5628,-3.608,-6.2416,-5.6687,3.2069,-15.2251,
-4.4545,-4.3003,-0.031508,-8.0996,1.7026,-9.6094,2.6301,-12.3956,-10.9652,4.3215,-11.6515,-3.8825,1.5684,-12.5039,
-7.0793,-4.5242,-0.51155,-8.5775,-3.7022,-10.961,3.9185,-13.0981,-7.8972,5.0261,-13.8449,-7.5059,1.9563,-10.3074,
-4.7265,-2.8067,1.4471,1.5779,-0.5878,-6.4472,8.5039,-4.5992,-2.6029,2.7966,-8.6757,-1.2708,6.6594,-10.6531,
-3.2379,-0.46891,3.5297,0.27812,3.5451,-3.4091,4.378,3.6307,-3.6517,-0.50449,-8.3963,0.010534,6.0186,-12.1833,
-2.0795,1.9696,1.3895,-4.559,2.3683,-5.6149,-0.22275,2.9307,-9.2175,-4.8128,-6.9285,-9.6313,3.7295,-11.452,
-2.1957,0.64611,-3.2732,0.77617,-2.8351,-6.0009,0.031587,0.10378,-4.5666,-6.6932,-2.4149,-11.2226,2.7829,-9.5596,
-3.51,0.12518,2.2261,6.9963,-1.2189,-2.7485,6.2964,4.4361,4.3843,-3.3993,0.13985,-0.90803,5.5082,-7.0581,
-6.1917,1.0818,6.4306,4.6481,3.1923,0.30866,5.9184,6.0979,1.7104,-0.30304,-0.83263,0.59249,5.1775,-8.563,
-5.5792,-1.1523,-1.427,2.2001,-3.0248,1.9774,-0.46223,4.0448,-2.0072,1.8843,-1.0236,-3.0585,1.2514,-11.6647,
-1.3881,1.3274,-3.2696,4.9601,-8.1459,4.7512,2.94,7.1766,5.3441,7.0739,0.96597,0.017545,2.6226,-9.0361,
-6.8486,-0.43968,-2.3503,2.0112,-6.4521,3.7426,0.59417,9.8792,3.336,4.4801,-1.7433,-1.671,-0.18611,-6.807,
-10.2941,-4.2697,-3.1736,-0.03765,-3.1725,8.8207,-3.2979,12.1785,2.172,3.7293,1.2533,-0.60684,0.30699,-2.0602,
-7.7478,-3.5316,-5.3933,0.92894,-2.0183,4.9174,0.27446,10.484,6.38,3.9875,3.1068,2.804,1.2524,-0.97228,
-7.042,-0.18619,-2.9001,2.5604,-4.5483,-2.8494,0.49896,10.0959,4.3104,-0.3491,-0.69503,-0.01531,0.45439,-2.6012,
-4.9322,3.4404,4.7457,6.9861,-5.9626,6.2396,-1.2182,16.9619,4.7747,1.3591,1.9978,2.6372,3.0787,1.1703,
-1.9852,-0.38144,0.84555,2.4696,-6.3277,6.5881,-3.3143,13.7751,1.8371,3.4467,0.19113,7.0582,-0.23953,1.823,
2.9544,-2.7689,-3.5437,0.39343,-4.984,-2.484,0.7412,6.1999,-2.6117,3.7221,-2.7131,10.9733,-2.1531,7.0165,
3.5,-3.3261,-3.5725,1.5747,-8.3008,2.2443,-0.026634,6.0689,-1.7325,2.2934,-2.3093,10.0735,-1.3015,9.2461,
3.29,3.6223,-4.3221,0.033919,-8.2847,15.607,-2.9171,15.3457,3.6741,0.70957,2.1675,6.0951,-1.7053,7.2456,
2.6107,7.7438,-5.509,-0.93198,-3.4488,14.6706,-2.2601,21.1739,6.3461,0.66746,4.4481,2.3549,-3.0488,8.2571,
1.49,2.9406,-4.2144,1.0524,-2.2778,11.8624,0.28583,20.3856,7.4114,2.5554,6.5916,3.6596,0.99027,11.6178,
1.4008,-1.5744,-4.9256,1.4709,-9.8541,14.5249,-2.1417,18.6798,3.5925,1.9199,2.3394,7.2967,-0.033243,10.921,
1.3165,0.93044,-2.2197,2.3468,-8.7807,13.6536,-2.9773,19.0055,0.0027208,0.8406,-5.0315,7.823,-2.9235,7.8554,
-5.5109,1.8385,-0.15832,0.7597,-4.8794,7.5317,-1.3524,15.937,-1.9256,1.2721,-5.2116,6.8717,-1.3019,6.4202,
-7.8314,2.4515,-3.7642,1.4375,-5.3096,5.3926,0.41599,16.1861,-3.4973,2.4011,-0.31959,8.6285,0.46347,7.2403,
-4.4692,2.7866,-4.5025,4.2435,-5.4732,7.4794,0.3908,17.1429,-3.7692,3.2211,-4.6385,8.593,-0.52843,8.7338,
-4.6834,0.20882,-1.8222,3.0246,-2.7346,4.6201,-2.0428,13.2218,-7.8818,2.5459,-13.0378,6.6311,-3.3892,6.7635,
-2.7154,2.8476,0.45651,1.638,1.527,4.1021,0.73112,14.5979,-7.6501,-1.2225,-10.568,7.4383,-3.909,-0.15,
-0.86482,5.8102,2.1164,4.1913,0.2301,5.0613,4.7846,16.8555,-4.0576,-1.8721,-8.2467,8.1973,-2.4692,-3.274,
-3.9464,1.3643,0.78408,4.6627,-6.2912,3.0699,-2.0104,13.1926,-4.0551,1.3738,-11.8493,5.0539,-1.1157,3.4299,
1.1106,0.31809,1.219,2.9367,-6.3961,4.332,-4.2999,17.2218,-2.8479,3.7015,-6.8005,7.1608,-0.56687,9.9726,
3.9365,2.7091,-2.7106,1.7966,-5.048,3.1082,-2.1137,21.4911,1.6617,2.9974,-0.12546,12.9981,-1.4972,7.446,
0.5666,2.7878,-2.7887,4.3397,-2.0938,0.27039,-0.78184,16.586,7.5873,5.4689,1.5695,17.7616,1.244,10.6149,
1.015,3.1024,-2.1394,2.6335,-0.52238,1.7,-3.1451,13.1807,5.2039,5.1408,1.4754,14.7677,1.1693,16.2445,
3.8464,4.3623,-4.4214,-1.3811,-2.419,5.9365,-7.7768,17.6923,0.071174,2.9039,-1.5059,12.4357,-3.7213,16.7159,
5.5433,3.1363,-2.7099,-0.33437,-3.2382,8.9548,-7.3107,20.4871,-0.41549,5.6217,-10.0927,14.0996,-4.9443,12.8204,
4.7288,1.0204,-2.0653,0.65002,-1.1157,7.9356,-3.4971,18.294,0.091833,4.8025,-13.825,11.8074,-3.2014,6.749,
2.5171,4.8153,-0.97732,3.0214,0.87966,6.9773,-1.3593,19.6063,-1.3602,4.0322,-12.0318,10.1349,-2.5271,4.8976,
2.8482,5.4905,2.9379,6.6962,-3.9936,6.0765,-4.652,21.8046,-3.6885,5.7187,-14.2017,13.8653,-5.2678,7.4965,
4.6053,2.7511,4.6896,-0.45375,-3.7538,3.7839,-2.4445,18.086,-2.503,2.9652,-14.7957,17.3719,-7.3621,6.5645,
0.71358,4.7552,5.6135,-3.56,2.979,2.3516,0.83524,11.9391,2.7084,3.9926,-9.811,15.6063,-4.2693,0.14463,
-1.2574,6.3981,3.8305,3.8844,1.354,6.0669,-0.66114,11.2228,3.9921,7.1275,-5.3655,10.3316,-1.6025,-2.7561,
0.74644,4.5677,1.1903,4.1331,1.7549,4.7388,1.307,10.0672,-1.5498,-0.53124,-5.5258,4.8912,-6.8092,0.30155,
-0.021248,4.5351,1.8422,0.27013,3.8187,-7.3557,1.9519,5.8482,-1.6978,-3.1505,-4.9532,8.2131,-9.5337,5.8275,
2.1492,3.0577,5.829,2.4231,-0.98966,-14.3862,0.1471,3.8101,4.4296,6.4386,1.3695,14.2283,-6.7925,7.6466,
3.7075,-3.6332,0.41762,-0.85579,-5.992,-17.6203,-1.549,-5.3365,1.0308,4.847,3.4565,8.7949,-10.0004,3.0904,
3.2438,-3.6564,-2.7407,-2.0095,0.39333,-19.6964,0.23144,-14.4161,-4.5749,0.45902,6.8647,8.5084,-11.0874,8.4488,
0.15667,-0.062604,4.1727,3.4137,4.2261,-22.8534,-0.26438,-17.8899,-2.8541,1.8777,6.4529,11.8542,-7.5301,9.8701,
-2.7448,1.3874,6.3324,7.0653,4.4545,-23.8923,2.6435,-19.2267,-1.2366,4.1752,1.245,9.2148,-2.7395,3.4933,
-3.062,-2.5527,1.6142,3.7488,7.5617,-28.7255,5.8594,-29.6422,-6.947,2.9604,-0.27598,6.2518,-4.0214,-1.0551,
0.97807,-6.2559,0.55298,-1.2963,4.2154,-36.6429,4.544,-38.469,-6.5302,0.85455,2.1512,6.8405,-6.1902,0.45451,
2.1242,-3.7109,1.7251,0.46866,1.3114,-38.5417,4.5123,-38.33,1.3334,1.0447,4.1913,7.1535,-1.7215,-1.26,
-4.9929,-5.6577,-2.476,1.6456,9.1867,-40.8087,8.8211,-40.6093,2.9404,2.669,6.5911,2.1447,1.997,-8.174,
-7.5856,-6.2823,-3.2915,0.10038,13.456,-43.1807,9.2559,-40.5833,4.21,5.8831,11.98,2.9797,5.2514,-6.7195,
-7.1305,-3.4952,-4.5403,-0.38758,3.0072,-34.8053,-0.45849,-31.8816,6.8499,4.0839,8.3691,6.6578,4.9363,-1.0137,
-4.7744,1.0533,-1.8573,5.4203,0.89858,-18.617,-2.3592,-17.9176,6.9209,6.2494,6.9027,9.1504,5.1226,5.7956,
-2.3188,2.1949,-2.4692,7.2642,1.0856,-14.4874,-1.4947,-13.709,-0.48425,9.0075,5.2832,4.9859,1.6817,8.0989,
7.7023,4.2324,-3.5259,7.0693,-1.1487,-15.7873,2.6923,-9.2711,-3.5882,1.4771,-1.0593,4.9277,-0.10642,10.7465,
14.2302,2.2914,-1.6273,6.4044,-5.1769,-6.4042,6.6284,-7.5097,-7.4705,-6.0831,-4.129,7.7658,-1.3051,15.6455,
6.6273,-6.041,-2.4938,0.23535,-9.2048,-9.8761,4.3022,-16.2184,-9.9146,-3.3077,-1.9529,4.8895,-3.1552,16.1528,
-0.27785,-3.9913,0.30692,-0.019742,-1.6631,-13.8633,3.3212,-17.4145,0.56224,5.3264,4.6718,7.2472,-3.6888,13.9784,
-6.5279,0.10432,1.735,2.3918,4.2215,-7.7288,2.6398,-12.513,8.7234,2.1145,8.2481,7.2945,-6.8417,3.4989,
-6.1362,-0.38387,5.4873,2.2483,5.8964,-3.4087,5.8558,-8.8701,7.2357,0.059478,7.7532,0.10795,-4.503,-3.4599,
0.73987,-2.53,2.0246,-1.984,1.9272,-10.1938,6.7098,-9.0608,0.77602,-1.1489,1.7444,-5.9241,-6.8844,-4.9395,
2.8646,-2.1372,-1.7123,-0.65963,-0.3576,-8.3771,5.5838,-7.3119,-0.47537,-3.7315,-0.047491,-4.3633,-8.6405,-1.0277,
-3.8149,-0.80393,5.38,2.0308,7.6178,-4.2591,6.4539,-11.4527,7.5067,3.0001,4.0529,-1.9326,-0.65001,-0.72488,
-11.2988,-4.6121,5.5396,-4.8395,11.4991,-9.7881,7.031,-24.8655,11.395,9.569,7.6662,-2.2986,3.2454,-9.3585,
-16.8876,-5.7814,0.38632,-7.4419,5.5067,-13.0574,4.6807,-30.002,6.8547,7.5483,9.1341,-1.6785,4.4967,-9.2791,
-22.6233,-4.9523,-3.0111,-5.0669,1.8016,-11.7918,1.5075,-26.7556,2.5868,0.34676,7.1401,-4.9525,4.709,-7.2759,
-15.963,-4.6552,-2.8304,-6.2092,5.5499,-1.4434,4.7915,-19.8479,6.7704,5.6286,8.1579,-3.691,7.3186,-8.2856,
-7.2925,-5.8221,-1.2143,-6.8005,6.1812,4.4278,5.4679,-6.1235,6.8461,9.6292,8.1504,1.3507,7.3614,-5.8603,
-9.0245,-3.3037,-0.90051,-2.777,0.26676,2.4749,0.56056,7.5003,1.856,1.5796,2.1177,-2.3457,1.8585,-0.44698,
-8.965,3.6435,-2.2927,-1.6466,-1.6774,9.0753,-0.91934,10.4247,3.1909,-0.44333,1.5087,-2.2045,1.265,4.8825,
-6.0167,2.9427,-5.047,-3.4757,-1.0946,15.7619,-2.7921,9.3171,5.8918,4.4042,5.7568,4.1945,5.0453,6.9999,
-4.4502,-1.8134,-5.4673,-3.026,-6.0904,11.2005,-6.7222,10.9274,6.7433,8.7195,2.76,6.5941,4.0194,11.159,
-1.5323,-0.017125,-1.5241,-0.19356,-8.8582,13.1798,-6.5596,14.8513,8.0257,9.4014,0.42505,8.8493,0.64502,19.4077,
-2.4045,-1.4626,-1.4329,-1.146,-8.327,20.1016,-8.5764,14.9243,3.6876,4.0163,5.702,5.4261,0.60655,18.243,
-2.0188,-3.544,-4.4799,-5.1746,-7.104,14.3162,-3.9644,10.8954,-0.63058,2.0886,7.5295,0.52124,3.2213,9.1947,
2.4407,1.9713,-1.3191,-4.3822,-2.8218,6.2264,3.0223,4.4571,-0.11081,3.4091,2.7389,1.4538,3.9923,4.7866,
-2.7672,-0.31637,-1.4807,-4.842,-3.3752,1.2733,-2.7029,3.9484,-1.7916,-4.267,0.88759,-0.3204,1.5834,4.7402,
-2.3602,-2.9485,-2.5971,-5.2748,-3.896,1.9202,-1.3354,8.7732,-0.96076,-4.7339,4.9317,1.868,1.7293,4.2148,
2.8426,0.84384,-1.236,-4.7173,1.3994,7.8306,5.7346,5.1133,1.266,2.0576,2.9486,3.4431,-1.0255,1.3108,
0.50288,-2.8222,0.52493,-0.81889,6.8591,11.4581,5.1491,1.6735,6.2513,5.0676,3.0126,5.4057,0.24085,3.4013,
-6.7581,-16.7529,0.97583,-0.28782,3.555,4.5041,1.9481,2.537,6.3586,3.7992,-0.060207,4.5994,2.1546,-0.65914,
-2.978,-21.8937,5.2558,0.69401,3.8239,5.1979,3.2772,4.3132,2.1205,5.4997,-2.9489,4.8056,1.0612,-3.03,
0.57494,-16.724,3.9759,2.5803,6.4867,9.2242,2.1165,4.0542,2.9574,7.0977,-0.36205,0.66068,0.99778,1.9723,
-4.0388,-16.9253,-1.3239,-0.70752,3.9284,3.6095,1.7486,3.088,6.3953,4.5027,-2.5095,-4.4402,3.1071,1.1311,
-3.0738,-18.0792,-1.4856,-4.7626,6.8259,2.6698,5.7408,3.6259,2.3964,1.0993,-5.4922,-6.3432,0.75126,-8.8189,
1.6903,-16.7535,1.737,-1.8258,8.586,9.0175,4.6739,3.6493,-3.291,-0.17153,0.86336,-8.1317,0.46521,-8.5308,
7.8554,-14.784,-0.29541,-2.6801,-0.12435,5.102,0.054665,0.05586,-2.1292,-2.0894,1.7754,-7.6438,4.2937,-1.752,
11.2405,-15.8256,1.1686,-9.2682,-3.9733,-2.4349,-0.91248,-5.2501,-1.5195,-6.7848,-5.5619,-9.1134,2.1079,-5.0213,
8.3969,-15.5989,4.7139,-5.0967,0.36247,-0.11967,-0.13483,-2.7655,-2.6336,-6.1367,-1.1309,-9.2899,-0.18776,-7.3716,
6.2059,-12.4938,-0.63063,2.199,2.5099,2.5391,0.59662,1.0158,-0.30645,0.25702,6.4088,-4.1528,6.8134,-3.3138,
8.2439,-10.7801,-3.0031,-0.82526,1.3952,3.3508,0.56059,3.3648,3.0866,1.2057,4.5782,-1.0113,10.7431,-1.6685,
2.6873,-9.4102,-2.0998,-4.8733,-1.8218,1.4623,-2.1248,5.3318,-0.71423,-3.4462,-1.7222,-6.0126,4.5547,-3.2559,
-3.74,-7.3993,-3.4201,-0.72454,-0.26621,-1.5175,-2.9607,7.9049,-3.0815,-4.6852,-4.511,-5.1694,2.3532,-0.65039,
0.09939,-12.017,-6.3484,-4.7789,2.4009,0.74226,-1.5783,7.6711,-3.62,-3.1992,-3.0355,4.5403,3.4169,3.004,
1.058,-15.6341,-3.5567,-9.3122,-0.63548,6.4825,-1.4833,9.1393,0.45384,-0.59693,1.4852,6.1967,5.1407,5.2342,
-9.611,-10.8399,-0.93337,-4.8968,0.36674,8.022,-5.251,11.0013,3.8008,2.3312,3.3245,-2.37,5.7959,3.4741,
-10.7216,-2.7177,-0.6364,-0.50612,5.8884,10.1918,-6.1412,17.813,6.7063,6.7706,6.2581,-1.023,10.0275,3.9885,
-5.4988,-4.2421,-3.2495,-1.6808,-0.0087923,8.8571,-6.0139,17.9493,6.0627,4.6774,8.052,1.6897,10.6313,3.0261,
-2.2766,-3.9873,-0.64421,-0.61541,-2.9001,6.8797,0.61412,13.98,6.1811,1.5044,6.6048,0.62426,9.5113,1.3985,
-4.5501,-9.5327,-1.0875,-6.8455,-1.7622,1.1643,-1.8333,9.2848,0.50759,-4.8524,-2.4682,-8.5722,-3.5924,-3.9881,
4.1586,-6.7916,3.557,-4.7475,2.9228,8.5662,-1.4823,17.1634,2.1644,-0.94625,-0.15137,-6.3707,-6.5104,1.7948,
4.6324,-3.7325,1.1745,-2.2935,-2.7957,11.1857,-2.1163,16.3751,-0.6166,-1.13,-2.311,-1.4087,-3.9506,5.7845,
2.6673,-2.3037,-0.10084,-3.8431,-3.3513,9.3093,-1.2664,10.8128,-8.0514,-5.6419,-8.1983,1.8089,-3.4726,5.1965,
6.846,-3.1294,1.3515,-4.5764,-1.704,6.8225,-2.1543,9.2002,-9.0146,-7.2316,-9.6346,0.73646,-4.71,4.8847,
9.0863,-3.665,0.54703,-3.097,-8.1097,5.2079,-4.1942,10.8173,-9.1971,-7.0387,-7.8513,-2.9231,-3.2226,4.8326,
9.987,0.41132,0.5142,-4.8393,-4.7306,6.3417,-2.9787,7.2758,-13.4655,-8.0626,-6.8983,-8.5328,-1.101,1.1682,
6.7366,-0.33626,0.72432,-7.682,-0.83134,2.3458,0.33352,-0.15066,-12.4166,-9.2661,-8.6535,-13.082,-1.7579,-5.4094,
2.717,-2.9676,2.3681,-6.9806,-4.3969,0.03585,5.3747,-2.3108,-1.3077,-1.7207,-4.5193,-3.8615,1.9626,-6.2901,
-3.472,-3.0305,0.53877,-9.6948,-2.4458,1.2385,-0.0094375,0.47896,7.2069,5.3724,5.6342,3.3601,3.532,-1.8154,
-4.2273,0.52597,-1.9039,-10.5591,6.3778,4.057,-4.8289,7.1994,6.2923,7.4604,11.5629,3.6407,5.7305,3.1145,
-5.179,-0.71088,-2.5126,-8.2383,4.7903,6.4646,-1.8881,9.9009,2.7817,6.7718,6.2898,3.1813,4.6637,2.6867,
-1.7347,4.393,-1.6389,-1.7185,-0.55882,15.4768,-0.087557,10.9936,6.2298,9.499,-0.11356,5.1595,1.7324,3.7303,
0.77924,8.9499,-2.5047,-0.16936,-1.0075,19.3686,-2.9746,14.1901,2.4818,7.4826,-3.9634,2.4396,0.66432,3.9882,
5.5532,3.5926,-0.42621,-2.0874,2.4274,12.9043,-3.2781,17.6775,-5.8618,2.2134,-7.0996,-3.0094,-1.3037,-0.10705,
12.4508,-0.96123,0.56369,-3.4084,2.2818,13.5759,-6.4558,14.2067,-6.4745,-3.2221,-12.4582,-9.0954,-7.974,-5.4033,
11.9452,1.2656,-0.67542,-4.4087,-1.4705,14.4486,-10.6478,8.2926,-5.8446,-7.1261,-17.7362,-11.6827,-11.5929,-7.7302,
14.8439,4.8051,2.0167,-5.8314,-1.1413,13.3407,-3.019,8.0365,-13.4476,-5.9752,-15.9491,-8.3306,-9.692,-8.4717,
19.4967,0.90159,0.69059,-10.0611,2.5428,13.2634,-2.1152,5.8669,-19.1485,-6.8222,-14.2691,-9.5178,-11.2799,-7.7222,
19.0495,3.0164,2.3362,-8.2523,1.6671,17.0471,-6.5678,5.7556,-10.0461,-7.6179,-12.6898,-10.1522,-8.4342,-5.0899,
16.2193,10.3072,5.329,-7.0343,-1.5664,16.7472,-3.5227,8.5437,-2.4534,-6.9199,-10.2416,-9.3021,-0.93823,-6.4717,
14.2823,10.1707,0.18902,-9.0224,-0.50856,14.2961,-0.41877,10.9236,-4.7168,-8.4329,-7.6989,-11.6361,-0.88194,-6.0834,
21.6203,8.1145,1.6237,-6.5526,0.96844,19.705,-0.87581,16.5345,-4.4336,-6.9628,-0.97027,-4.1892,-1.7931,4.8866,
23.2152,4.7351,2.9725,-5.1956,-3.9104,19.4871,-1.7871,15.0605,-6.5777,-7.027,-2.8402,-0.56341,-1.6855,9.4142,
15.7969,6.1384,1.1067,-5.607,-4.3989,16.1485,-0.47484,11.9875,-12.2088,-8.7748,-10.1414,-9.9298,-0.37933,2.8235,
10.9927,9.1446,1.0408,-5.2706,-1.2424,16.6258,0.035588,16.5709,-14.8507,-6.802,-10.9792,-12.2261,-0.83851,2.6541,
8.8869,6.1853,3.8704,-3.99,-3.0961,12.7357,-0.93042,17.5048,-13.9597,-3.9838,-10.3204,-5.708,-6.0908,3.9411,
1.1228,3.886,1.2281,-1.3405,-4.8385,7.1513,-0.87459,14.0444,-10.2296,-3.7447,-12.5933,-11.1501,-7.1717,-4.9724,
-2.8009,6.5454,-2.2201,0.66815,-5.5125,6.2403,-0.34018,10.3097,-1.903,-3.0381,-6.5355,-18.1943,-2.403,-9.9763,
0.98234,4.4652,2.4926,-1.5413,-3.0124,2.2503,-3.453,3.1834,6.6471,-1.1684,5.1851,-8.6667,1.3568,-5.2806,
0.92363,0.82305,6.1992,-0.96669,0.060652,-4.6334,-8.5487,1.5459,10.5863,1.794,10.1764,1.0125,0.79323,-1.1071,
1.8323,5.5942,9.6839,8.2506,0.056783,-0.98121,-1.2867,10.1305,13.3258,7.4712,10.048,2.8797,0.74586,1.3697,
-4.5444,3.8125,4.7643,6.3091,-2.8389,-0.44017,0.23657,7.5942,8.6697,5.0945,7.5167,-0.66726,0.70088,-1.6053,
-8.8512,2.3787,3.2734,3.7616,-0.98112,-4.029,-6.2853,2.0771,10.3189,5.512,16.9478,5.3986,4.7564,1.6248,
-9.2845,-1.6204,4.0409,2.5716,-0.92271,-10.5361,-5.4263,-9.1347,11.6279,7.1094,22.1975,6.0385,1.0966,2.4911,
-8.9682,-3.6926,3.0757,2.1765,1.7844,-15.9297,5.2634,-21.8433,7.3151,6.4417,19.6606,4.9531,-1.6205,1.1366,
-13.7327,-9.2556,-1.9295,-2.7748,0.23111,-26.0612,1.0912,-33.0657,-1.8009,-0.69328,14.6245,-1.6106,1.8511,-2.306,
-9.0521,-11.1106,1.0785,-2.1266,1.6633,-30.2821,-0.4203,-36.3846,0.23508,-0.65191,16.6394,-9.227,8.0068,-0.23925,
-14.0526,-14.0594,-3.0835,-1.2756,0.84057,-33.5266,0.32782,-38.2989,-2.4301,-4.7102,12.0256,-15.6628,3.4286,-6.7328,
-20.4403,-8.8771,-4.8267,5.0674,4.1641,-31.0328,2.7183,-30.6983,-2.2843,-4.4275,10.3402,-10.8666,4.6691,-8.2571,
-17.7674,-6.416,-2.6087,3.3178,0.058127,-32.5451,0.62721,-35.6051,-3.1113,-2.2335,9.2381,-10.6968,4.3892,-5.3513,
-9.23,-7.7188,-1.7293,-1.9434,3.1877,-34.208,0.83055,-45.7613,-1.7194,0.069701,7.9604,-7.4039,2.4386,-0.93285,
-4.8196,-3.399,-1.1433,1.066,10.7094,-32.6375,3.673,-39.159,2.2399,0.54722,6.0368,4.6097,0.3639,0.087218,
-2.8434,3.3126,1.0942,5.0991,7.8979,-29.9561,3.6938,-26.4454,4.7569,6.5402,8.8078,8.9127,-2.7912,3.6976,
-1.9497,1.9088,5.1261,9.8551,-1.9762,-27.4356,0.82087,-24.1355,5.677,16.0299,9.4844,5.2446,-3.8288,13.3579,
-2.5558,2.9993,7.9518,19.1455,-4.9909,-20.2459,0.53042,-17.144,9.9154,23.986,9.1565,14.8121,-1.4297,16.6536,
-11.5613,1.3734,-0.71978,13.1763,-3.7273,-18.549,-1.4294,-15.1508,11.7309,22.0651,11.4994,23.5646,-1.826,8.9057,
-20.991,-3.5298,-6.9436,-0.1478,-3.9856,-21.2926,-0.86167,-23.4013,11.027,21.2231,18.0399,19.2582,4.0681,8.3714,
-26.7211,-8.3794,-7.2501,-8.5748,-5.9159,-20.7382,0.87702,-33.3252,11.0885,17.7803,22.0194,8.2205,10.8137,4.2539,
-22.7075,-7.3947,-3.4406,-10.9524,0.22366,-18.0477,3.7169,-31.8076,17.1721,8.5188,23.5903,3.389,14.0217,-8.5348,
-16.7653,-10.0843,-2.5111,-8.6083,-0.99482,-18.652,2.7708,-30.1403,12.0442,0.53566,18.5597,-2.3582,8.6009,-13.0842,
-10.216,-9.238,-1.1553,0.82653,-5.5146,-11.5071,5.2559,-23.7524,5.2958,4.1192,14.7948,-1.0112,8.3255,1.4394,
-12.7363,-6.0329,-3.7373,-1.8744,-5.9069,-10.0938,0.36099,-17.7477,-1.0478,-0.7075,8.3632,-1.1917,4.6928,7.3784,
-9.3213,1.8011,-3.2724,-0.074924,0.47329,-4.9089,-0.3838,-8.247,-3.6362,-6.2089,6.1744,-0.87946,1.7599,12.9614,
-6.3514,1.2111,-2.5936,-0.070429,-2.4476,4.5447,5.9057,-5.342,-9.2026,-2.9438,4.8396,1.1015,-3.6484,17.9683,
-5.7294,-0.54878,0.69548,-6.0918,-1.0955,5.4773,8.6849,-7.6726,-11.3016,6.1509,4.3083,8.5072,-5.1167,17.6136,
-2.975,-1.9621,0.65375,-9.1007,2.8266,1.7747,2.8616,-11.0686,-10.1411,7.71,0.67581,13.2999,-6.2555,14.1466,
0.095778,-2.3261,-1.3139,-3.7337,-0.23525,4.5605,1.2439,-11.3686,-5.1941,6.2833,-0.81077,12.0197,-10.2187,13.2976,
-2.0794,-1.9458,0.93433,2.5156,-2.3905,5.0095,1.41,-6.5894,1.6248,6.147,3.335,7.201,-5.5085,11.2947,
-9.4264,-3.9982,2.0831,-0.7688,-2.0061,-1.7988,-1.3262,-4.9887,4.1784,2.6447,7.7142,0.26097,4.704,-0.22925,
-12.9582,-4.9636,-2.1392,-6.7482,-2.1267,-3.86,2.8508,-11.1969,11.8819,-1.1289,10.3848,-1.4419,8.5195,-9.1336,
-11.699,0.63663,-2.975,-9.2356,1.8575,2.6381,8.4645,-11.9715,25.269,4.2412,16.9923,5.3933,13.3108,-1.8369,
-17.0226,-0.12424,-3.0377,-13.261,1.9872,5.1312,1.9309,-12.9402,25.8013,8.5663,18.1422,6.2752,16.6097,-0.039658,
-20.8217,-3.9734,-4.3012,-11.5015,3.3138,8.6797,1.3331,-15.0561,22.3251,11.4268,19.4638,6.8626,19.4695,-5.3395,
-22.7057,-5.4222,-8.6227,-13.9446,7.2126,5.9897,4.8687,-15.84,20.2624,9.5361,16.127,9.5841,16.6139,-5.2603,
-17.4869,-7.5072,-12.4438,-19.3747,0.031131,1.774,-2.6544,-12.9614,6.5134,-1.1592,1.1799,6.5991,3.5662,1.804,
-2.3377,3.7899,1.5592,-6.8836,-3.1038,15.4063,2.0846,-0.37335,0.097065,-0.84869,-5.3984,12.2287,0.21875,15.7958,
11.9025,7.6594,9.4194,2.929,-3.159,18.0969,10.3952,3.2645,-3.0422,-2.0031,-11.1005,11.736,-6.3023,17.1379,
11.6705,5.995,9.0956,4.4409,0.64599,13.878,10.4948,5.2378,-0.69009,-0.67758,-6.819,7.8988,-8.0929,9.6021,
0.36525,-0.63143,3.247,-1.6103,-2.2851,8.7068,1.6702,-3.2714,-2.0952,-3.0473,-5.4458,-1.2525,-6.6437,-0.61519,
-2.7904,-1.7986,2.3291,-1.273,-0.94289,6.9793,-0.11748,-10.547,1.6462,-2.6237,-3.4321,-2.3824,-0.70121,-2.2657,
-9.3714,0.2375,-1.6671,-4.0887,2.0062,2.704,-4.4487,-10.8782,7.332,1.3906,4.4871,1.6169,-0.1772,-2.1293,
-16.7631,-0.50011,-2.2899,-8.4231,5.0189,0.8545,-4.9052,-11.9128,12.4357,6.8507,13.1355,4.6534,2.9669,-0.3148,
-20.8188,-6.4957,-1.4294,-11.5329,3.9951,-2.33,-3.8877,-19.1517,10.0021,3.7884,13.5529,2.6867,4.4759,-3.4292,
-17.1593,-7.0698,-0.86172,-8.9127,5.2016,-0.2618,-4.1364,-18.9667,9.4024,4.5249,12.7397,4.9361,6.1355,-3.2234,
-15.1658,-3.2714,-3.7025,-5.9678,3.9252,0.71777,-5.3345,-14.9364,7.392,6.1816,6.1903,5.6038,3.3573,1.7907,
-15.22,-1.6291,-3.4806,-1.7536,-0.16694,-1.2537,-3.086,-10.666,3.0919,2.9184,-1.8941,2.3753,-2.629,5.5394,
-8.281,-1.7723,-1.1022,-2.3708,-0.39789,2.4374,-0.73168,-7.8567,-3.6011,-1.8359,-5.3954,0.063628,-6.5686,1.5916,
0.89271,-0.21968,1.8565,-5.1211,0.59031,9.0396,-1.6516,-3.0467,-5.7952,-3.1721,-8.4462,0.059811,-6.1745,3.9067,
8.07,3.6499,9.9398,6.2734,-1.3733,14.2818,-0.10674,8.705,-0.62721,-0.5716,-9.3857,1.5025,-5.3221,12.349,
15.2983,8.2514,12.2357,16.0201,-1.2911,17.7634,3.7563,16.3776,0.85645,-0.53708,-9.3047,5.2685,-6.4488,13.5364,
22.5756,10.6484,6.6809,13.6127,-2.178,21.0359,3.5309,20.6976,-2.5694,-2.9154,-10.1922,8.8088,-6.5438,19.4727,
18.5697,8.8044,3.6287,8.2164,-6.1444,20.015,-0.2966,19.697,-3.6203,-4.4275,-8.8575,7.0752,-4.4642,22.8839,
3.3556,2.0098,1.483,1.4567,-8.1861,14.4755,-1.7248,5.9819,-4.8491,-5.6079,-6.8801,4.2408,-2.2679,9.9419,
-2.0277,-1.4854,0.42992,-2.4869,-5.2846,12.6429,5.1273,-2.09,-4.076,-2.3791,-4.5393,7.8425,1.7243,5.9707,
-2.388,-4.2884,-0.55974,-1.8558,-4.0032,8.5103,2.4096,2.8561,-1.9032,-2.2364,-4.7489,8.8182,-0.30731,10.9151,
-8.0295,-5.9593,-2.9367,-2.7083,-3.2811,4.1429,-3.5196,3.1667,2.0673,-1.1379,-3.0177,6.8428,-4.1453,4.958,
-11.6453,-5.3607,-2.5196,-4.2335,-3.3256,2.2071,-0.17539,-4.9775,3.1481,1.0991,-1.1494,0.88866,-4.6194,-3.7756,
-8.7774,-3.8343,1.247,-1.3279,-4.3309,2.3156,-1.3697,-3.4736,0.30816,1.2741,-1.8038,-6.6365,-3.6194,-5.2363,
-4.3944,-1.1936,1.6541,2.6082,-2.6248,3.141,-3.6976,6.8577,0.28967,-0.73006,-3.6238,-8.1665,-2.9203,-6.3684,
-4.1305,1.7701,1.5553,3.416,2.3529,5.8451,-2.0295,9.3388,4.6106,-1.1686,-4.3702,-4.302,-4.1909,-6.9501,
-7.2571,1.1819,0.4977,0.80045,1.7298,9.8327,-1.9082,7.8141,4.8159,1.3121,-4.108,-4.0439,-5.3857,-5.5693,
-7.3039,-0.81718,-0.97842,-1.1758,-3.6766,8.7603,1.5807,7.8272,3.5631,-0.21338,-3.8615,-6.2119,-0.72421,-6.1994,
-5.4194,-0.76815,1.9728,0.34103,-5.3842,6.7889,2.4502,2.5373,1.903,-4.5384,-6.0399,-5.3568,1.7298,-6.7913,
-3.6482,-0.72206,4.2646,-1.1257,-3.6154,8.7917,-2.5175,-1.4713,-0.13934,-3.3023,-6.6419,-2.6252,-2.7127,-4.9376,
3.5603,0.52609,4.7316,-2.2634,-3.6394,13.8078,0.76703,6.5707,-0.37194,-0.93497,-4.0742,-0.78049,2.5117,-1.9902,
4.3111,-1.4337,-1.3369,-1.1633,-9.6876,12.9793,1.2029,9.5509,-8.0624,-9.0736,-10.0963,-8.4464,2.361,-3.799,
2.124,1.5446,-2.7027,3.245,-5.7321,15.5748,-3.6897,12.834,-12.3991,-9.9757,-12.8652,-9.8681,-2.1192,1.7313,
5.6122,4.1033,-1.8174,0.39901,-7.0752,16.3278,-4.1915,14.7153,-5.1475,-6.7258,-5.1032,-2.2863,-0.30506,4.2788,
5.9983,-0.24026,-5.8062,-8.543,-12.1943,12.2146,-4.1809,8.7712,4.5614,-7.5271,4.603,1.9482,3.3287,-0.55724,
-0.1459,-4.5644,-6.9038,-8.9945,-5.6778,11.9639,-4.4123,5.3526,5.2518,-6.1114,6.7372,1.8315,4.093,2.3685,
0.82695,-2.844,-2.1511,-2.67,-3.8911,12.2102,-1.2552,11.2982,-0.36574,-3.8163,-1.862,4.132,1.4376,11.3856,
9.454,0.70105,0.87052,2.7928,-7.9959,12.4414,-2.1438,15.4406,-5.6464,-5.0335,-10.4273,2.4378,-4.9157,13.1126,
12.2614,2.587,-0.14581,5.0356,-5.5878,15.0696,-3.9436,21.2633,-8.1999,-6.1776,-10.7658,-5.9034,-7.513,11.3618,
6.7052,3.8778,-2.5474,6.6614,-6.2171,15.6115,-2.2609,27.2181,-6.2619,-8.2177,-10.1196,-7.4771,-2.7237,13.5724,
1.9642,3.6451,-0.94831,5.7798,-8.2542,12.7466,-5.9817,23.1744,-4.9223,-7.7247,-11.4406,-7.5109,-4.0065,10.8298,
-0.56359,5.8368,3.4471,3.0227,-1.0102,12.9459,-8.5146,18.4097,-5.1087,-1.9583,-6.898,-13.8085,-6.6584,0.056903,
-3.9045,5.4863,-1.0982,-1.9792,0.49641,16.0253,-4.1476,18.7512,-2.8742,-3.2873,0.26452,-16.8366,1.936,-7.6595,
-4.1521,0.33688,-2.4786,-5.2349,-6.2818,13.1356,-1.9705,17.1442,0.19076,-6.464,2.1768,-13.8982,10.497,-7.6819,
-1.7338,-6.1908,0.8036,-4.6798,-5.182,3.4298,-4.0214,11.5362,-1.9898,-4.8714,0.359,-14.2696,4.3235,-5.5337,
-0.42452,-3.1683,4.3708,-4.1581,7.4214,0.5725,1.7635,7.2286,-0.18323,-3.3738,2.0247,-13.6544,-3.4077,-5.4427,
-7.148,-1.5321,3.6264,-10.6573,8.4222,1.0203,6.9601,2.4564,3.6839,-5.5817,2.3854,-12.353,-5.1317,-10.4185,
-11.7805,-3.1272,-0.68878,-9.2947,-2.9292,1.6822,3.4092,7.3704,5.6323,-1.1492,1.5191,-10.4067,-5.5464,-6.1782,
-7.6995,-2.4576,-3.0576,-4.3987,-5.646,6.8835,0.79407,15.1229,2.4018,2.7761,0.46365,-9.3004,-11.963,3.351,
0.23431,1.7872,-0.70496,-3.8938,0.23642,14.9066,1.4698,18.7953,0.088549,-1.4878,-1.2509,-10.9115,-12.4501,5.3196,
3.3535,4.3313,-1.3858,-5.3472,-1.4648,12.3252,0.17653,22.729,1.2883,-6.4605,-2.3814,-14.3544,-7.6055,1.8672,
3.3933,6.2405,-1.5436,0.034881,-3.0641,9.4161,-1.5213,24.4983,7.7185,-1.9755,0.41303,-10.3597,-4.498,7.2983,
3.4311,1.7688,-1.692,-2.1359,-5.5314,11.0207,-3.1172,16.5214,5.5686,0.79506,0.62922,-7.5685,-4.9511,8.5481,
4.671,0.69877,-0.14418,-5.8641,-1.3435,13.2515,-1.9659,11.6733,0.41378,2.6751,-0.3724,-8.0787,1.1306,6.107,
-0.91142,-0.78942,-6.8844,-6.4766,-2.2268,8.6001,-6.1867,12.4191,2.3171,0.10446,0.13187,-9.5222,2.509,8.1507,
-5.4363,-5.3216,-12.4972,-7.775,-8.6009,5.4327,-8.9488,16.2535,7.722,-3.0351,5.6673,-9.192,-4.1492,14.6513,
-1.013,-0.90515,-4.2753,-4.6577,-5.4335,10.1682,-8.1706,22.2679,3.643,-2.6122,7.0148,-7.4354,-2.6952,19.3156,
3.1454,6.1393,3.4528,0.68371,-1.9743,11.2456,-3.5828,23.5832,-4.0472,-1.7324,-0.87816,-3.8556,2.046,14.0595,
2.4745,2.3962,0.83528,-3.6959,-1.856,7.6786,0.48831,13.9732,-0.43011,-4.0388,-4.1997,-6.0351,1.4411,-0.88402,
2.5672,-3.7729,-0.90183,-10.9461,0.42472,7.4586,1.1821,3.7346,5.1391,-8.8579,1.5957,-14.5908,-0.81478,-9.6288,
2.413,-3.0643,5.901,-7.3971,-0.082926,6.0474,0.62905,3.5108,1.4565,-7.3623,1.0182,-15.6433,-2.2119,-3.7482,
6.3658,2.6629,7.7163,-0.92748,-3.6931,3.9971,0.8325,6.9158,0.64599,-1.3767,-4.1043,-7.2331,-3.2843,0.57428,
11.7684,3.4675,3.3969,-3.282,-4.9178,3.2754,-2.11,7.9466,2.0535,-0.33027,-0.966,-7.763,-3.0872,-2.8346,
12.2676,3.0184,4.8803,-4.2903,-6.7919,3.8017,-4.1525,10.6033,-1.2032,-4.8897,2.2254,-14.769,-4.1073,0.46894,
12.4954,5.7294,7.9615,1.7517,-6.3844,6.9481,3.3275,15.2698,-2.5773,-4.5964,-0.8006,-10.0265,-4.3428,10.0813,
11.7459,5.3854,6.0378,0.68247,0.26542,4.1209,5.5382,12.9075,-3.8687,-1.9102,-5.573,-5.5688,-4.5644,8.9947,
10.0773,4.0984,5.676,-2.7325,0.73189,0.49961,3.7596,6.8304,-2.1903,0.13259,-2.3461,-10.0549,-3.8081,3.1524,
6.5801,1.9243,2.9248,-5.943,-5.0971,-4.3511,0.64153,-3.2203,-2.5408,-3.7318,1.651,-17.1644,-3.5796,-0.4112,
8.8364,4.9423,4.9185,1.8854,2.1986,-9.1517,3.7365,-7.6069,2.1909,-7.1233,2.7568,-16.8579,-0.71375,-3.0376,
5.8961,2.7176,1.7313,8.5207,2.0667,-15.833,3.5123,-5.7042,2.0595,-9.106,-0.30068,-12.9539,-6.9374,-5.7474,
3.132,-0.82013,-1.2648,8.4916,-4.806,-15.8476,0.89123,-7.7723,-0.95638,-4.2215,0.68145,-7.8381,-10.8597,2.7919,
6.0771,-0.048021,0.49782,6.2949,-2.8308,-18.5121,2.0431,-17.1879,-1.14,-0.83477,4.2555,-4.7167,-5.6289,5.7574,
3.3026,-2.937,-0.97808,3.5069,-3.6246,-27.5241,0.47444,-23.3872,1.3388,-4.1589,2.5546,-5.8797,-5.2909,-5.1926,
-4.6084,-5.1713,-2.8476,4.2608,-5.3353,-30.2114,-0.03642,-25.8404,4.6329,-3.9094,2.8833,-6.9732,-6.9017,-8.7375,
-5.2957,-2.4505,-2.6763,5.9333,-2.6051,-31.7727,-0.51617,-27.1825,5.3193,-3.1929,8.0129,-8.0006,-1.1849,-6.285,
3.2167,-1.3391,-0.5875,7.5055,-1.0025,-35.6512,1.443,-26.0335,0.66133,-6.3758,8.496,-7.5206,3.7064,-8.3181,
8.5671,-0.5361,4.0268,11.1528,1.2266,-32.307,7.8641,-21.3382,-3.9579,-1.8956,10.6376,-1.044,7.0992,-10.9527,
2.9916,-2.1909,3.5445,9.2785,6.6968,-29.1633,9.5617,-19.8167,-4.9255,-0.57683,12.1687,-2.1865,7.8788,-11.5006,
-3.4544,-6.8802,5.7419,3.9011,10.1514,-27.4137,7.0598,-19.1101,-2.2198,-1.9885,8.5461,-8.3218,4.5136,-10.8106,
-2.7654,-3.5751,11.1818,6.5593,8.0958,-22.3947,6.636,-14.1069,0.32374,3.9152,7.0692,-6.3764,1.3505,-7.2696,
1.4983,1.7011,5.4496,10.2636,3.0312,-18.8814,5.9968,-10.127,-1.3829,1.5116,5.4402,-6.7168,-2.8279,-5.1462,
9.6031,4.0092,9.461,13.0218,3.8132,-13.4104,9.4934,-3.2528,-1.7819,-0.98971,0.2931,-4.868,-0.73005,1.4291,
14.3294,6.179,19.4984,13.6865,5.9948,-4.8928,11.3342,3.2091,-1.1928,6.7827,-4.063,3.1371,1.7241,8.0925,
11.3007,7.9776,11.8208,13.1065,7.804,-2.4298,8.9671,1.8115,1.0477,9.509,-3.0961,8.9742,1.3795,9.7758,
7.4889,6.2934,3.1575,9.6688,5.1664,-6.3816,4.8134,-8.6618,1.226,3.3946,-3.1516,6.2668,-0.3903,6.538,
8.2446,6.157,9.9577,8.3655,1.7232,-6.7219,6.2116,-12.2392,0.42935,4.396,-2.2393,0.82891,1.3201,3.4944,
10.8835,6.9929,10.0836,6.1764,1.3788,-8.0058,8.0086,-4.9969,-2.7299,0.99919,-2.8279,-7.1741,3.4101,-1.2946,
8.5434,7.7784,2.9709,6.5289,3.9474,-6.8023,6.8049,-0.11804,-3.7712,-4.1222,-2.8994,-8.913,5.3749,-4.3506,
-3.2974,3.2143,2.0698,4.9319,2.5057,-5.6708,3.7451,-6.1365,-1.8577,-3.152,0.88999,-6.2091,7.7035,-9.6327,
-12.2588,-3.7277,0.017143,-4.0409,1.3908,-11.1154,2.0743,-13.4813,2.5923,-4.8908,7.1033,-8.2469,7.2415,-11.9471,
-7.9076,1.5579,-1.1889,-6.9317,4.923,-7.3152,1.7091,-13.3951,11.8366,-2.9104,11.7386,-7.9928,7.0482,-8.097,
-7.4329,6.7668,-0.63545,-4.1054,2.6997,-1.0915,-5.6245,-10.181,13.5367,2.0847,10.0702,-6.0672,2.2867,-8.0933,
-6.0233,3.9505,-2.5257,-0.0029525,-2.2832,-1.5081,-7.6974,-4.7502,5.0115,2.4418,6.0917,-7.1492,-2.6709,-3.7511,
3.4974,1.3036,-2.8564,2.8895,-1.1822,0.028382,0.9594,-1.0905,-3.4836,-1.0789,-1.5048,-11.0588,-2.5109,2.7407,
11.0003,7.4919,5.5102,6.573,5.6377,10.15,6.2045,6.6877,-5.6852,-3.9067,-8.163,-9.9134,3.9063,4.5044,
9.135,9.6934,3.4923,4.4914,-0.72613,12.6741,-1.1572,13.2763,-9.9234,-11.626,-14.6631,-11.4877,0.53885,-0.8275,
12.4435,9.594,0.39052,3.7397,-3.0929,9.5037,1.8045,17.3002,-11.2559,-15.267,-15.7113,-16.5833,-3.832,-0.77762,
15.3121,10.2234,2.536,4.2385,4.5642,9.6562,7.7216,15.5391,-6.4835,-10.2534,-7.297,-22.096,-0.95079,-1.9365,
10.7782,6.9587,2.1431,0.36898,0.67519,11.2462,0.75057,9.5453,-2.4788,-2.6486,1.0948,-21.9753,-0.17061,-5.4355,
9.6493,5.0951,1.0504,-1.0996,-3.7039,14.91,-6.0431,9.4548,-5.7048,1.367,-3.3095,-18.2464,-4.9809,-2.699,
10.9985,6.7176,-0.45885,-0.06934,1.3391,15.4616,-3.7524,8.4051,-8.2545,-3.5358,-9.8593,-19.5618,-5.1639,-5.4296,
10.5798,9.9298,-0.19012,-2.2346,5.3559,13.8108,2.0166,5.2494,-4.626,-10.7952,-8.5451,-21.0394,-4.6134,-13.5397,
16.6935,10.2983,1.7495,-1.6186,4.0706,18.2843,-0.033027,8.7909,-5.3128,-5.3272,-8.0324,-18.3312,-10.1211,-7.4247,
21.9584,5.824,3.0903,1.3706,4.7903,20.5617,-6.2976,14.048,-14.635,-5.9719,-16.2276,-17.7133,-14.8165,4.59,
20.8821,2.8232,-1.1922,2.9758,2.3339,17.1591,-3.2684,16.8208,-19.3003,-15.4953,-21.2792,-17.3736,-17.0608,3.1095,
15.2911,1.2078,-6.9055,1.3513,-6.483,15.1655,-1.1439,17.7395,-15.7319,-13.6015,-19.0384,-15.3666,-19.8933,1.4769,
13.8912,3.0635,-1.6705,2.234,-1.2738,15.2194,-3.4858,16.1932,-9.0039,-4.5907,-12.1115,-12.5169,-14.3614,5.7266,
15.2269,4.567,4.9372,2.8234,4.8282,10.2089,-4.9639,11.6062,-5.8121,-5.5206,-9.6976,-14.8989,-10.3667,0.32133,
14.3135,4.7751,2.2311,0.72554,-0.28196,5.2578,-1.7733,8.0175,-4.9812,-8.0812,-10.0798,-16.8973,-10.7083,-5.0004,
12.0082,6.4166,0.65075,1.1642,-0.26481,5.4245,2.6712,4.1622,-0.82615,-1.33,-4.6545,-10.581,-3.7995,-5.1825,
8.1545,10.6106,4.7093,1.3351,6.7407,4.3759,6.6085,2.225,3.321,2.8474,2.1324,-1.9926,5.3463,-4.1484,
6.7013,6.1181,2.4985,-0.67324,5.8543,1.2208,4.2838,9.3224,0.22922,-0.21598,0.55823,-6.6933,3.5797,-3.4176,
8.2272,1.8944,1.3845,3.7057,2.6108,4.5223,2.0983,18.4042,2.6258,1.7254,0.52497,-9.666,3.8466,4.0185,
0.74417,2.986,1.0605,2.7605,-0.19741,2.0818,1.7315,15.1308,5.6018,-0.06535,5.0728,-2.5785,6.7493,5.4647,
-9.1826,2.5661,-3.1003,-1.0204,-3.3184,-5.0328,-5.3621,7.2333,-1.2421,-6.5687,5.4915,2.6381,0.31904,0.55726,
-1.1599,4.5813,1.1831,8.9228,-1.9144,4.1868,-7.2095,11.8605,0.03776,2.743,2.029,4.167,-1.8693,3.6573,
3.2483,1.4137,5.4502,11.7617,-7.5844,3.9358,-5.8128,12.113,-0.44667,3.5426,-9.1802,-0.90393,-6.578,-0.41875,
2.8124,2.0522,6.3285,8.4049,-7.3703,-2.3263,-1.8486,8.2527,-4.9996,-5.1061,-9.3523,-1.0907,-6.9063,-3.0452,
2.6437,2.411,-1.2821,3.5618,-1.6254,-0.74051,-5.1122,7.2756,-6.6278,-3.8354,-4.4528,0.90297,-4.5637,-0.93427,
-0.64845,0.097185,-3.8562,-0.74881,-1.7689,2.9193,-6.9746,7.0805,-0.68609,4.8308,-2.9804,2.0541,-4.0489,2.2553,
-5.6712,-0.63201,0.4725,-2.3916,-4.3143,2.5032,-3.905,8.3425,7.7907,9.6022,3.224,1.2075,-0.67249,-0.5316,
-6.295,-0.11192,1.8902,0.16228,-1.6451,1.3889,-8.0088,10.7342,12.6257,8.5439,7.8511,-4.1674,2.7421,-1.9457,
-5.9171,0.37696,1.2951,1.1171,-0.5818,0.82389,-6.0823,12.9829,16.6891,4.1751,6.8978,-4.881,3.0597,2.992,
-5.8031,-1.3329,0.012069,-0.63761,-1.7522,-1.3952,2.2364,11.9625,12.0719,0.79112,6.243,-3.3833,3.1171,-0.32105,
-4.491,-0.28859,0.97521,1.3288,3.1732,2.5449,1.6203,14.6192,4.5991,3.6362,7.3147,-1.734,6.3045,-4.6406,
-9.042,0.69282,0.43454,0.28501,2.5006,3.8383,-6.1899,16.1524,3.3591,1.9715,5.9117,-1.1483,6.408,-1.4698,
-12.5969,1.3742,-1.2788,-4.7933,-2.2287,1.4388,-3.167,8.1934,4.8448,-0.79787,5.798,-1.3204,7.2288,1.2699,
-8.4666,-0.1541,-5.058,-6.4339,-2.5769,1.8349,-0.084899,0.95335,3.1078,2.1425,1.5937,0.20513,6.7951,0.71177,
-3.3793,-1.3506,-1.1395,0.45961,-2.1818,2.9296,-2.249,8.8494,2.6799,9.4853,-0.67155,9.5928,4.7001,8.6228,
-3.8999,-0.064272,6.4007,5.4933,-2.7738,2.5129,-2.3555,15.7903,3.2425,13.4959,1.5379,12.6327,4.6591,12.6847,
-5.8348,0.66271,-1.455,0.10267,-10.5609,3.0852,-6.3112,6.8893,-0.56725,5.6965,-2.1696,-0.41758,0.28241,5.8983,
-0.42308,2.3102,-4.5007,-1.1088,-11.6144,8.9261,-5.2092,6.7169,2.1179,4.6319,-0.83409,-4.4899,0.024503,5.7854,
-1.8442,-1.2027,2.9995,-1.0425,-6.0971,8.3899,-4.415,9.2062,4.8831,7.2458,2.1082,-3.2564,-0.45913,3.0279,
-6.3128,-3.782,6.9173,0.70729,-0.67003,7.6455,-2.4628,8.4129,3.8672,5.1238,2.7046,-2.82,0.29132,2.1229,
-5.6933,-2.3501,2.8867,-0.54021,0.093299,7.9099,0.33626,7.6669,4.8398,-2.6552,1.8192,-3.374,1.9608,4.1649,
-5.1103,-3.8963,-0.90197,-4.6052,-3.0458,3.8199,2.0033,5.5197,2.8626,-2.2549,0.022859,-9.1971,0.15596,-3.5568,
-0.94728,-2.6982,0.11648,-0.47246,-1.4168,6.0013,5.2576,9.0453,0.28074,4.6293,2.4321,-7.199,2.0753,-5.2716,
-0.40828,-2.5361,-0.37267,1.4843,-4.2241,6.6053,4.9419,6.0923,-1.1826,1.4592,-0.12421,-9.6593,2.4324,-1.0987,
-2.5532,-4.0714,0.85475,-1.7385,-6.14,4.0396,1.994,-1.2634,4.9141,-4.6541,-2.2861,-15.106,1.5634,1.6181,
-1.1947,-2.6218,5.8651,-0.42886,-4.0839,5.4844,-2.7049,6.2847,12.0911,-0.2775,1.4664,-10.1018,1.2286,2.2444,
-6.6669,-6.0797,2.38,-4.5007,-12.2748,3.4684,-13.3886,13.8611,6.7861,-0.019656,2.1016,-7.3263,-4.3885,0.42272,
-15.1851,-7.4023,1.0317,-7.3639,-17.0821,6.8755,-20.5397,13.7526,3.2457,-0.74161,4.1449,-8.5742,-6.2946,5.9407,
-18.1304,-6.9582,11.5751,-3.5476,-13.6471,8.8731,-19.3073,10.0349,4.9791,-0.69711,2.4499,-7.5778,-4.953,6.5482,
-9.8113,-4.1301,24.9805,-1.8885,-6.5613,6.8949,-9.4714,15.2179,2.7522,3.2011,0.37474,-4.2306,-0.79901,3.2632,
-3.438,-0.50832,37.5817,-6.114,-4.2394,8.8913,2.6661,14.7867,0.17694,7.8293,-0.12968,-7.3513,2.141,1.1392,
-7.8115,1.6913,49.4268,-8.3982,-5.1903,9.5627,3.229,6.4277,5.2275,10.493,2.0473,-11.4895,2.7359,-3.0265,
-14.8144,-2.0258,60.5612,-5.243,-1.7457,-0.41086,-0.097972,2.9083,9.4934,9.6222,6.0216,-9.595,6.1869,-11.2808,
-11.5152,-6.2423,71.0275,-3.9643,-1.1588,-4.7248,-0.092323,4.6622,9.406,2.7786,7.1067,-9.5015,8.2261,-13.0143,
-6.9681,-1.0473,80.8659,-5.6549,-5.4278,2.7893,-1.5328,3.9004,8.3594,-2.691,4.7519,-12.7876,4.8402,-5.4848,
-9.6835,-0.26157,90.1139,-4.1103,-1.0048,1.8991,1.6926,1.9791,3.7605,-0.84229,1.8157,-18.5283,0.45245,-3.4685,
-10.3073,-5.7895,98.8071,-2.6584,4.1172,-3.2765,2.314,1.1375,2.3296,-1.0327,1.4658,-22.478,0.18433,-8.322,
-3.4224,-0.13947,106.9787,-3.4632,0.013777,7.0429,-0.71738,4.9256,8.4563,-1.9351,4.2699,-14.3809,4.5116,-6.8584,
-0.083772,5.4127,114.6599,-0.60411,-0.22779,11.6823,-0.91507,9.2096,3.3699,-3.506,-0.083405,-7.492,2.5539,-0.90349,
5.2237,4.6058,121.8803,8.5909,5.5702,9.0529,2.0321,14.9237,-4.5453,-1.3676,-1.5249,-5.5965,2.8824,1.0787,
11.6592,2.8832,128.6675,4.2191,0.8977,7.5459,1.4283,11.1363,-0.89812,-3.2133,0.012863,-9.599,5.12,-5.7345,
9.9957,2.2283,135.0475,-3.2644,-2.0487,4.683,4.2346,-0.13721,1.5659,-5.913,-0.95178,-16.7358,4.3304,-11.6569,
7.2268,-0.074581,131.6449,-3.31,0.2434,1.7505,5.6678,0.59393,-0.21529,-0.49658,-0.6537,-20.7934,2.8658,-10.7165,
6.3113,-0.070107,133.3871,-4.0753,0.22925,5.5023,0.98939,9.7173,5.5827,5.8002,1.7956,-18.0995,6.0683,-3.8066,
-0.33413,-1.5119,135.507,-7.6874,-1.231,6.6182,-5.3367,4.3138,5.2475,-0.81503,0.24188,-13.1574,5.7039,-1.1683,
-5.1348,-3.3499,137.0171,-9.6362,2.6993,6.2206,-0.19626,-1.2477,7.8247,-1.73,3.6014,-10.4397,5.8436,-3.0264,
-12.5397,-7.9694,134.099,-14.3605,0.12694,2.9551,0.78007,-1.655,9.7656,-0.18016,1.9392,-16.562,4.5289,-8.6296,
-8.8948,-1.2242,136.1759,-7.7143,0.11933,6.6342,-0.23106,2.7831,8.2158,1.7588,0.37709,-17.0143,5.7034,-0.881,
1.0389,1.9827,135.4776,0.22039,0.83553,6.4776,1.47,4.3033,-2.1591,-2.444,-2.779,-14.3063,-0.18237,2.7873,
9.8944,6.9252,133.3743,2.8585,1.9905,6.812,4.9975,12.963,-7.091,-3.5025,-1.8891,-10.3146,-3.3047,-0.99515,
10.0239,12.5355,128.5056,1.9638,0.18403,8.5727,1.082,13.3903,-3.5323,-2.5692,-0.088344,-14.275,-0.93701,-3.5868,
0.98652,4.7932,121.5179,-1.2872,-0.55014,6.3709,-4.0444,2.2227,-4.0435,-2.1743,1.604,-17.0342,-1.122,-3.1304,
-2.4471,-2.2433,121.4577,-6.0307,5.267,4.5424,0.5366,-4.1776,-1.3908,-0.11565,5.846,-13.602,2.8017,-1.9787,
-4.7102,0.30215,121.4013,-10.0074,6.8794,3.7877,1.4685,-9.2289,-0.34321,-2.0367,3.0849,-17.6061,5.5259,-8.1267,
-3.7049,4.3811,120.6244,-4.3451,3.3334,6.2117,0.17532,-1.2036,-0.56382,-3.1195,4.1049,-19.6833,7.8457,-7.3979,
-2.0364,1.2262,119.172,0.25395,-1.2049,4.3932,0.64674,10.9197,-1.4939,-2.9324,2.8947,-17.5379,3.5185,-3.0976,
-0.46815,2.1167,120.2162,0.72088,1.2777,6.0576,1.572,16.0494,-1.4045,-2.7567,-0.17125,-15.5216,-0.066791,3.355,
0.042334,2.9536,124.0909,-0.2867,3.1292,9.5505,-2.3782,15.5683,-0.83779,-1.6269,-1.1248,-15.5544,1.8654,13.277,
-5.9862,0.60722,126.5269,-0.51046,2.7001,5.844,-4.8871,9.5725,-0.54656,-1.2883,0.62942,-12.4519,3.9226,14.1672,
-8.5191,-0.87547,124.7199,-2.8904,3.9843,1.155,-4.5939,-0.16084,5.2704,-1.211,8.3044,-9.2947,0.79477,3.1938,
-6.5617,-1.3049,125.9138,-3.1989,3.7453,0.60381,0.020097,-5.9358,8.811,-0.17451,12.1449,-7.7729,-0.21679,-1.3362,
-5.6861,1.1835,132.459,-0.11448,1.1104,-6.1813,0.98322,-9.9179,5.3898,-0.64598,2.2572,-7.7885,-0.20378,0.19027,
1.1626,2.7998,138.6114,2.5435,1.2848,-11.3541,0.20086,-14.8665,3.8611,-0.84818,-1.0117,-8.0445,-0.91491,0.41982,
8.3237,0.70358,144.3947,1.427,4.0997,-14.0473,1.6351,-20.7234,0.73739,-0.31536,8.69,-7.5616,-0.37808,-2.0155,
4.2088,-0.54393,149.831,1.1004,7.4696,-20.6762,2.2599,-28.8795,-4.8505,-0.055471,7.9276,-6.3848,0.36796,-4.0637,
-1.3461,-0.51106,154.9412,4.4086,8.9494,-25.22,3.0884,-31.0034,-2.1491,2.8401,3.5953,-4.5557,1.31,-2.3739,
-4.3986,-3.6137,159.7447,6.3135,3.351,-24.9119,2.1804,-27.9377,-3.2252,1.4651,6.9953,-11.2718,0.50825,-1.5083,
2.1321,-0.50455,164.26,12.6834,4.114,-20.5249,4.4595,-23.8515,-5.442,-0.5512,9.9498,-13.006,2.8881,-1.9,
11.4041,0.73056,168.5044,16.0197,11.339,-23.3907,5.3972,-26.9997,-4.3926,-1.2415,7.6656,-5.2358,1.5095,-2.0269,
8.7915,-0.27691,172.4942,9.7561,9.6946,-30.6644,7.0018,-31.6465,-3.6469,-1.1668,10.5803,-1.5472,0.45486,0.023095,
-1.8592,-2.6711,176.2445,2.9035,8.6307,-29.3067,12.366,-31.6761,-2.9459,-0.13266,11.3915,-7.2392,4.2837,-4.3168,
-4.8811,-8.5364,179.7698,1.0426,13.1746,-27.7893,14.7576,-32.4266,-2.5282,-1.8119,-0.13824,-15.2407,3.3038,-14.9041,
-0.73138,-5.6136,183.0837,6.7646,11.4198,-28.532,8.5695,-31.4453,-2.3765,-1.7032,0.35199,-12.3981,1.6598,-11.1173,
-2.6157,1.4721,186.1986,10.2151,4.9505,-22.4816,0.34252,-27.148,-2.2339,0.80956,6.5978,-5.8694,2.5241,-0.32739,
-1.9773,2.3472,189.1267,6.7097,2.7248,-11.9741,4.6603,-22.1452,-4.0281,1.7244,2.8271,-2.1432,1.8902,1.6205,
7.3006,1.7246,191.8791,7.7531,6.8998,-7.399,13.5395,-18.8885,-6.6787,1.6212,-1.1987,-1.0505,4.1872,0.55913,
10.237,1.1392,194.4664,7.7703,6.4858,-8.8833,12.7276,-19.6829,-9.17,-0.88623,-4.0189,-5.8075,10.6848,0.043646,
7.2122,3.481,196.8984,6.8217,5.1324,-8.8327,7.6251,-19.9482,-6.2102,-0.83306,-4.2601,-6.9056,11.49,3.415,
-0.69231,-0.82521,199.1845,2.797,6.0297,-9.9895,1.1421,-25.7412,-4.1503,-1.024,-3.7635,-6.2503,0.43628,2.4872,
-5.712,-7.2836,201.3334,-2.432,5.9089,-14.4518,-4.4701,-30.7044,0.67845,-0.72163,-1.3681,-5.6343,-1.2771,-0.31311,
-5.8512,-4.4365,203.3534,-4.6962,2.6623,-18.4052,-3.7199,-32.2364,3.5298,-0.67833,3.5342,-6.7423,6.0303,0.18761,
-6.9464,-1.2778,205.2522,-5.3788,2.0202,-16.8189,-3.4967,-33.1945,2.3541,-1.1196,10.0711,-5.8558,3.2584,2.1045,
-1.7094,-2.6474,207.0371,-5.538,2.3809,-8.0968,-2.3231,-28.7927,4.1411,-0.57046,10.9126,-4.0582,1.1347,0.53202,
8.7575,-2.2476,208.7148,-4.9648,3.4433,-5.4418,6.7344,-24.8957,1.2415,-0.29527,3.7504,-5.0198,5.164,-0.2228,
11.3656,1.0208,210.292,-4.4259,8.7804,-9.6946,12.3563,-23.6432,-8.2334,-1.9648,-4.9103,-6.888,6.5414,-0.4504,
11.1656,0.95953,211.7744,0.66036,7.2897,-2.8464,9.2048,-16.4398,-13.0416,-2.3288,-9.9183,-6.4745,1.3286,1.9867,
11.7009,2.5892,208.5887,2.7899,4.6831,7.2063,4.0728,-7.9816,-12.5001,-1.4662,-8.118,-4.3988,1.0075,4.0367,
8.3473,2.1929,197.2782,-2.9211,8.4995,7.4973,3.5875,-10.1543,-12.9554,0.309,-5.4617,-3.4119,6.4906,-0.78479,
8.5698,0.856,188.575,-1.0586,7.2662,10.1805,4.577,-7.8578,-8.5626,0.53143,-6.8212,-3.9303,9.7166,-0.97867,
10.4658,1.769,174.8504,0.45116,-2.3284,13.426,0.44649,0.32693,-8.5308,-7.2132,-14.1247,-8.0328,0.93892,1.9721,
14.4173,4.3142,164.1181,-3.1916,-1.9479,15.2718,-1.2678,6.3326,-15.0086,-13.2881,-17.3748,-8.7559,-6.1071,2.095,
20.301,4.537,154.2708,-4.928,2.9894,19.176,-0.22759,7.3987,-18.4471,-14.4188,-18.2608,-12.0872,-5.2589,-0.92301,
23.1803,6.9163,145.7379,0.91127,0.64089,24.0514,0.027031,6.2319,-15.6526,-15.2409,-21.262,-17.8694,-7.1126,-0.62666,
20.1025,14.9373,139.645,3.0255,-2.0489,22.3671,-0.21579,4.6529,-10.1344,-16.0139,-20.2275,-15.5924,-11.2653,0.61601,
20.1011,18.6203,135.8456,3.0854,0.24321,19.3379,3.413,5.579,-6.3928,-13.3654,-13.9522,-9.1131,-12.2762,-0.62625,
22.5107,15.8161,131.3105,3.623,-0.97645,20.347,3.449,6.9313,-6.7324,-9.9126,-9.9818,-12.1817,-14.1909,-2.2757,
23.8112,12.2156,126.5649,4.6109,1.2513,22.2592,2.5192,2.418,-5.1231,-6.6663,-5.7679,-9.7636,-7.7963,0.99436,
13.9468,1.1188,111.9816,-2.1733,0.45332,12.9699,-2.2117,-9.5372,-7.4668,-9.3998,-7.591,-4.1163,-3.2307,1.6576,
2.5047,0.56972,101.8882,-5.8997,-0.5382,5.4433,-1.5966,-9.9293,-4.6087,-5.4614,-5.2073,0.95116,0.33758,3.9683,
-1.5019,1.9813,101.0776,-6.5096,-1.4698,4.1524,0.42735,-8.3692,-1.4401,0.6509,-2.0024,1.3763,3.6913,6.1408,
-0.68869,-0.30648,94.7717,-6.3602,1.7517,8.0003,-0.32188,-5.6981,1.7795,3.7451,0.28669,-0.39355,5.1568,8.4232,
1.5216,-0.52928,79.6852,-3.8092,-1.4867,5.8333,-0.061373,-2.7049,-0.014229,0.38714,-2.8638,0.83513,-1.1779,5.2665,
5.7693,2.8772,73.9404,-0.68837,-5.736,1.6272,4.2809,-1.5785,-4.8339,-5.4204,-6.0662,3.1954,-3.5176,3.9868,
6.146,-0.42896,69.745,-1.8519,-2.7403,1.2886,6.1932,-4.6168,-6.2311,-7.2648,-5.4612,0.35233,-1.6193,3.0243,
3.8488,1.0428,54.9548,-0.29475,-2.5761,2.1753,3.4112,-3.8581,-2.9649,-4.9005,-3.2051,-4.4893,-2.9682,3.325,
0.0027137,7.006,42.7396,5.2663,-3.6266,0.35737,2.9658,1.9172,1.7925,0.45496,1.0843,-0.60452,-2.0669,7.2231,
-4.0948,1.524,38.488,4.7094,1.6526,-1.3513,4.4751,2.0432,3.8541,4.525,4.6347,6.9036,5.5289,10.887,
-6.2592,-3.3877,28.4664,1.0524,2.0354,0.17604,3.7246,-2.4177,6.0335,4.2535,6.7672,6.4893,11.4637,10.2338,
-9.2581,-2.2206,15.1888,2.9174,-0.014897,-0.31646,1.0906,-4.6833,5.1895,2.0701,6.8431,1.7617,13.6684,7.6916,
-12.0773,-1.6052,11.3852,6.117,3.3602,-2.7078,-3.3129,-4.884,3.4317,2.4281,4.0221,-0.75439,13.3304,2.8915,
-6.7732,3.5526,9.0151,8.8833,1.4716,-1.8222,-4.8016,-1.4577,7.3233,5.8976,3.0577,6.2805,8.9149,2.9592,
-2.7514,4.5447,-1.8897,6.1811,-3.6784,-2.9177,0.54816,3.2091,7.1249,4.8208,0.70505,12.4114,3.3184,7.8434,
-3.5504,0.89735,-7.0792,0.025445,0.88089,-1.779,6.7816,4.9445,6.2152,5.4957,1.1449,11.6665,6.4935,11.7109,
-4.0603,0.603,-11.2337,-5.5197,1.5514,0.49734,2.2778,-0.89534,5.6014,5.4069,2.2815,7.8335,5.8634,10.2853,
-8.1552,1.0485,-22.1291,-5.6707,-2.3983,-0.014668,1.1765,-8.0727,6.2294,3.6364,1.1805,3.5071,-1.2376,5.8116,
-15.3789,-1.9067,-32.3707,-4.3663,-1.7722,-0.97788,3.0344,-9.5163,6.3378,4.8643,0.1456,-0.55997,-1.645,-1.7677,
-15.902,-3.7205,-37.6589,-4.5863,-1.184,1.009,-0.52214,-1.7145,7.4038,4.5724,2.0651,-1.9724,0.86381,-5.0361,
-12.5382,-1.5691,-40.7024,-4.3111,-2.0773,2.8762,-2.419,6.5831,5.9952,-1.4865,1.4588,0.073907,-3.5268,-4.252,
-6.724,0.21209,-42.3574,-0.43726,-5.0859,2.9448,1.8237,2.5729,4.4304,-0.67417,1.1305,4.1671,-5.0022,-4.2376,
-6.0796,-0.52354,-45.3596,0.79427,-6.9499,-0.36491,4.8473,-6.4995,5.8518,3.9456,2.2675,3.1941,-2.5329,-7.5988,
-8.3661,-2.6615,-48.6638,-2.3866,-2.9177,-3.9587,4.3157,-10.2071,3.8133,3.95,2.8546,2.2794,-2.1397,-4.4915,
-2.5613,-2.9835,-49.1182,-3.6895,-1.7785,0.6174,4.0566,-5.7381,2.6204,2.7489,2.6835,8.4091,-2.9754,6.8649,
0.72543,-2.0816,-51.2328,-5.1558,-6.2516,6.6059,0.19776,0.63175,7.0424,1.3787,4.2093,11.5198,-2.5559,13.4425,
-7.2716,-3.6437,-55.1484,-8.4616,-11.9018,5.0045,-4.8756,1.317,8.7898,-2.8011,8.0543,5.7673,-0.71559,7.0925,
-9.2457,-5.3535,-54.7318,-9.8819,-10.2236,5.6683,-3.6189,0.75579,6.3339,-3.5972,9.9814,2.529,3.184,0.88263,
-5.5577,-3.8272,-55.5455,-7.602,-7.4408,7.4976,-3.643,4.808,4.7488,-1.6943,8.1775,4.5464,2.7517,6.3731,
-8.8396,-5.2848,-58.7202,-8.3512,-12.056,3.4323,-7.0394,11.509,3.2586,-6.6544,1.6613,-0.30587,-4.8852,11.0523,
-4.6938,-1.3523,-47.7252,-1.8241,-5.7891,8.77,2.3011,20.2189,9.571,-3.1216,0.83823,3.3279,-5.315,12.0764,
-7.0635,-0.54805,-47.513,-0.50958,-2.7904,12.3414,0.47554,14.4262,8.7556,1.6452,-3.3092,7.2258,-7.165,3.8803,
-10.2549,-0.27397,-54.0625,-0.7202,-4.31,10.8778,-7.0246,8.4987,7.9891,3.7159,-2.3875,6.5511,-5.53,4.3701,
-4.5784,-1.4628,-57.3262,-1.3999,-4.7747,9.0198,-3.4701,7.7479,8.2331,1.8057,0.88877,5.4349,-3.9934,6.7595,
-3.8218,-0.41073,-66.9021,-5.1723,-3.042,7.9967,2.5227,5.3548,7.7391,0.73303,4.6918,6.555,-2.3075,3.9433,
-13.2332,-2.3145,-76.9879,-9.2005,-3.3416,4.1422,-3.8954,-1.2332,4.8644,-1.2394,5.8564,4.7155,0.7232,5.1527,
-8.824,-3.8626,-86.4687,-6.4791,-3.8643,6.0631,-3.9024,1.4921,7.2238,-1.4058,11.0488,8.048,5.7413,10.8694,
-1.3049,-6.2822,-95.3805,-11.1522,-6.7657,4.9762,0.42886,1.6438,5.103,-3.0089,6.7702,10.2162,0.81727,6.1196,
1.6659,0.84318,-94.5989,-8.0725,-0.093203,7.0882,9.0802,2.0271,7.2074,1.5104,3.9539,9.1213,-2.1238,3.3423,
-4.9415,0.069686,-95.4305,-6.8653,2.5639,5.9395,5.8843,-0.26372,10.3903,-0.2674,1.5475,3.0306,-1.2735,-1.9194,
-7.0554,-1.3805,-101.7559,-10.31,-1.4465,6.5472,1.6746,1.6801,13.6231,0.71274,4.8289,4.7767,0.24894,-3.2508,
-6.3913,-2.5028,-108.9072,-11.3784,-5.9392,6.3956,0.36911,4.713,10.1544,2.8394,8.6367,6.1774,-2.4173,-2.8145,
-5.2847,-2.1119,-109.8444,-3.7056,-2.9316,4.3249,-1.34,4.6709,8.34,0.98154,9.3236,2.6735,-2.513,-3.8507,
-6.4139,0.90738,-102.2898,2.7833,-5.6477,2.6187,-1.2601,3.4268,12.6604,0.44072,10.2104,2.5131,-1.3984,-3.1377,
-6.2696,0.61197,-99.7674,0.92906,-8.4423,3.1849,-0.46113,3.4622,9.2496,3.5478,10.3212,5.0136,-1.5554,3.5585,
-5.4117,-0.87078,-101.9763,-5.3934,-3.1153,2.0297,1.0126,2.7723,-2.3928,1.4065,6.8091,1.3386,-0.97994,0.45266,
-6.2921,0.38653,-98.509,-5.793,-2.6872,-0.7434,3.1212,3.3291,-4.4182,-6.1495,2.7854,-2.8391,2.2121,-10.9029,
-3.2632,-0.35979,-94.2855,-0.38346,-7.1055,-2.8677,1.7289,1.9243,-2.4661,-8.9138,-2.9251,-5.3201,0.39239,-9.0437,
8.9839,1.1078,-89.5925,3.4957,-1.8587,5.0169,3.0712,3.7372,-3.7641,-0.18402,-6.6062,1.7478,-1.5596,1.1401,
8.6858,2.2466,-91.2068,-2.2577,3.3145,10.7414,4.5741,4.2359,-6.6718,-0.4144,-6.4508,4.294,-1.225,-3.99,
0.45191,1.1475,-94.8934,-2.1222,2.1513,7.2049,4.2997,2.5355,-4.3433,-8.1023,-3.6536,-4.6405,1.2591,-13.8735,
3.0759,0.83771,-101.0104,4.0307,-3.0394,3.1572,-1.02,2.6243,-3.8417,-8.8215,-8.978,-9.4237,-0.021787,-11.8362,
9.1583,2.2337,-109.0498,3.3069,-5.7491,2.4858,-0.95879,4.3951,-5.0575,-5.8816,-14.7059,-6.4477,-2.9125,-7.2692,
9.3317,2.8226,-116.6068,0.93933,0.13943,3.0595,3.1961,7.7468,0.30766,-7.6983,-7.316,-6.7842,-1.533,-9.4846,
8.7718,4.0995,-123.7104,-0.56329,3.5055,6.7324,3.0048,10.6564,5.1095,-11.5747,-1.5744,-11.1977,-1.441,-11.8076,
12.1019,7.7099,-130.3878,-0.52949,1.367,12.113,3.3064,10.4994,0.94696,-7.9877,-9.1927,-10.5256,-5.2109,-12.0635,
16.9194,11.3447,-136.6645,0.70711,4.418,12.5911,4.3129,11.5562,-3.6896,1.8915,-11.2927,-5.7969,-6.1035,-7.2423,
16.8685,7.7715,-142.5646,-0.78111,7.5274,10.3898,1.162,10.3809,-3.9502,3.7062,-7.2407,-4.9669,-8.1475,-6.3258,
14.8921,5.377,-148.1107,-3.6268,6.5938,11.6946,3.9844,8.3118,-0.82109,0.1094,-5.36,-4.1867,-7.1767,-10.2846,
13.5164,6.0185,-153.3241,-5.3371,4.7517,9.5464,6.6376,7.3309,0.19227,-0.37932,-6.0025,-1.5254,-4.8177,-12.0779,
18.9724,6.6217,-158.2247,-2.6068,7.3591,8.9741,5.2755,7.8554,-2.2294,-2.2848,-8.5344,-0.95173,-4.0467,-8.9426,
27.2338,9.84,-162.8312,3.5754,9.0869,14.9434,9.5385,10.5173,-4.265,-6.2448,-5.8534,-3.5459,-2.5988,-8.1653,
27.528,10.2135,-167.1613,1.4327,8.5417,13.0824,10.8944,9.4044,-4.0091,-7.7983,-2.1278,-8.1537,-0.99661,-15.8701,
24.9124,11.0469,-171.2316,1.3467,7.0654,9.4054,7.8306,7.8762,-4.2505,-7.8123,-2.0001,-8.6286,0.99138,-14.9179,
24.3816,10.3841,-175.0577,5.1223,3.7489,10.2869,7.8427,7.8851,-8.8162,-9.2722,-5.2545,-7.6289,-0.51436,-5.3462,
22.9189,8.797,-178.6543,4.3328,4.97,11.5981,6.8899,9.3404,-4.4306,-8.2338,-3.0108,-6.689,-1.9295,-2.6146,
10.9387,3.9306,-182.035,-1.2296,1.2976,6.0817,-5.0924,5.8877,1.1377,-6.7756,-3.3124,-7.2518,-3.2598,-7.7606,
3.7742,2.4897,-185.2129,0.049266,-0.46773,4.5113,-6.9562,4.3294,-0.13567,-3.2358,-5.7649,-2.7193,-2.3415,-4.1617,
4.9943,2.822,-188.2001,1.9743,0.042502,7.1329,-0.7545,6.4795,-3.5018,0.33254,-3.973,1.7822,1.1736,0.90848,
2.7662,-1.2034,-191.0081,-3.9285,-3.3343,1.8849,-6.9755,2.2346,-6.6659,-2.5792,-6.1445,-5.0732,3.9955,-2.0383,
0.43127,0.073826,-193.6476,-3.4516,0.48097,-4.7359,-4.87,-3.9252,-6.5071,-5.0758,-4.0889,-6.456,7.3714,-1.6748,
3.7794,6.3359,-196.1288,0.12947,4.3085,-4.9341,4.5808,-6.0999,-4.6709,-2.3616,0.97673,-0.28432,4.0362,0.83579,
7.1685,5.2329,-198.4611,2.7733,3.3271,-6.8072,0.69098,-5.4929,-0.29282,1.8779,3.0877,3.3484,-0.78483,0.54468,
-1.2158,-3.5172,-200.6534,3.8117,4.8147,-14.3525,-5.3765,-10.225,0.44765,2.0062,2.1791,2.4244,-0.014839,-1.6572,
-8.3737,-6.1983,-202.7142,3.583,6.9359,-14.9376,-0.23318,-16.36,0.42079,-1.4886,5.4228,5.6531,2.8781,-0.11193,
-7.1479,-3.6572,-204.6513,3.127,6.2788,-17.1744,-1.424,-22.8502,3.0471,-3.0861,8.7129,6.5192,2.4645,2.0644,
-6.4781,-5.125,-206.4723,0.77026,7.1074,-28.4365,-4.954,-30.3972,4.5515,0.23212,7.9491,2.0307,1.1118,1.6996,
-5.6075,-6.2633,-208.1839,2.6522,5.7166,-31.0686,3.056,-31.4654,2.8321,2.6288,5.544,4.8012,1.527,0.63327,
0.75454,-3.2364,-209.7929,10.4468,2.2401,-26.5534,6.4876,-24.5163,0.010664,2.7116,4.0061,9.5743,3.6045,-1.092,
4.0837,-0.14971,-211.3053,14.6407,3.07,-25.4421,3.6887,-19.6709,-4.3283,0.62113,5.212,7.5541,5.7984,2.348,
5.285,-1.1051,-212.727,11.8341,1.4396,-24.3975,6.3594,-16.5624,-6.9607,2.994,7.7918,9.9931,7.8611,10.8842,
8.824,-3.4491,-214.0634,12.5701,3.7636,-21.4876,6.46,-14.1226,-4.1331,7.6348,7.806,17.5884,6.4248,10.231,
0.82277,-6.3757,-215.3196,12.0569,6.1888,-24.2957,0.046414,-22.1931,-2.1979,5.0076,2.7583,14.3635,0.49574,-0.26484,
-6.4572,-5.029,-216.5004,6.513,5.8173,-21.392,2.454,-24.7182,-0.62,3.7426,0.66439,9.1632,-0.98003,-0.73111,
