"AF3","AF4","F3","F4","F7","F8","FC5","FC6","O1","O2","P7","P8","T7","T8",
-12.0511,-8.6766,27.4771,26.9952,-10.6048,6.2665,-17.8357,34.7079,1.4463,-3.3745,-5.3026,1.9282,-1.4463,7.7128,
0.96426,-2.1307,39.9285,37.6673,-7.7996,12.8806,-7.3658,38.6508,5.4566,-1.4845,-9.0816,-0.35689,-4.9747,-0.22157,
0.42424,-4.4132,37.653,33.4793,-11.1883,8.2512,-4.5135,36.332,3.2012,0.53251,-16.7317,4.9674,-2.2658,-12.742,
-2.2528,-5.3537,28.8859,22.0705,-11.2399,6.5508,-6.8942,32.9468,-0.60625,-0.2228,-12.5947,6.8381,1.4851,0.31505,
-5.9738,-9.8525,20.8865,22.6747,-14.4216,4.7117,-12.2649,31.934,-0.087709,-0.20921,-8.9463,2.5721,-0.53199,14.3961,
-14.0515,-14.3231,14.0897,23.001,-21.5105,-0.63265,-16.1088,31.7052,-2.2516,2.4549,-13.4712,3.1407,-8.9362,2.5656,
-15.3775,-5.5099,20.2342,18.4879,-14.1943,6.3952,-7.188,37.7567,2.4628,3.9944,-5.6735,6.5676,-7.6767,-3.6139,
-16.624,-5.4203,20.2254,13.2813,-6.8347,9.6269,-4.5876,36.2146,3.5203,-3.2347,-0.75335,-2.2626,2.1839,10.703,
-16.1088,-5.5773,18.5297,15.3767,-3.5324,8.5671,-5.7584,34.5234,1.8626,-5.451,-1.1903,-4.0548,15.5505,13.0738,
-15.1422,-2.3501,17.8999,13.9717,-6.6949,7.0892,-7.3415,32.452,0.78697,-2.7138,1.2912,0.52684,9.7967,-1.8106,
-10.3773,-1.7272,17.3078,14.0977,-3.4007,9.074,-4.9728,27.6129,1.2217,0.82349,1.6962,1.4591,-0.43204,-2.0637,
-7.1034,-6.203,18.4387,12.5287,1.3829,10.6989,-1.0588,21.8585,-1.5029,1.0153,-5.3957,-0.79738,3.2091,-2.181,
-8.123,-9.6873,18.7787,8.8845,1.2999,7.6469,-0.51335,18.1369,-2.3766,1.9182,-7.4821,0.21433,9.7654,-6.3885,
-10.0462,-6.6959,16.2057,10.7615,-0.22434,0.92109,-1.9288,17.5306,-1.7521,1.3212,-6.5512,2.6116,10.6253,-2.1488,
-10.1663,-0.26813,11.6179,11.8035,-1.4162,-2.2672,-2.054,15.7558,-1.8879,1.4829,-10.7375,1.732,5.8909,-4.189,
-7.6284,-5.5549,8.9924,8.685,-1.331,-1.1675,-3.3768,13.364,0.6357,0.42982,-13.4674,-1.7461,1.6808,-5.3837,
-3.3138,-7.1498,13.2736,9.6101,-0.28679,-1.5794,-3.6562,14.9728,4.4539,-0.0779,-4.4647,-2.1233,3.5082,-0.24045,
-2.6333,0.02785,15.3695,7.587,-4.1262,-4.3769,-3.437,14.0742,3.2226,-0.073455,4.962,-1.0318,7.1538,-7.4566,
-5.6085,-1.1789,11.796,0.62456,-3.1555,-4.3551,-2.0253,12.507,4.7162,0.17215,6.8337,-2.175,12.7508,-21.1092,
-5.9949,-6.6518,10.8472,0.34566,-0.31507,-3.8528,-2.1452,13.9253,11.4231,0.40279,6.1827,-7.1061,12.2263,-17.3121,
-1.7788,0.014314,17.4273,8.0377,2.114,-0.72956,-0.088279,15.0185,13.6298,-0.58525,6.7756,-9.5723,5.2262,-4.7042,
-4.5646,1.4593,19.2737,5.6272,4.8796,0.27854,2.8095,9.2966,10.8838,0.41373,5.4052,-2.2491,-0.39001,-9.7246,
-11.7623,-7.0637,13.0558,-0.25377,4.3457,-11.0666,0.95397,-2.5891,10.472,2.5583,-0.46251,4.3936,1.8028,-3.1153,
-10.8159,-11.7018,7.211,1.4484,-0.49459,-23.6588,-2.237,-16.1723,5.7461,-0.24652,-6.9429,0.032398,-0.47478,4.0612,
-0.7669,-5.4561,10.8757,11.2435,5.0787,-10.9115,2.9589,-12.5509,2.2678,6.7577,2.3917,8.4661,-4.5436,3.0947,
-3.131,-7.0569,7.813,9.1226,6.2202,-2.0616,0.85318,-10.834,-4.6167,12.6192,0.80195,14.2251,-12.4662,2.909,
2.8414,-4.7053,7.8262,12.4316,7.7752,-4.3485,-0.16233,-14.0403,-6.2679,14.2722,-11.2973,14.3355,-11.7182,16.8344,
7.7324,-5.1461,4.2234,16.2657,7.5499,-5.7746,-1.3577,-22.1157,-14.3277,5.4619,-16.6452,10.3421,-4.9894,21.2475,
1.0017,-6.2834,3.9697,11.9151,9.0249,-0.60765,-0.79403,-28.9837,-13.4683,-1.1321,-11.7899,5.383,1.5768,5.8727,
-6.7709,-2.0502,1.3212,4.4515,8.9655,-2.0172,-2.1924,-34.9573,-1.5727,-0.1001,-6.7439,-1.6886,0.036119,-8.5797,
-9.7389,1.9294,-0.20366,4.6666,13.7305,-3.8242,-1.5787,-35.7521,9.6091,6.1726,3.3019,-1.1051,0.51611,-1.5572,
-20.4828,-8.0683,-1.8787,-4.531,11.7014,-5.2819,-5.0994,-42.0429,6.8634,2.6688,6.2368,-1.2798,-0.23775,-3.151,
-23.5926,-11.9228,-4.1765,-14.8645,8.1068,-0.14476,-5.7578,-49.1615,6.4511,-2.312,7.3089,-4.0955,-2.1521,-11.639,
-15.6691,-9.5202,-5.6132,-12.2854,7.8613,2.0331,-3.7251,-47.4169,7.2694,-2.4143,8.0752,-8.911,-2.7459,-11.1817,
-5.8111,-5.3338,1.7133,1.226,9.0771,-1.7041,4.4524,-41.4386,5.1457,1.8282,4.4574,-3.7968,2.9622,3.2278,
-2.329,-5.2545,-0.076295,-2.463,2.0245,-8.1093,8.2826,-47.8701,0.73965,-0.45069,-0.38933,1.4926,-3.2411,-9.2579,
6.9696,-4.9394,0.40999,-7.1357,2.3852,-2.8023,8.2678,-45.962,0.6955,-0.42388,5.4184,-0.52534,-8.349,-17.8617,
14.9873,-3.9199,5.9292,2.2103,2.4833,5.8018,3.1922,-35.2506,-3.4438,-2.0854,3.4063,-2.6632,-2.7866,-2.69,
15.5343,-0.31029,7.9836,10.7548,-0.55821,12.2021,5.8928,-27.3507,-4.6834,-2.9246,-7.8853,6.1737,0.75503,11.5714,
13.8791,-0.53287,5.3352,6.4938,-3.176,9.3006,6.2623,-27.3971,-1.2692,0.38409,-11.9917,8.9365,-3.3879,-2.3793,
15.4565,-2.911,5.9794,6.5861,-1.5392,0.54784,2.0302,-29.6097,-0.71064,3.2536,-5.9696,0.68756,-4.6308,-5.1291,
12.36,-5.8698,8.2717,6.9143,-0.24157,1.7203,4.5599,-28.0741,-3.8015,-0.55707,-3.9242,-1.0409,-1.2195,8.4355,
9.2082,-2.1432,5.8472,3.125,-2.1553,10.7761,5.2502,-17.7125,-5.5016,-2.4518,-4.1707,4.8061,2.2281,6.9651,
12.2709,4.975,4.2913,10.8915,-1.7852,13.2628,0.83761,-9.1782,-4.4484,-0.13534,1.623,5.2409,-0.55689,1.9677,
13.7038,7.3281,5.2392,18.1917,0.49105,9.8155,1.9926,-9.8328,-2.4942,-1.3325,7.0692,-2.5454,-3.175,-3.2121,
9.0252,3.9959,2.0323,8.4236,-1.9485,7.2983,6.2114,-8.7604,0.065543,-5.5909,8.0913,-9.6235,0.38992,-11.2141,
1.0121,2.0691,0.22335,3.8206,-0.14463,7.1016,8.0081,-4.6196,3.6768,-5.0147,8.329,-10.2512,4.4641,-4.9978,
-4.11,0.73992,-0.99511,8.1709,2.0334,4.0242,2.9481,-3.1374,3.6974,-5.4369,9.0343,-11.3231,5.8833,-7.3488,
1.6799,4.7926,1.7155,7.9214,1.1883,8.8442,1.5662,0.18412,5.6449,-1.4951,8.733,-8.9567,9.6278,-19.2004,
2.0611,6.9157,-0.79759,2.1439,1.117,15.5444,3.4004,-0.7908,3.86,2.933,2.9068,-1.1885,5.6757,-9.3715,
-6.0163,-0.97153,-3.8832,0.32757,-1.6011,7.6219,3.9193,-2.4306,-1.9152,0.58781,-4.2575,1.052,-3.1005,3.9652,
-1.5578,-5.4923,1.4117,2.4773,-5.1207,-0.30703,4.8892,4.223,-3.4873,-0.65252,-6.1714,-0.69811,-2.6737,1.076,
8.1764,1.1035,1.8087,4.2566,-4.8137,5.9777,2.6679,8.7901,-2.3144,-1.5775,-2.4269,-0.65645,3.2715,-0.43507,
8.4092,3.2069,-1.9148,2.3145,-3.3191,8.753,1.7849,6.5754,-4.8267,-2.2057,0.85219,2.0345,3.3162,10.4378,
6.6996,-1.0831,-1.0768,1.4525,-2.3973,-3.1006,1.9185,2.5657,-2.3677,1.5418,3.4524,1.6712,-3.8724,6.1958,
7.5025,-3.6692,0.19266,1.6063,-4.4226,-4.1199,3.0087,-0.23977,-2.4666,3.6185,4.9325,0.36566,-5.8092,-8.2759,
8.0166,-2.0032,2.1093,1.9918,-3.1934,1.9119,6.6846,2.1852,-5.693,2.437,5.1185,-2.0664,8.6393,-6.4538,
3.4381,-0.67797,3.1878,1.6311,1.5777,0.5921,6.5242,7.1155,-2.7001,-1.3244,0.71376,-6.04,19.3282,-4.8615,
-0.86558,-1.8421,1.3093,0.81037,2.6884,1.7619,2.0354,6.9296,-2.7791,-4.8603,-3.4264,-8.8106,4.0685,-14.4518,
6.176,3.8118,9.1847,7.7514,7.5885,9.1277,9.3849,10.6109,-1.4073,-1.9174,0.39436,-5.6311,-4.7318,0.51535,
1.9491,0.69102,2.3671,2.948,-2.9897,-1.0609,3.5196,8.5285,-5.6612,-3.7305,-5.8954,-7.221,-1.0734,10.2463,
-0.096316,3.5418,-0.6672,5.6634,-4.7387,-3.4076,-3.4403,8.9809,-2.4292,1.7957,-4.578,-1.4853,3.3296,6.7388,
-1.7775,5.4983,0.095963,7.493,0.1251,0.41251,-4.9213,4.3444,1.8137,0.96529,0.75859,-0.67307,2.4067,-4.0296,
-9.8658,5.1686,-3.7664,0.29473,2.046,-2.0226,-4.6258,-3.1469,7.9716,-1.021,7.4618,-4.4893,5.6365,-13.4288,
-15.0584,2.9303,-6.4325,-3.5793,-0.0049384,-5.7576,-3.8663,-8.2607,9.9034,2.4147,12.3167,-3.738,2.4062,-15.9973,
-6.9239,-0.13782,-4.1186,2.9022,-5.7895,-4.93,-5.0804,-6.801,4.0068,3.7158,12.0594,-0.13905,-3.041,-6.3606,
-3.6161,-4.4681,-3.3893,2.2459,-7.852,-7.0446,-7.6678,-5.9107,-1.0541,-0.84522,6.5158,1.3153,-0.93014,-0.19415,
-0.74832,-1.5487,-2.4633,-0.058275,-2.8018,-5.8988,-2.1463,-5.3153,-1.714,-2,5.8832,1.9595,0.33073,-2.3519,
7.0098,3.3645,-1.3511,2.8377,-0.22311,0.23974,2.8032,-3.5502,-3.0574,-0.9157,6.0126,-0.56816,-2.5816,-3.657,
7.5531,-0.21138,1.6224,2.1855,-4.548,6.0099,-0.25753,0.51923,-2.874,-1.8251,3.2417,4.7681,-2.9087,10.0597,
3.2437,-2.1271,1.5249,-2.2841,-7.1679,6.6134,-1.6881,3.8628,-2.2194,-1.2334,2.5651,11.2312,-0.80572,23.5562,
3.0489,5.2311,0.95121,-1.6654,-1.435,2.8419,3.7156,2.6664,-4.0146,-2.6059,1.4471,3.3262,5.9908,11.4172,
7.6864,8.2919,5.7146,2.7731,-1.831,4.1179,5.4206,2.0247,-2.3272,-2.9313,4.2525,-4.104,8.0417,-1.3191,
9.6356,-3.293,9.7103,5.0171,-10.398,7.727,-2.6172,5.7594,-4.598,-1.3093,3.0333,-0.4835,-6.4203,7.9193,
5.9242,-5.7463,12.2614,6.8854,-10.4973,4.1301,-7.5216,9.9934,-7.4553,-0.025722,3.0925,1.233,-10.1322,2.8646,
1.2304,4.7214,19.7204,5.026,-3.6005,2.4365,-3.6958,8.9118,-1.2234,-0.50611,8.2096,-2.2155,0.59911,-8.8764,
-1.9769,4.679,27.4553,-0.81914,3.123,5.9057,2.5515,2.3516,4.3936,-0.23478,8.9218,-0.39531,6.5887,4.4306,
-9.3303,-3.5557,31.8333,-11.1341,-0.1976,-2.885,0.22899,-7.1897,-1.8958,0.98437,-1.0137,0.83347,2.0958,7.2976,
-7.8061,-1.4141,42.4568,-9.5017,-3.0783,-6.5678,0.69764,-4.8302,-0.33581,5.746,0.01144,3.1936,1.0057,-5.6733,
-1.7942,-2.0522,47.3812,-4.3523,-0.72441,3.2258,-0.54951,1.4856,1.8535,2.2678,5.5544,0.83282,-5.0802,-4.61,
-2.8918,-1.2062,46.7074,-2.8859,2.9345,9.5402,-2.2038,9.3502,-3.3189,-1.4837,5.4621,0.54188,1.2502,3.1384,
-8.5029,0.79441,47.7614,-5.1233,-3.99,2.7013,-0.62528,15.0557,-5.048,-0.43036,-0.1683,0.9913,9.3703,3.4325,
-5.1004,1.2289,47.788,-5.78,-6.6434,3.9852,-0.58799,16.0808,-0.40702,-1.3686,-0.15797,-1.9605,9.7722,13.8311,
2.1955,1.8785,46.126,-4.2279,-4.0752,5.9153,-4.6501,11.9825,-1.5874,-3.9381,1.0563,-1.6019,7.4987,16.1348,
7.125,5.3808,48.4201,-1.3232,-5.0359,1.463,-0.75564,10.5406,-2.2155,-1.0502,1.7163,5.966,-5.2438,1.0667,
5.2517,4.576,39.2479,-0.27944,-7.6259,1.3752,2.6642,10.3901,-0.63635,-0.50529,4.5054,6.0905,-12.1595,-3.9383,
-3.4991,-3.1699,22.7931,-3.8781,-8.8555,1.5337,-4.0032,8.5619,-2.2854,-5.5362,7.851,-3.675,-1.548,5.2161,
-9.5561,-2.9802,10.6999,-2.1991,-3.5039,2.8879,-3.763,16.7248,-4.5584,-4.7221,7.8618,-6.347,9.6321,7.3132,
-12.8391,0.57309,3.7914,-3.0315,-6.1862,3.1966,-4.5015,21.5059,-6.6955,-1.5467,4.9795,-2.5922,6.6436,4.4643,
-9.6587,-0.42516,0.18949,-5.7417,-4.8507,3.4872,-5.1953,21.6618,-0.026781,-0.0076384,9.5015,0.45589,1.9066,0.822,
-8.356,-3.051,-2.9551,-4.6741,0.50223,2.5548,-3.1966,18.1927,1.1799,-0.73031,10.1365,-1.7404,0.58718,-5.2526,
-3.998,1.4702,0.59639,-1.5013,1.9181,2.8832,-0.59444,12.7626,0.145,0.27761,9.528,-0.67188,12.1213,1.3288,
-6.6509,-1.9923,-3.7779,-12.0168,-5.428,-4.0384,-5.3797,2.3557,3.0286,-4.5595,5.5821,-2.56,10.9114,-3.0895,
-6.4926,-5.9698,-11.5048,-12.0184,-7.7532,-4.0369,-3.8514,4.3842,10.3189,-0.18838,6.9347,0.72687,-3.8433,-1.6986,
-8.2722,-6.8169,-17.8044,-3.826,-11.3858,-3.5541,-10.1283,11.1105,1.7456,-1.3824,-1.9176,-2.4502,-17.7127,8.7672,
-4.1607,-3.2747,-14.0848,5.3219,-11.4254,-1.1715,-14.582,22.2543,-1.4924,2.7982,-4.9358,1.3124,-7.0085,10.8925,
-5.3573,-7.4165,-19.5067,2.11,-14.1147,-6.4039,-11.297,19.4727,-0.92094,6.4867,-4.1577,1.7156,-5.1417,-3.7408,
-5.2766,-6.7308,-22.4334,-4.0419,-14.9549,-9.6348,-7.4859,6.9764,-0.62448,4.41,-2.7032,1.8539,-13.2691,-3.7571,
-1.3446,-4.1578,-19.4002,-8.861,-11.8884,-9.7796,-7.7596,-0.43205,-0.34605,-0.43389,0.11059,1.0193,-7.4117,4.904,
2.5925,-1.9797,-17.7542,-6.4012,-4.4262,-5.8184,-1.5095,1.5221,-0.32529,-0.40786,3.4784,-1.9339,6.5308,-5.9951,
4.1242,1.7545,-18.3762,-2.8836,-0.063271,-0.89001,3.1608,6.01,0.89952,-1.5887,5.4389,-4.469,7.3438,-18.8917,
5.5637,3.8182,-19.443,-3.4342,0.66366,2.2966,3.2119,16.0135,4.4607,-5.5909,9.2097,-5.8883,-0.086504,-11.7329,
4.7477,4.0713,-20.6863,-3.7099,0.62406,4.0873,2.0551,24.212,3.229,-3.809,8.1754,-3.6066,-0.081544,0.058505,
-4.6957,2.3807,-21.8553,-2.5229,-1.3416,2.8777,-1.4422,17.4566,1.1071,-2.1342,3.8285,-1.462,8.1185,1.9832,
-15.2605,-3.3055,-25.6059,-6.4691,-8.2512,-4.7665,-5.4532,5.0808,-1.6107,-4.6575,-0.016896,-5.9538,6.4263,4.5155,
-6.6321,-5.9997,-27.444,-4.1528,-10.1662,-6.4087,-0.78773,7.1865,-2.4779,-1.486,-0.015882,-5.1146,-4.0826,9.5472,
7.8659,0.14465,-21.4588,3.8089,-5.2177,1.2064,1.1875,18.8062,-0.40127,1.4955,-0.015158,1.459,-8.6581,-0.6668,
20.7708,7.3668,-13.9047,9.8473,-2.9765,5.9543,-2.2582,26.8369,-1.3411,0.44189,-4.3526,4.2635,-5.2461,0.33708,
15.427,9.5761,-19.5782,9.0153,-9.3056,4.8739,-3.3278,25.9498,-5.8401,-1.2721,-9.1529,0.87444,-3.7263,14.4169,
10.8864,6.8324,-22.0189,3.8946,-9.9525,3.8586,-1.4409,21.2593,-1.3924,1.4558,-5.9526,1.0629,-5.6719,15.3596,
8.7867,1.602,-20.6975,1.733,-6.4631,3.6268,-5.693,20.4659,0.13722,0.40436,-2.7032,0.9994,-6.778,9.6175,
3.4392,-1.3862,-24.7583,-0.29917,-9.4498,3.8916,-10.1717,19.7204,-2.2811,-2.9944,-1.0947,-0.024893,-2.0326,10.0048,
-3.7568,-2.0262,-25.9241,-5.3427,-8.1596,1.0068,-4.4999,11.0651,0.025118,-1.6096,3.5505,1.1817,4.1147,-2.8878,
-6.4239,-2.8689,-22.4405,-10.8071,-3.3317,-5.3206,-1.8198,4.6166,-0.94071,1.8614,2.3731,-0.81743,4.8321,-15.73,
-4.11,-2.6966,-22.0582,-7.7479,-3.1316,-6.4469,-2.6742,7.7138,0.56176,0.30368,0.30279,-6.0708,4.06,-5.145,
-3.8632,-0.60634,-22.6626,-4.3907,-4.3897,-2.6859,-1.5497,9.6614,4.8671,-3.5712,0.76678,-7.1526,4.2986,-5.3184,
-1.2213,-0.56996,-21.7848,-4.6092,-4.1264,-7.8274,-1.9386,8.5997,3.1288,0.4995,2.167,-0.93885,-1.7439,-14.1584,
0.29781,0.4281,-18.55,-1.923,-2.433,-16.0348,-0.37652,9.5296,6.315,8.6642,4.9291,2.9739,-5.0137,-3.186,
2.2081,2.3306,-14.5445,-0.8433,-1.8046,-7.8419,2.0562,9.9221,16.059,9.1087,5.5977,2.7954,-7.123,-1.5485,
6.4142,-3.1116,-19.4562,-8.9876,-4.1067,-6.4073,-2.4053,4.0244,8.3473,0.36725,-0.040621,1.6636,-16.8188,-15.5556,
8.9219,-2.443,-20.6994,-7.9664,-0.96777,-15.1819,-1.779,0.40846,-1.795,1.3095,-0.038643,2.5277,-8.5788,-16.9119,
0.43259,-3.5015,-16.3242,-7.2473,0.7773,-18.8505,-3.8417,-8.052,-0.48176,1.9541,2.615,-4.1317,-2.5207,-1.7972,
5.7093,0.56498,-5.7033,-4.8842,13.7461,-10.9706,2.6554,-7.0869,11.5982,8.1034,8.2431,0.45498,-0.44125,3.2518,
8.9821,-1.1561,-12.8334,-6.7603,17.0187,-18.2661,3.7013,-13.6516,5.3587,4.9656,-1.1695,1.6325,-4.0302,-11.0433,
7.4787,0.84119,-12.0631,2.8041,17.4436,-17.6523,2.9971,-19.0992,-2.1939,3.2216,-5.9203,1.5348,-1.378,-24.4807,
7.2709,5.37,-2.4217,9.6257,19.0481,-11.05,4.9864,-22.0506,-1.3389,3.2693,-4.8417,-3.619,-1.5363,-19.8791,
12.6195,9.3868,-6.6145,10.0123,19.8336,-10.8687,6.1337,-25.5476,0.66989,2.1091,-4.069,-6.7761,-1.9263,-18.2039,
6.8011,10.5104,-14.6538,9.6525,18.8845,-9.9756,2.1503,-32.9328,-1.0575,-0.66858,-5.0302,-8.0567,0.35844,-17.8348,
0.12603,9.3978,-10.882,8.5914,14.8594,-3.1105,-0.38933,-35.2956,-0.51215,-0.62846,-2.8002,-11.4297,1.3013,-19.1751,
3.4929,6.4238,-12.1573,7.1116,12.5216,1.4149,0.11643,-32.6955,-0.96335,-2.037,2.1885,-7.3695,-0.70501,-15.1323,
6.1756,5.5562,-16.7303,5.7208,12.2525,2.776,2.0374,-32.6622,-0.90578,-1.4326,6.3953,1.2676,-7.8933,-0.12435,
0.26149,2.0898,-17.4137,-1.6119,9.8301,4.2967,0.22793,-36.2461,-1.5743,6.1251,5.7706,3.3607,-12.9633,12.5371,
-7.7082,-3.5794,-18.5383,-7.5409,8.0352,5.7259,-0.50887,-38.1689,2.6172,13.2292,5.1832,9.1844,-11.4629,7.2053,
-8.451,-5.5343,-17.6669,-7.3294,7.7941,5.1413,2.6551,-36.6019,10.414,12.6764,10.8982,18.9977,-3.3033,7.9779,
-9.8719,-8.094,-17.571,-9.3,6.3623,0.012382,5.8701,-39.7082,5.451,8.0597,8.7983,10.6267,0.75153,5.5712,
-3.495,-6.6445,-12.1784,-2.4755,7.4268,0.011639,8.4104,-36.8435,0.78518,8.058,3.9316,1.3125,-2.668,2.8268,
0.089166,-4.7996,-9.5195,2.9757,6.9812,0.010941,5.0137,-34.6329,4.5949,8.0569,3.6957,3.1619,-4.4361,-4.5736,
-4.4959,-5.7169,-10.6356,-5.6385,6.8033,-1.6769,3.9895,-39.0627,7.4523,6.3678,3.7149,1.285,3.3018,-15.6276,
-2.7799,-2.9633,-9.5151,-7.2284,6.3951,0.35187,7.1246,-34.3085,8.4514,6.4681,4.9383,-0.7203,1.1755,-7.4589,
4.6177,2.5171,-7.4984,-1.0101,3.1189,0.81315,6.2152,-27.9117,5.0522,4.1518,4.642,1.733,-12.995,-4.6012,
6.9922,3.089,-2.9506,1.2196,4.619,1.9692,7.0471,-26.478,3.5438,-0.67658,-1.1801,-1.022,-10.8897,-18.4252,
0.30616,4.3499,-4.7018,3.557,8.6806,6.1898,6.1423,-18.6226,5.2594,-5.4567,-6.8934,-7.7092,-4.4513,-15.0298,
-0.67676,7.9451,-7.312,8.646,8.6415,13.049,4.8097,-6.418,5.9079,-4.1652,-4.0699,-3.3904,-5.6307,-3.5229,
3.2207,5.0583,-7.3557,6.1991,4.2666,13.2304,4.5211,-5.551,1.2151,0.42303,-3.3438,2.1156,0.49169,-10.0602,
5.4373,3.3087,-6.9141,2.4525,2.5646,10.5082,5.6959,-9.0741,-0.78622,2.3261,-6.9993,-1.8679,3.8369,-3.672,
3.6653,5.0384,-4.571,1.8234,6.2671,8.9138,7.7647,-9.4939,-3.6311,-1.6699,-9.4714,-2.2378,-6.9986,10.6483,
0.070932,1.8436,-9.5994,-0.69616,3.9629,5.4865,4.4063,-7.478,-10.6441,-3.9803,-4.5653,7.0555,-8.025,8.4429,
3.2002,1.9744,-11.1926,1.9967,-1.3361,8.2908,2.4547,3.8169,-3.9799,3.7308,3.6628,13.6221,0.89266,14.4438,
2.767,-0.7954,-10.7623,-1.7383,-9.2099,3.6957,0.1385,2.8648,-0.60784,0.37371,-4.9928,4.3688,-6.6329,20.0849,
4.2879,-0.024546,-8.911,-0.42893,-6.9703,2.2689,4.2273,1.4878,-5.1509,-0.85378,-5.8983,5.7937,0.27275,11.8901,
1.3793,2.1459,-8.6175,0.31994,-5.347,3.3379,3.2505,2.1217,-11.3495,1.3664,-0.48299,8.0974,12.0667,1.7769,
-1.1133,3.4631,-5.2082,-1.6277,-4.5441,4.1017,1.1275,-0.41599,-7.2939,-0.16163,-2.3824,2.3091,6.5223,-3.6325,
2.5687,3.9785,-1.2805,-0.3245,1.2724,4.5787,4.1932,0.3321,-1.3129,-2.8033,-5.3727,0.48313,0.58753,-3.1734,
3.6194,2.5345,-5.301,-1.0284,0.95466,3.5806,4.6645,3.4452,-4.3676,-4.3223,-2.8812,0.21318,-2.0993,1.5963,
6.0535,1.1773,-6.6704,-1.6898,-5.6103,0.23254,2.2152,5.4079,-0.97227,-4.3041,2.8355,-1.0047,-5.1066,8.0082,
7.1368,0.625,-2.4136,0.34,-4.3096,-4.6019,1.6006,4.6012,6.7991,-3.0818,2.6651,-5.2829,-4.318,3.6716,
4.2983,2.9979,-0.82228,3.2119,-1.1583,-5.2899,3.433,4.8073,2.0526,1.9236,-2.3153,-1.5913,-0.20278,-1.3692,
2.8351,4.5048,-0.53198,4.224,-0.36589,-4.2491,3.9499,7.17,-4.0961,6.8699,-4.8274,9.8319,3.4248,1.364,
1.2189,3.7528,-2.4285,3.0065,0.62016,-6.4045,3.7127,6.74,0.0062561,7.4218,-3.5737,11.6524,2.7372,1.7644,
-0.54166,3.2864,-1.5596,3.5492,-1.5864,-6.2615,5.1769,0.79177,5.5493,8.1815,-2.1542,8.3019,0.40354,4.7918,
-4.3653,-0.28547,-0.98436,-0.037964,-7.2761,-8.2961,1.0101,-6.9687,3.2879,5.2803,-0.57892,6.8397,-1.5486,11.2529,
-1.4521,1.4191,-0.20217,1.1694,-1.778,-7.5572,-2.6661,-4.3812,5.26,3.7584,5.4816,9.0806,-1.6969,13.711,
3.9375,3.2619,2.7022,3.5096,2.6672,-2.7652,-0.57773,-3.1543,9.7649,4.9789,7.0807,9.018,-0.14861,-0.1273,
-0.39591,-1.9952,-3.0033,-6.1012,-4.9644,-6.2149,0.18007,-12.8467,2.1893,1.065,1.1124,-0.92335,4.9218,-14.2197,
0.10978,-0.91119,-2.3411,-4.2889,-3.2203,-5.842,4.99,-10.6301,0.1298,-2.8553,5.8664,-6.6525,7.5185,-6.7381,
2.2721,1.3124,5.2714,2.4761,3.4802,-3.3221,4.9313,-6.3771,3.7372,-2.4432,6.719,-2.1558,1.524,-4.6468,
4.5462,1.2339,3.5091,4.7379,1.3434,-3.605,-0.18505,-4.0661,2.0669,-1.3321,1.9778,4.7222,1.9147,-10.6343,
8.6119,-0.76856,-1.04,4.4534,-6.4498,-5.799,-1.138,1.9627,-4.3238,-3.6625,1.8589,2.5109,0.83576,-5.6581,
8.8183,0.0006829,3.1195,3.9455,-3.8938,-3.7636,-0.34663,5.4601,-3.8232,-2.7201,1.0242,1.6367,-3.7939,7.4561,
0.81744,2.6522,5.5839,1.5396,1.8834,-1.8506,-3.9413,-2.8212,-2.3885,2.9872,-5.0628,5.6363,6.3157,8.6959,
-0.67786,4.4213,6.2132,0.00096,2.7347,-3.1858,-4.6686,-9.8828,-3.2095,5.7,-2.3484,8.6726,20.0367,0.46139,
-3.0473,2.7097,3.4302,-4.3374,-0.32141,-4.9228,-2.9423,-8.8074,-1.0888,2.9479,6.4696,5.2597,12.4478,-4.387,
-7.9262,3.27,4.4293,-6.7287,-0.54355,-1.494,-3.0072,-3.2177,9.8228,5.904,12.5889,5.1851,0.85417,-3.4009,
-8.6557,2.3507,5.3686,-2.2274,-0.75214,-3.0918,-6.4419,-4.2297,10.4385,4.8267,9.1822,6.079,2.4904,-2.4737,
-9.1002,1.7277,2.6363,1.2807,-4.5634,-5.3164,-6.0554,-4.4579,4.5096,2.6093,8.1494,3.7861,4.2691,2.0135,
-7.5903,4.9985,4.8883,2.1677,-3.8077,-3.0692,1.0564,0.1479,7.6134,5.3448,9.5881,1.6307,0.63854,3.3385,
-5.2067,2.2885,4.595,0.59138,-2.6149,-7.2234,-1.8991,-4.1993,2.8179,1.1678,2.2644,0.086643,3.0104,-6.9847,
-0.073578,-0.25941,0.94483,2.0022,-4.3862,-7.7543,-5.1596,-5.3936,-1.6895,0.13336,-0.28205,3.4559,9.0967,-5.1194,
6.9205,-0.48459,0.6474,3.5695,-6.7743,-6.5659,-0.27049,0.47386,1.0636,0.36702,1.4223,2.5259,-2.7775,-4.0891,
10.6026,-1.6608,2.2958,0.22183,-7.5727,-7.3768,-0.49523,3.5785,-1.1698,-3.7528,-2.7604,-2.2054,-6.2263,-12.2799,
4.4231,-3.7301,0.47058,-3.4071,-8.8058,-8.1397,-5.045,3.6049,-4.7148,-2.3226,-3.3179,-6.1707,5.4757,-13.712,
3.4343,0.10868,4.5397,5.2334,-3.6982,-3.0716,1.2832,8.4499,7.8601,5.7705,9.6557,-5.0771,6.352,-10.2382,
4.6745,3.4766,5.7131,4.919,0.38012,-0.95957,2.6525,3.6046,12.6912,0.12163,11.4864,-6.2187,2.5964,-8.1781,
-1.1496,3.027,-0.17282,-4.7757,0.59873,-1.1425,-3.5322,-1.6729,4.4579,-3.9826,1.8792,-2.2302,5.0922,-3.5896,
-8.3112,2.3637,-0.16222,-0.63255,-3.2938,2.3003,-3.8024,8.5506,7.0827,6.8615,6.5874,9.473,-1.4801,1.4463,
-10.4641,-0.42966,1.0523,4.9486,-5.7473,0.47503,-4.2977,13.0988,9.3088,7.1727,9.8071,11.0738,-8.3811,5.9388,
-3.3285,2.2474,1.7123,2.4823,-0.34098,1.1697,-4.7629,9.6615,6.099,2.6447,8.0136,7.7581,-0.40624,13.5364,
-2.6467,-0.77969,-4.6571,-5.8612,-4.1771,-1.3109,-9.7796,8.5997,-2.4614,0.075687,6.5687,1.5078,-0.86403,13.2064,
-6.3442,-6.9999,-7.7522,-5.9919,-12.6036,-6.5349,-11.6029,12.422,-9.0627,-5.7134,2.8001,-3.4034,-2.7404,12.414,
1.9899,-2.9642,-4.1538,-2.0167,-8.7137,-3.0095,-4.399,14.328,-9.724,-7.0576,-2.9113,-2.4761,6.8238,10.946,
6.6915,-3.2685,-8.2427,-7.6805,-6.7448,0.063336,-4.1353,7.684,-13.4791,-7.5983,-8.5214,-4.2555,6.4146,-3.2083,
4.6028,-0.90327,-6.5428,-5.0501,-8.9912,1.2648,-4.6101,11.8027,-12.9113,-6.419,-7.7687,-5.205,-1.4421,-2.7744,
6.2546,6.382,0.11605,8.2681,-8.9339,3.5993,-2.8875,23.1454,-7.7981,-8.4447,-7.7847,-6.8211,-1.8377,7.5148,
8.7716,6.4808,0.10932,9.2181,-4.0593,2.4192,-0.7858,20.7926,-9.2586,-11.3122,-8.7641,-11.7147,-1.2453,-3.0593,
12.3429,4.4049,5.6461,4.0855,1.7276,1.551,3.8409,14.9655,-6.5337,-0.2694,-2.2125,-9.3244,-0.44744,-13.2398,
5.8177,-2.6083,1.451,-1.9442,-6.0888,-4.3267,-1.2103,9.7292,-1.8034,-2.1814,-3.0441,-11.1755,-4.277,-10.5172,
2.0944,2.3687,4.7382,1.5466,-0.90301,-0.69286,2.7189,13.966,6.9817,-4.9428,1.9595,-4.7202,9.4772,1.2013,
-2.37,-3.558,1.5618,-6.7409,-4.7052,-5.4715,2.0739,6.3796,-1.15,-5.1282,-1.5325,-2.9907,11.3187,-3.6915,
1.3878,-11.2985,-3.1114,-10.9159,-13.8231,-9.2408,0.26198,2.3811,-9.0349,-3.1335,-4.5743,-1.1243,4.1319,-2.7469,
3.4737,-7.0052,-4.612,-5.1993,-15.1629,-4.1071,-7.7075,7.3,-10.662,-5.5966,-3.5765,4.0049,-1.1777,8.7461,
2.5422,-0.55907,-3.6121,-0.30783,-10.1555,1.2008,-11.3426,13.3697,-7.371,-6.4659,0.25331,4.4877,-2.794,13.2828,
-0.020949,-3.418,-1.4672,-4.1457,-6.6542,-2.2457,-1.503,14.0133,-0.66218,-4.1497,7.4689,-1.0842,-2.1445,6.2193,
-4.5987,-7.792,-4.0305,-6.0664,-6.4956,-4.2799,2.6847,11.0036,3.4751,-6.0701,10.6365,-0.77795,1.5999,4.1592,
-3.118,-5.1553,-5.9578,0.32314,-5.8649,-3.3002,-3.9843,9.1381,3.99,-5.9469,7.8291,0.95596,6.0831,8.007,
2.6129,0.69782,-8.2517,5.3657,-7.682,-5.7531,-5.9142,10.7592,3.9918,-3.4207,4.708,-2.7166,4.0312,5.3571,
1.974,-0.3086,-11.6132,3.1153,-6.7393,-8.7826,-2.1851,12.524,2.3058,-2.2513,2.4971,-0.1437,-1.5136,-1.713,
1.6148,-0.048887,-8.2651,1.2414,0.65511,-4.158,1.5617,10.0851,2.4086,1.4989,-1.2679,5.8907,-2.1459,-4.2615,
-0.89266,1.8822,-6.8048,-2.2076,0.13341,-1.4984,0.98558,4.1778,1.7822,1.8909,-4.0843,-3.1398,-0.088952,-8.8261,
-1.803,4.6618,-3.5045,-2.0751,2.536,1.484,4.7828,4.409,5.5316,4.67,0.49951,-8.736,6.6653,-9.7428,
-0.97166,4.6229,-3.535,-4.6019,2.6246,-1.7383,5.219,1.4932,3.0303,2.2204,-1.6999,-6.0425,2.1678,-7.4712,
3.9071,4.3457,-7.179,-5.7718,-3.3173,-8.8646,2.014,-2.9345,-4.3821,-2.2509,-6.4183,-2.3057,-3.2647,-9.4328,
4.3958,4.8076,-8.4357,-5.1848,-4.3237,-8.5739,-1.2405,-0.5895,-5.8066,-2.3571,-7.2383,-0.48037,0.54638,-8.1442,
1.7217,3.0732,-7.4479,-4.3915,-4.0641,-8.5416,-2.1302,3.302,-4.4941,-1.2515,-5.8399,0.99494,-1.8963,-6.6914,
3.3056,1.2015,-4.8314,-4.8514,-7.4357,-15.019,0.16677,0.45281,-3.5016,-2.3817,-5.7309,-0.75198,-11.183,-10.8692,
4.3121,1.8528,-3.3367,-1.9088,-6.2666,-12.9126,-1.5305,0.18468,-2.0862,-3.4437,-5.1457,0.01604,-8.8248,-2.2633,
1.1611,3.1877,-7.957,3.5082,-1.5521,-7.3174,-5.7772,7.8861,-0.99692,-1.791,-2.427,1.4611,-1.5462,9.4418,
-0.11338,5.1656,-14.4694,8.8413,-0.25366,-6.1554,-6.6354,9.1002,-2.1424,-0.96065,-4.4506,0.65054,-1.2124,5.7419,
-4.9275,4.8559,-16.0111,4.9366,0.72566,-9.6422,-8.1657,-1.087,-2.4956,-1.3852,-7.0758,-1.3169,1.2702,-3.7615,
-6.3189,5.7696,-9.989,2.9534,11.5282,-10.7512,-2.1319,-6.5652,0.3055,3.7598,1.3027,-0.9967,5.774,-4.7408,
1.7733,5.4232,-3.1229,6.1504,18.5495,-8.1777,6.1909,-10.5098,5.1077,8.3547,5.5631,-1.901,1.089,-5.9029,
7.9336,4.1337,2.8488,8.6737,17.9187,-8.1692,6.7836,-23.3763,5.2829,4.4788,-3.93,-2.2691,-3.7968,-10.8511,
5.0472,5.3317,4.6063,7.1892,17.8072,-15.392,3.9662,-34.0253,-0.33649,-3.0206,-10.4428,-2.1327,-2.6054,-23.6976,
7.6367,4.5301,0.47329,4.8294,14.8108,-14.4683,4.6923,-34.3939,0.16586,-3.3215,-3.5495,-5.379,-1.4845,-27.0963,
13.445,2.812,-1.4833,5.022,12.9583,-5.4055,7.7853,-37.6329,3.5304,-1.6759,2.93,-6.5025,-1.3954,-13.4192,
13.1205,3.6074,-4.2861,6.1667,16.5193,-2.6708,6.836,-41.6415,1.8725,-3.9853,3.7187,-1.2919,-0.82954,-7.3114,
5.3436,3.6321,-8.6089,4.1097,11.9125,0.14078,0.88197,-35.0456,0.55464,-2.0592,3.2544,6.2572,-1.9853,-2.2932,
-1.0028,2.6911,-3.0305,4.1043,7.1006,10.0145,-0.37555,-25.4711,6.5471,6.9822,5.2285,11.9076,2.2314,11.9444,
-1.1836,-2.0501,-5.5002,0.72414,4.023,10.1365,-3.0046,-30.4508,3.5028,6.3223,-1.1112,6.1314,6.6768,18.82,
7.5641,0.9654,-7.0984,3.0913,7.6381,10.4927,1.514,-31.9979,2.3287,5.943,-5.3828,7.6917,4.8299,3.5908,
7.3516,2.5947,0.79931,3.6287,8.867,9.6221,7.9311,-30.3188,4.8406,7.7556,-9.6392,11.328,-3.8955,-8.314,
5.2231,1.7159,4.3665,1.724,10.022,1.5728,6.7321,-30.1871,2.8627,6.5671,-9.302,5.5865,-4.3849,-3.2361,
9.4895,2.8182,0.48959,-0.066682,9.6616,-5.0291,3.6766,-35.3655,-0.92452,0.14752,-7.0567,-3.6663,-7.2549,-6.6574,
12.5353,4.8181,1.6653,0.66045,6.4306,-1.5941,5.6254,-35.413,0.33602,-2.0307,-5.4282,-3.6876,-11.8815,-4.0885,
10.3371,1.6367,3.4933,0.62059,4.1168,-1.9806,3.8419,-29.9138,1.7623,-1.9086,-1.2459,-2.9841,-6.3476,2.9054,
3.9323,-0.87163,4.73,0.10142,3.8698,-4.7543,0.23691,-24.2626,1.6561,-2.7585,4.613,-4.7333,3.6737,-2.5715,
-1.8475,2.3139,5.1693,1.7823,4.3607,-0.85337,3.356,-19.6733,3.7262,-4.2799,8.4338,-3.7262,6.1046,-11.8172,
-4.3877,1.9341,1.7257,3.3626,5.3039,3.7771,6.2881,-17.2879,7.118,-5.2284,10.0969,-4.7079,3.5692,-7.0108,
-6.5348,1.3359,0.65803,2.6792,3.5397,3.0688,2.5366,-13.8402,4.763,-2.0224,3.2248,-2.0151,1.909,0.64064,
-3.0092,8.2456,1.8238,2.7594,2.6044,5.5358,-1.713,-9.3944,2.308,5.5707,-7.333,8.4702,-2.3029,1.3256,
3.4376,10.1612,-0.69594,4.5218,6.3043,7.614,0.7997,-7.3849,3.1332,7.1649,-6.4108,8.4437,-6.5033,5.5841,
8.5345,4.7313,-2.5824,7.143,2.0701,9.0853,1.2341,-5.0132,-1.3927,-1.4597,-1.6874,-1.7039,-4.6668,10.0698,
15.012,3.7239,4.0803,9.3657,-6.0085,9.7453,-0.045455,1.7949,-7.8173,-3.5415,-4.7199,-1.3609,-4.1461,8.7425,
11.2188,3.5009,3.8355,3.0192,-6.6119,2.894,-4.381,-1.2049,-6.3839,1.0093,-5.883,3.5414,-10.1638,1.9514,
-1.5057,-0.083857,-1.2152,-5.3569,-9.1075,-3.5463,-8.9387,-10.2916,1.2297,1.9128,-2.1553,0.43665,-10.5181,3.2804,
-3.5842,0.6443,-1.8654,-6.2405,-12.1762,-3.0924,-9.6074,-5.0944,5.7355,0.11107,-0.82091,-1.2765,-6.2713,5.2529,
-3.1282,0.84661,-1.9944,-6.1075,-10.7227,-0.25574,-7.3442,2.6826,7.5605,-1.5828,7.664,0.96921,-7.1004,-4.4627,
-6.315,-1.6143,2.4636,-7.1869,-5.2587,-1.2043,-2.0828,3.486,9.0351,-1.0059,15.3993,-2.4634,2.9666,-11.9073,
-4.731,-0.31239,4.0032,-7.4788,-4.702,-5.7115,-3.6449,2.0718,2.9496,-3.1145,5.5575,-12.1973,13.6351,-10.9516,
-4.6881,1.3936,-1.2987,-6.3067,-7.0714,-8.5023,-8.0055,4.599,-2.771,-3.651,-4.1759,-8.8144,2.9351,-7.1615,
-9.7093,0.34587,3.1178,-5.4466,-2.309,-3.6541,-3.187,8.1792,1.7338,1.3886,1.3771,5.2116,0.34816,-1.9113,
-12.2602,-2.8084,3.1717,-11.1453,-1.929,-7.0498,-3.2368,1.6629,-1.9857,-0.86392,0.57154,2.2478,3.4608,-5.4121,
-2.8475,1.2165,1.0532,-9.9947,0.11489,-9.5193,-3.5245,0.1169,-5.7229,-2.2583,-2.3553,-2.7078,-2.5315,-6.0512,
-1.2306,0.66182,3.8823,-7.4666,-2.7843,-4.6096,-4.2771,-0.37228,-6.3436,-3.5689,-6.0706,-1.5807,-12.0208,-2.3139,
-0.19267,0.13995,6.0597,-5.5726,-4.5457,-0.95882,-3.5388,1.0961,-5.9632,-0.94438,-6.1885,1.4059,-8.8892,6.5018,
-0.42207,0.37252,-2.74,-6.4435,-5.4782,-8.3731,-8.3877,-1.1388,-3.9182,-0.64675,-4.13,-1.3295,-5.7047,5.3883,
-0.15601,2.0372,-4.2626,-3.8875,-3.944,-5.7013,-9.5719,-0.82931,5.2347,1.079,0.69735,5.258,-4.6393,3.86,
-3.5209,1.4328,-1.1145,-5.5827,-4.6719,-1.5031,-8.0335,0.66648,5.8847,-0.43172,-2.7187,9.763,-2.433,9.4132,
-6.2017,0.38294,0.39859,-4.7653,-3.9092,-8.1613,-2.7308,0.14455,5.0497,0.076113,-3.0375,3.3926,2.0518,11.7409,
-9.6862,-1.5685,-0.58942,-5.4435,-3.1925,-12.9741,-0.63849,-6.1309,10.5315,5.3744,7.2679,2.225,7.7135,-0.051012,
-13.9255,-3.4023,1.3739,-8.9735,-0.10911,-6.4113,0.36346,-13.476,10.3814,8.9081,11.6518,7.8758,8.2143,-6.7966,
-11.403,-3.4394,3.9428,-11.0864,3.5131,-3.3753,2.511,-13.8725,0.84063,4.276,4.4454,1.8599,5.0706,-3.2556,
-0.83641,0.38241,9.7318,-6.8058,5.9539,-5.8239,5.9758,-6.5325,1.5131,-0.077872,4.9016,-4.2773,11.2738,-5.7113,
-2.7146,-2.0509,7.7018,-1.095,4.1501,-10.7773,3.6893,-3.2482,1.4225,0.8909,5.0897,-1.6103,10.1152,-11.6354,
-8.5775,-3.6148,2.1783,1.622,-2.1247,-10.8538,1.2985,-6.1866,-4.2067,2.5249,0.20479,4.0297,3.9649,-3.9476,
-6.3757,-0.74685,-0.12158,-3.537,-6.0945,-9.4792,-1.4309,-12.3231,-3.7128,-2.2063,0.9154,1.1369,1.0759,1.8328,
1.4787,0.50325,3.5007,-0.19131,-4.5236,-10.1158,-4.4781,-6.0401,3.4994,-4.7251,7.8504,-3.993,-0.19391,-0.92868,
3.5591,-2.6604,3.0497,5.8457,-7.3856,-12.1604,-5.8966,1.3117,3.0484,-3.7187,6.174,0.3439,-0.42324,7.5632,
0.93545,-3.4647,-1.4716,0.67472,-11.2808,-8.5382,-5.0609,-0.21278,-1.4728,-3.0136,0.50095,8.518,-0.39785,16.2684,
0.39739,1.5639,-3.3115,-3.2222,-10.122,-4.6515,-9.5775,6.5489,1.5081,0.059738,3.8453,5.1148,-6.1586,12.8822,
0.13235,1.2289,-2.8716,-0.3775,-7.8273,-8.47,-13.5824,14.1095,4.5509,-2.1132,7.2303,-4.1099,-10.8505,6.0835,
0.36537,1.8781,-2.9403,5.6707,-6.1528,-4.3464,-8.1881,15.4321,5.4826,0.18272,4.1449,0.23406,-1.2819,6.4414,
-1.3435,2.4885,-7.3434,7.0179,-6.9887,5.3147,-7.4557,13.3015,3.9486,8.1257,-1.6472,8.174,4.3389,11.1168,
-0.057872,3.5443,-4.2519,4.427,-2.9542,4.7546,-5.8033,16.6006,3.4705,8.3613,2.5488,9.3705,1.4272,13.1007,
-1.0187,3.8135,-3.5144,-1.6232,-0.36633,-4.6897,-3.0449,15.1226,6.6367,1.5931,6.7346,5.9158,1.8235,9.4226,
-4.3318,4.0669,-6.1959,-2.4899,0.61974,-2.4799,0.030053,9.3943,13.9515,3.4255,4.8841,6.043,10.391,4.5186,
-9.8565,4.7872,-6.7884,-5.2326,0.58256,0.079004,-2.3819,7.8668,14.5607,6.1125,2.1809,4.2346,9.7675,-2.5009,
-11.1933,5.4638,-7.345,-6.3649,3.9216,-2.8183,-1.2751,12.215,12.2408,7.1915,5.9064,2.0519,8.6996,0.059265,
-6.6653,4.6541,-7.8686,-3.5729,9.9533,-4.0952,6.5142,13.4108,9.0962,10.1345,7.9626,1.4468,15.4084,3.9121,
-2.1678,3.6517,-8.1196,-4.0816,4.2942,-5.5367,4.9183,10.9187,-0.84978,6.8751,1.4586,2.0832,13.7608,-2.3484,
-0.83268,5.602,-10.7652,-1.6669,-3.917,-4.4809,-3.8123,12.4329,-7.306,-2.9372,-5.1361,0.75311,4.0173,-5.3408,
2.5917,7.1941,-11.0837,5.1816,1.1387,1.0901,-0.20954,14.5795,-4.9395,-6.1354,-3.8636,-4.5947,2.33,2.2105,
3.1591,4.5933,-12.5878,2.2196,2.7576,-6.4471,3.4185,13.4637,-6.3308,-2.1519,-7.2472,-6.9701,6.7699,-0.5732,
0.31849,6.9688,-9.1814,-2.9753,0.90496,-12.0858,1.5261,16.7533,-4.2637,3.5209,-7.5358,1.4018,9.0148,-3.1904,
-4.0394,4.6224,-12.9693,-2.7967,-2.5238,-4.1298,-5.3144,14.7838,-3.0436,0.4171,-3.2272,4.2098,1.2431,2.3037,
-2.1096,2.1757,-15.8064,-0.94194,-1.6497,1.1794,-5.2362,14.1375,-2.1383,-1.2949,0.58159,3.7164,3.3375,10.119,
-5.5987,1.8044,-17.5093,-9.8033,-4.2016,-6.3634,-4.1989,13.5304,-1.7688,0.46977,-2.5866,4.2166,7.2348,8.3068,
-12.9753,3.6246,-18.3867,-12.5893,-4.9136,-8.8736,-3.4648,12.7188,-0.21618,1.8881,-3.8774,4.4458,4.8727,5.3985,
-17.9816,2.4425,-17.2837,-6.5315,-0.76261,-7.8593,-4.2215,14.848,-2.6136,-4.01,-4.6089,-3.534,2.652,-0.2283,
-12.0817,4.2244,-15.7645,-7.5857,4.1041,-6.4234,-2.5217,16.8494,-0.52879,-6.6617,0.006231,-6.2142,8.7596,-6.4809,
-4.3672,9.0324,-13.6136,-12.6744,8.4369,-0.49462,6.5474,10.777,8.9032,0.72764,9.888,-1.7438,17.6342,-10.6718,
-6.0336,5.5982,-12.7968,-12.3956,8.8948,-1.429,9.5288,4.8275,8.3687,2.6124,10.7408,-2.6033,14.6478,-9.5493,
0.83592,5.5032,-12.7521,-4.6625,8.1201,-3.9946,8.2342,11.5277,3.2873,-1.6422,7.4448,-3.6524,7.7433,1.3877,
6.5706,7.101,-14.8793,-3.4186,3.7763,-6.1653,4.8478,13.2464,-0.28459,-4.9178,2.1776,-6.3255,5.8323,1.7862,
3.766,5.2289,-15.4326,-4.6595,-2.7166,-10.1337,2.1466,11.9695,-0.74922,-2.6944,-0.84535,-4.9819,8.857,-6.0335,
-3.9316,-3.5203,-21.4962,-7.0313,-10.5075,-10.7307,-3.5256,13.9026,-5.2838,-5.666,-4.4098,-4.9242,4.7104,-2.5383,
-2.4904,-4.0324,-24.3041,-7.8142,-7.7079,-4.5431,-4.0369,14.7557,-7.6178,-6.0494,-1.0117,-3.9054,7.0789,4.6039,
-0.17179,-3.549,-23.5687,-9.0326,-4.5939,-7.404,-4.5176,10.2549,-7.8837,-4.4811,2.6644,-2.4657,5.4493,-1.2155,
-1.3668,-2.6132,-21.4315,-7.2854,-5.0412,-11.5392,-2.0774,11.3269,-5.2415,-5.8995,-0.14657,-0.14864,-4.7601,-0.90204,
-3.2132,-0.52843,-24.4843,-6.3665,-4.7389,-6.0266,-2.4354,14.0215,-3.9634,-6.5096,-6.405,-2.0681,-1.5822,2.5263,
-3.0202,-0.97843,-25.4252,-6.9486,-4.4544,0.60217,-8.0736,16.5549,-4.6892,-3.2267,-5.0561,-4.8363,9.1178,1.4111,
-2.1161,-0.67922,-23.1768,-4.8445,-4.9105,1.2889,-9.2764,21.1047,-5.1312,-2.3098,-3.5479,-5.2695,1.099,0.12113,
1.1446,3.4591,-20.0989,-1.9025,-1.4826,1.9347,-1.7302,24.418,-2.172,-0.96611,-4.5401,-6.1584,-6.4386,-1.5736,
-0.85248,0.35928,-20.8212,-6.1269,-2.8396,-4.93,1.2659,16.6866,-4.934,0.055952,-5.7137,-6.753,2.1427,-3.4071,
-3.6934,-4.4825,-20.0541,-8.1694,-6.0437,-8.973,-0.73824,7.0083,-8.0124,-2.8399,-6.3352,-3.4553,5.8705,2.5819,
1.8304,2.0529,-16.9227,-3.8229,-0.86038,-3.132,3.6448,9.4803,-7.5317,-4.1158,-6.919,2.5366,-0.26629,2.9089,
3.4078,6.509,-18.0765,0.021932,6.663,-0.29274,6.0772,18.3115,-6.8388,-2.1816,-8.1911,5.5179,-1.4556,0.56519,
-6.1967,1.5392,-21.5714,-5.0411,4.0936,-2.4446,0.65092,16.4894,-6.6694,-0.36349,-8.9049,1.089,4.6573,2.2185,
-7.2711,-2.4095,-18.8311,-9.5593,4.8124,-2.2979,0.61187,5.3772,-2.4129,-0.82362,-1.1398,-4.2785,9.1986,-6.1093,
0.87792,-1.783,-13.3627,-6.5752,11.2721,-4.0882,7.806,-0.24809,6.8909,-1.7385,9.0515,-3.058,5.7541,-12.9738,
-2.308,-1.9172,-13.766,-5.4575,9.3907,-9.8685,8.0608,-2.4026,8.6469,0.053242,6.3395,-0.70509,-1.0988,-5.6877,
-4.3385,0.36719,-12.699,-4.8893,10.5147,-9.5175,4.4439,-8.7662,6.4406,4.1472,0.89721,1.0242,-5.1305,0.67913,
-1.909,1.0681,-16.5166,-2.9088,11.0886,-7.2593,-0.88445,-20.0503,7.2595,3.1754,0.60241,2.1681,-8.4376,-1.0484,
-6.6152,-1.4062,-21.7924,-4.1805,9.9414,-9.2341,-2.7596,-30.4167,5.8596,1.5387,0.56627,1.5556,-7.4494,-3.8782,
-8.8694,-2.5266,-22.1718,-7.0627,11.5141,-10.849,0.53949,-36.0633,-0.51756,1.6878,-3.0827,1.7037,-1.9408,-6.7786,
-6.409,-3.3393,-22.7699,-7.6033,11.7875,-6.3419,-1.9035,-38.2382,-6.2711,-1.306,-5.3083,-0.3272,-4.2349,-6.8542,
-4.337,-3.3797,-19.7163,-3.5314,10.3572,0.54659,-1.5481,-39.077,-4.6898,-1.4684,-4.2667,-2.4765,-9.0423,1.0293,
-0.46159,-1.4899,-17.3282,-3.0788,8.5307,2.201,3.6063,-40.8297,-4.1672,-0.65762,-1.8413,-0.64045,-1.992,6.5109,
5.5919,-4.0519,-17.4936,-6.5092,9.7058,-1.5465,3.6311,-44.4057,-8.4967,-0.8589,-0.52574,-1.8075,5.5995,-0.38746,
7.1846,-3.3268,-11.6235,-4.1905,13.9442,-0.48958,2.4489,-44.1515,-4.6124,6.423,2.8803,-4.1092,5.2636,-0.84615,
5.7894,2.1757,-11.8902,1.3633,10.6972,0.98606,5.1947,-41.5024,-0.47951,6.0379,2.2253,-4.8268,1.0911,8.3639,
15.5649,4.9372,-11.6587,4.1741,8.1272,2.8551,11.6315,-38.5301,0.031655,-4.4473,-0.31836,-3.5728,-0.90254,7.8621,
17.5231,1.7484,-10.9594,-2.8253,9.0858,3.1655,9.4873,-38.1467,0.029297,-7.5549,0.66461,-5.2871,-1.3308,-4.6612,
7.7951,1.6435,-15.6043,-6.0302,8.0587,3.4577,6.508,-38.268,0.50993,-3.2452,3.0353,-8.3439,-1.7329,-6.3097,
7.3271,7.3297,-16.5964,3.9728,2.7542,9.9987,6.5992,-34.044,2.4073,-1.6045,4.7812,-2.5408,-4.5212,5.1558,
5.9236,3.0336,-14.6363,3.7344,0.17886,9.8812,4.7574,-31.5192,1.299,-2.9545,4.4943,2.4323,-8.5882,4.3646,
1.4706,-2.2099,-10.6249,-4.4436,6.6758,3.2628,8.5696,-27.4586,0.97986,-1.5717,6.394,-1.8112,1.3273,-0.47684,
3.3104,-1.5956,-9.9876,-5.623,7.7213,4.995,11.9116,-22.4371,-2.9355,-2.9239,7.9383,-7.4873,9.9241,2.926,
5.0402,-1.982,-13.2448,-4.3215,5.3301,6.1413,8.3046,-24.4651,-4.2054,-5.1588,6.4979,-4.6277,8.3645,3.7145,
3.0505,-3.0679,-8.8344,-5.2675,7.1794,2.1576,8.0473,-25.6483,2.0724,-2.1977,5.8671,-1.6985,7.6221,-1.0876,
1.4215,-2.4017,-3.4841,-3.5055,2.4101,3.4742,8.0466,-19.7711,2.9122,0.34403,5.9972,-1.5968,5.2364,1.3875,
-3.9665,0.63445,-4.2392,0.079315,-1.5909,9.0503,3.7074,-15.2106,2.7374,4.1798,6.1193,2.3554,-1.8267,8.5351,
-9.7538,1.3195,-10.0103,-2.0944,1.6378,4.4102,4.2081,-11.1645,6.1889,6.5808,5.9934,3.4191,-8.7067,10.1924,
-5.0712,-2.3746,-11.5787,-5.1022,2.7449,-0.91588,2.2684,-8.3252,1.7202,0.64231,3.4646,1.0448,-6.4971,15.1245,
-0.91079,-4.1606,-10.4022,-3.832,1.6161,2.5131,-6.0627,-5.8977,-6.096,-2.7709,-2.0461,3.8744,-0.32247,17.5912,
4.6875,1.1503,-10.0191,2.4235,3.2063,9.3522,-9.3143,1.9279,-7.8994,4.8672,-2.6463,7.7393,-0.062156,10.5102,
10.6732,2.5275,-9.4179,3.2424,-0.3605,8.791,-12.6118,5.6686,-11.2819,2.6469,-4.8976,2.9366,-7.7712,10.3615,
13.8892,0.44769,-6.9247,3.5298,-7.0873,6.8173,-18.1216,3.8825,-13.9794,-2.8145,-7.0144,2.7604,-9.2331,19.3813,
5.584,1.1442,-8.1964,1.1489,-10.7599,3.7572,-23.5423,1.9623,-10.4895,-1.4404,-7.7983,2.3538,-9.8844,13.6386,
-0.77678,6.6189,-5.5352,0.83873,1.6961,6.1831,-12.7295,9.3164,2.9145,3.7075,-0.82317,3.4177,-6.1581,7.7589,
-4.3458,-0.28592,-6.8906,-3.3092,4.2456,0.26824,-6.9043,5.1417,2.9804,-0.61253,-2.9432,-1.3669,1.683,2.2314,
-1.1928,-1.2329,-3.1027,-1.6641,1.5805,0.25214,-4.0797,6.2795,6.1758,1.8346,-1.802,1.6074,14.1157,1.1334,
-4.7364,0.5281,-2.6753,-1.8055,1.7269,0.96015,-5.5224,11.9285,10.8671,2.9296,3.3675,2.716,10.1355,-1.5854,
-7.5857,-1.1904,-4.6842,-3.8663,4.2744,-3.6768,-2.0575,11.4538,9.9741,2.0309,10.1554,-2.0262,-0.83696,-1.7313,
-3.0328,0.5683,-2.2338,-1.4652,5.2232,-5.1434,3.6095,7.6333,7.6885,5.0425,9.787,-3.11,1.3824,1.0237,
-5.9845,-1.1533,-4.2691,-1.6185,2.7404,-3.6297,-1.1866,5.4881,2.1653,0.64239,-0.20044,-0.75397,4.9147,-2.6534,
-3.938,-5.1816,-5.218,-3.2084,4.2634,-0.27867,-1.8385,7.8101,-2.0618,-1.0831,-2.3573,0.97826,3.8971,-2.7349,
3.5289,-1.9785,-3.9409,-2.5337,2.0792,-3.6362,-2.6923,5.4133,-4.8304,1.8741,-5.5906,-0.04453,-0.19333,1.7677,
4.0403,1.2735,-3.4634,-2.1409,-1.1788,-5.1055,-6.6283,2.9191,-3.8179,5.3769,-8.8703,5.0196,2.4696,6.7231,
0.1827,-4.8282,-7.3528,-1.2889,-0.86687,-3.1117,-8.3996,1.5391,-6.2397,7.2237,-9.0613,11.7085,3.5269,14.2737,
1.859,-5.7438,-10.0451,3.3677,-0.57389,-1.2377,-8.1365,3.1338,-6.1063,6.5493,-7.3123,8.8368,-5.1208,19.4428,
1.0243,-1.7835,-7.2732,2.9245,-0.29826,-0.44035,-7.8896,4.151,-2.6066,-0.3514,-9.0429,-2.0575,-9.3931,11.2866,
-1.2066,-0.95386,-2.2575,-0.86619,3.8168,2.2372,-0.90847,5.1068,1.165,-3.464,-6.8134,-3.6215,-2.8042,6.5118,
-4.9905,-4.2706,-7.9064,-3.2243,-1.233,1.621,-1.3359,0.94425,1.0951,-2.2919,-6.8865,-0.029727,-3.5998,7.5674,
-4.4504,-0.88113,-6.7091,-1.3439,-2.846,1.2825,-2.9432,-3.6921,2.2344,0.49697,-5.7502,2.6229,-4.5889,4.462,
-2.0135,1.3411,-0.28059,-3.9146,3.8325,-1.4453,1.8134,-6.1215,0.41382,3.1185,-3.7177,1.2609,-2.1441,-3.2773,
-4.7852,-1.6319,-2.1922,-3.6797,3.6025,-3.7689,4.1147,-0.93394,0.38853,8.7159,-3.9766,2.6315,-2.4974,-2.1168,
-2.5701,-4.4262,-4.9532,0.87963,-1.9165,0.31338,5.7958,8.2809,4.2214,11.5672,2.5283,10.6681,4.4006,6.6871,
2.8869,-5.1248,-5.1379,-1.5835,-3.7295,4.151,5.4483,8.2662,6.8608,7.9809,9.1253,13.4027,6.547,13.9989,
0.30291,-2.4069,-3.8655,-3.8988,-0.13147,1.9737,1.2647,4.8779,7.4133,7.0199,6.1674,3.9212,-4.4509,8.338,
0.04423,-2.0215,-3.8746,-0.53143,-0.84648,3.0606,-1.9442,9.6469,3.835,4.9119,5.0745,-0.89333,-3.9429,3.2584,
2.4515,-4.7925,-6.0525,-0.98171,-6.5805,6.2514,-1.8277,15.8166,2.1589,0.27865,4.2878,5.427,5.9349,13.1861,
-2.5161,-2.577,-4.243,-2.8508,-3.2934,10.6968,-0.27205,20.1705,6.3679,7.0106,0.1744,11.3681,6.5429,23.9643,
-10.3191,-2.1812,-4.2297,0.45307,-2.3726,11.742,-5.3172,17.7547,2.3702,10.2052,-7.79,8.5167,1.5703,18.9108,
0.18221,-1.3272,-0.8424,10.7904,-1.9891,9.8324,-1.383,19.3407,-1.3872,5.4957,-8.0458,7.2825,2.1997,17.053,
6.1971,-1.9707,-2.961,8.938,-5.4849,4.6629,-1.5407,21.314,-2.0271,0.58647,-7.8042,1.7841,-8.2964,13.3785,
5.1023,-1.1296,-2.0602,7.6783,-2.0228,7.9986,-1.6892,26.0607,3.6381,-0.17208,-5.1663,-3.3846,-12.3783,4.1401,
5.2781,-1.5437,1.4376,12.5203,-0.45519,9.9288,-1.106,24.0151,6.3119,-5.9463,-5.3387,-7.0379,-8.2612,-3.8211,
6.4077,-0.9687,1.8335,10.8052,-4.7662,7.8873,0.40667,17.7535,3.0411,-7.0354,-5.5004,-7.0976,-6.3193,-2.6275,
5.5408,-0.91104,0.27725,0.99784,-4.4802,7.4136,1.3461,17.1702,-3.8903,-5.1674,-5.6523,-6.1898,-6.422,-3.9161,
4.2445,1.0718,0.26062,3.83,2.537,7.4507,0.30104,21.9246,-7.5132,-4.8574,-5.3131,-4.3721,-4.5909,-0.78906,
2.3024,-1.1614,-1.9244,5.2872,1.1798,4.8347,-2.3679,22.2966,-9.7138,-6.2529,-7.1637,-5.3149,-5.5205,1.9096,
2.4057,-1.8151,-1.5677,-2.0194,0.38607,6.7138,2.3535,22.1636,-5.5155,-6.1187,-3.6004,-4.2731,-4.4659,-4.7124,
3.9483,0.4632,-2.1968,-3.5857,-0.84262,7.0341,6.7918,19.1468,-6.3896,-6.9571,-4.1075,-5.2218,-1.0647,-10.9379,
7.3269,3.087,0.58655,6.0299,-1.515,5.4072,4.2151,19.6852,-5.7653,-5.8163,-3.6201,-7.0776,6.471,-1.8455,
4.2359,-0.23197,-0.17201,5.9088,-2.1472,1.9491,-3.0279,20.6731,-0.83987,-7.6368,-2.1978,-7.8585,6.8054,-1.0116,
0.84828,-2.8691,-2.813,1.4569,0.15125,2.5555,-5.4973,16.7816,3.7898,-3.5631,-0.86068,0.56723,2.7821,-5.0483,
-0.88962,-3.9025,-0.47507,4.0204,-1.5453,4.0892,0.8583,12.6414,1.393,0.74778,-1.5322,6.5585,1.4096,5.1363,
-3.9695,-2.4628,-2.1336,1.6102,-6.9959,-1.2176,2.4943,15.0162,-8.0903,-3.8761,-3.1272,0.62162,1.0843,8.4438,
-5.4186,0.33602,-7.067,-3.0657,-5.3714,-2.3499,-1.7532,20.6232,-9.2921,-5.8127,-0.28851,-2.5492,-0.18602,2.3936,
-4.3703,-2.3355,-9.7762,0.73347,-7.6999,6.7094,-4.7813,22.519,-7.0471,-2.3307,-0.51193,-1.6726,-7.1645,9.722,
-3.8671,-2.4363,-7.9846,5.2692,-10.8534,8.476,-7.1455,24.3014,-3.9728,-2.4318,-3.1328,-1.8132,-6.9756,19.5025,
-8.4554,-0.84387,-6.5414,-3.724,-11.6484,-0.70965,-7.6811,22.8433,-5.1807,-3.7322,-9.2113,-2.1868,-6.5571,13.5121,
-3.3685,5.7145,-2.5335,-3.7413,-5.8881,5.8406,-3.6046,27.0161,-3.1828,3.4818,-8.8998,3.4882,-8.815,15.8347,
4.7871,4.1665,-1.6586,1.0622,-3.8478,13.4442,-5.5577,27.0821,-4.1969,-3.7172,-9.5709,0.6276,-9.4911,18.9817,
6.9102,2.9525,-0.11283,0.034829,-6.9911,9.2633,-2.8139,24.9755,-6.3555,-10.7247,-10.9246,-3.2667,-2.6549,13.0223,
5.5313,6.1498,-3.4805,-2.8598,-12.8382,4.3687,-1.6812,24.4408,-7.9023,-4.2967,-11.2335,-2.5887,1.3608,8.8665,
2.7893,3.8521,-7.1283,-1.2424,-14.4785,5.0705,-4.9548,20.5638,-9.3568,-1.1468,-13.452,-2.9153,-1.6134,5.9244,
0.45278,2.4162,-3.085,2.448,-8.5481,5.4896,-4.416,20.0533,-4.6976,0.12728,-9.5114,0.875,-4.1677,1.4716,
-7.2874,0.8247,-4.3461,-4.448,-9.9636,-5.4448,-6.0795,16.4398,-1.5235,1.0837,-7.0127,-0.1416,-6.328,-5.3654,
-7.3321,1.7395,-3.6032,-7.5551,-8.8834,-9.9389,-3.7865,13.0432,0.97853,1.983,-5.6276,-2.5432,-2.5739,-6.0078,
-5.2049,2.3585,-1.6998,-3.0044,-5.6993,-4.7628,0.056072,13.9479,2.607,0.65877,-1.6746,0.74285,-6.5168,-3.9601,
-7.303,0.77053,-0.63368,-2.8244,-5.8395,-5.4411,-1.3933,14.557,-0.92406,-1.7911,1.8001,-1.2301,-12.3925,-5.6505,
2.5354,6.2681,3.5017,-3.3776,-4.2836,-3.9096,-0.58659,14.8887,-0.62742,-2.8887,5.3078,-5.2539,-2.7311,-5.5526,
7.4445,8.5431,0.15833,-5.3446,-7.642,-1.0239,1.1358,10.8623,-1.3131,-4.4026,1.8558,-7.5898,-2.8082,-5.4604,
4.1053,10.4407,-1.7796,-4.542,-6.7016,6.2684,1.5492,12.1383,-1.7163,-0.76446,1.7445,-2.7961,-8.9067,3.0619,
0.7262,11.5017,1.4607,-3.0639,-4.6125,6.1335,-0.23033,16.9539,-1.3721,1.4513,-0.52958,0.50495,-4.7567,8.904,
-1.0044,10.0885,4.9887,-3.1213,-0.72009,-1.7061,0.024224,15.6959,3.2897,3.5336,-4.5949,2.1621,-3.7481,0.89815,
-0.22166,11.6523,5.8942,0.19902,7.2769,1.0469,4.6021,12.1026,11.528,8.3823,0.74199,5.6473,-1.836,-5.6637,
-1.413,7.8199,3.3714,-2.4638,7.0814,0.74332,4.0852,5.3511,7.7031,1.8541,0.93866,-0.23488,-0.52079,-9.9034,
3.0099,8.7968,8.9534,-1.3523,6.1739,-4.6042,1.9117,5.0298,4.8305,-3.0777,-1.0461,-0.70295,-1.4536,-4.9706,
2.3474,14.0535,6.9702,3.5495,5.3216,-9.6303,-3.0238,0.38925,3.0945,-0.96481,-2.9115,1.2674,-5.2228,-2.2623,
2.9297,15.8616,3.9007,9.3623,11.028,-4.4728,1.7372,-9.0339,4.1138,4.6365,-1.5318,2.3964,-5.1506,-2.3677,
6.3691,12.2586,3.9078,8.0775,9.6437,-2.9993,5.2486,-19.3379,1.2162,3.1532,0.72954,-0.39821,-2.1903,-2.9483,
5.505,12.005,1.7449,4.2184,6.1726,-3.7837,1.0773,-26.3728,-4.6419,-3.3025,2.132,-2.7849,-2.0589,-1.8076,
5.6571,13.6953,2.1226,4.9296,12.5511,1.7464,1.0127,-30.5745,-3.881,-3.1043,2.0041,-1.6535,-0.971,-4.5912,
9.656,9.0172,2.4774,0.29549,10.8337,1.1593,5.7726,-36.935,-1.7199,-2.9181,-1.4901,-0.10802,0.53352,-11.5465,
17.0306,9.1993,6.4261,1.9648,8.9786,0.36657,12.8978,-37.8524,0.07029,-3.4661,1.2501,5.9238,2.6704,-2.4178,
12.3931,12.2625,4.3531,0.15942,9.645,1.5496,9.9546,-38.2326,-5.9597,-2.535,2.3802,4.3633,-3.5156,7.6094,
3.2134,9.3576,0.95868,-4.9114,9.3072,6.0364,7.6705,-39.0719,-6.325,3.1607,1.5145,4.8244,-4.5095,8.8401,
-0.35364,3.0114,1.8653,-7.509,9.231,5.1921,10.5845,-41.0661,-3.0532,2.0069,1.4234,8.3915,0.099657,3.9711,
-0.33242,4.7589,1.7533,-8.0228,11.0872,3.9162,8.9851,-40.5306,-4.7982,-1.9699,2.7842,8.37,0.57561,2.2866,
0.65162,12.1863,0.20211,-6.5768,10.4222,9.466,7.4824,-34.2419,-4.0282,-0.40564,3.0993,5.9398,-0.42302,8.8981,
-1.5564,12.1783,1.8772,-1.6032,7.1456,13.9595,8.7204,-32.9105,-1.1352,3.2343,0.744,3.896,-3.049,10.0516,
-0.25796,6.8681,2.4875,3.5545,6.9576,12.3988,6.9921,-31.1771,-2.2721,4.7273,-2.4339,3.4215,-5.9993,6.3148,
5.0599,8.8664,1.3744,5.2696,7.0223,8.2807,4.6442,-26.4139,-4.5461,4.9258,-4.2158,2.734,-5.6391,6.9005,
6.9257,11.4676,1.5329,4.2303,5.8778,10.4352,7.0169,-24.5881,-3.5502,6.7992,-0.82962,5.2213,-2.1675,4.799,
-0.47969,7.6461,-2.1748,-4.4596,3.356,11.0139,6.8368,-29.6208,-1.1681,5.1859,1.8712,4.1847,-2.2789,-4.407,
-2.8615,9.5974,-1.0802,-5.1559,2.1903,10.8354,5.9447,-26.8794,8.543,5.3572,10.4356,6.3442,0.75038,1.1601,
-2.9305,7.3346,-0.292,-2.1952,-1.0739,7.0521,1.9728,-25.0255,8.2716,1.9025,10.5331,3.3122,-1.946,4.7061,
-1.5496,7.6177,-0.033516,-0.85847,0.67752,6.8701,3.0595,-23.283,-2.1069,0.10135,1.9471,1.4265,-3.0343,2.7363,
2.3997,11.4989,3.8249,0.15737,4.4933,13.2064,8.1781,-17.0655,-3.4267,2.023,-2.508,7.125,1.0042,6.9104,
0.086578,6.2292,3.3542,-3.468,3.0184,9.7624,8.8927,-18.211,-2.4982,-2.1957,-3.0809,0.19003,-1.7076,-3.3861,
-0.88294,6.8198,5.5633,-0.84929,6.2117,8.2128,11.2512,-19.0465,-1.8659,-4.956,0.96033,-6.0879,-0.15891,-12.8239,
0.37533,8.0978,4.5064,0.4065,2.7055,11.3355,5.5149,-14.7702,-0.54913,-4.4177,1.1437,-1.6253,1.0559,-3.6188,
-2.0573,4.7195,0.86153,-4.4381,-2.2771,12.1011,-2.0468,-8.5816,3.8221,2.5958,0.11119,3.2925,0.028233,8.1675,
-8.6828,4.9187,-2.0822,-5.6181,1.716,10.4112,1.9324,-2.2819,4.0752,10.1533,5.4072,6.4694,0.99087,11.5343,
-8.8847,5.8284,-3.6447,-6.0039,3.7822,9.5456,6.3957,-1.4221,-1.231,5.4463,6.7695,5.8403,0.69045,10.6008,
-2.0851,4.5148,0.91249,-5.6437,3.5552,9.9367,7.4582,-1.8189,-4.0497,-4.0395,-0.38512,0.18722,-0.31531,5.6264,
3.825,4.7263,7.1247,0.47951,3.3419,6.4484,9.9033,0.21887,-3.3243,-5.7249,-3.2541,-4.1623,-1.2603,-1.4596,
7.6926,5.6474,10.7944,6.9584,1.4544,3.8921,9.0679,-0.51762,-3.848,-3.6944,-1.3718,-5.1177,-2.8721,-6.4339,
10.3643,7.9598,10.8698,6.7821,1.6079,8.2381,4.9086,4.093,-3.3759,-3.2316,-1.0483,-4.5694,-1.4942,-7.253,
10.4654,7.7232,7.5663,5.6518,3.1986,7.0209,4.3731,11.8013,-0.52223,-4.7249,-0.26252,-4.0543,-0.19976,-3.2024,
6.2223,1.7164,3.015,4.1077,-0.60848,0.091979,1.4594,7.96,1.6785,-2.2725,-1.4518,-3.0883,-3.803,1.5693,
2.2335,-0.073779,-0.29918,0.24579,-2.7411,0.80982,-2.7255,-1.9176,4.2293,1.4793,-3.052,-1.2154,-3.8158,5.0905,
-0.31062,4.7509,2.6108,-1.6971,1.7617,-0.20356,2.2583,-2.2849,2.5289,1.3905,-0.45871,5.1236,1.2334,4.3027,
-1.497,4.707,5.1057,0.57407,2.861,-6.2167,4.7741,0.50372,-3.6482,-3.2724,1.7382,6.5037,1.8826,-3.427,
-0.92529,3.4608,4.3172,6.3242,1.7255,-1.9873,1.1132,0.4735,-2.9474,-4.0399,1.152,0.32886,4.6621,-4.6672,
-2.798,4.217,4.5404,8.3549,2.5858,4.8809,0.56449,1.4092,-0.84233,-3.3156,-1.3277,-4.5111,2.4542,3.3256,
0.2622,4.9281,5.714,7.8538,0.020325,6.516,-0.91541,4.2169,-2.2378,-1.6706,-2.2122,-0.3843,-2.9959,8.4285,
0.0055005,5.3553,4.648,7.6236,-0.7038,3.9559,-0.13759,1.7945,-1.3807,0.59877,-0.3922,7.5925,0.31733,7.6818,
-9.8768,2.3829,-1.6564,4.0327,0.061332,-2.307,0.11163,-3.8565,2.3176,0.80427,-0.1277,6.896,1.9855,7.4619,
-13.6227,2.2401,-2.0392,3.7905,0.53982,2.1699,-4.2336,2.1592,6.999,8.4686,2.2903,8.8926,-0.54397,20.0293,
-15.4569,-0.54584,-2.1578,-0.53431,-3.5899,6.619,-10.9695,3.7169,1.0355,12.0578,-0.016264,10.0462,-3.1629,22.9249,
-8.2625,-0.030697,0.86394,-7.2507,-2.8926,6.2219,-2.5981,-0.84445,-2.883,6.5141,1.431,2.6946,0.40134,7.5702,
0.90988,2.3813,9.489,-7.78,2.5836,3.9204,9.127,-4.6504,-1.2638,-3.5182,-0.58354,-9.0363,1.8235,-6.9841,
3.7476,1.7562,11.3298,-0.082577,4.3566,-2.5816,7.1329,-6.7815,-2.1521,-6.1994,-4.8866,-10.4225,0.75001,-6.9265,
1.5945,0.68699,3.9015,3.2968,3.1313,-6.2831,4.2948,-6.8565,-3.4692,-3.4168,-3.1472,-5.9403,1.6693,-6.0289,
-0.91104,1.1275,4.1494,-1.2391,2.4613,-3.0138,7.8937,-3.0709,-0.36876,-3.2121,0.41589,-7.9943,3.4971,-12.8978,
-1.3388,1.0598,5.3467,-0.20086,-0.096551,-0.90478,0.67117,-0.95848,1.0996,-2.5369,-0.57339,-4.6225,3.2873,-7.3037,
-0.77628,3.4066,2.1333,5.1136,1.3553,-2.2965,-7.0821,1.0272,2.9616,4.3635,1.3894,6.2599,-0.28415,6.6321,
-6.0324,3.6846,0.077385,4.3249,2.7202,-5.0508,-4.7285,0.48365,0.37379,1.692,-0.14019,5.8847,-7.4979,-1.4786,
-2.5372,6.1144,3.206,5.2704,2.3158,-0.65062,2.5448,5.5161,1.0745,-1.0613,0.10942,1.4341,-2.4685,-8.8619,
3.6409,3.5786,5.665,2.7853,-0.47446,1.0759,2.1509,7.8364,0.28689,0.20791,-3.5128,-3.2315,0.33089,-2.3044,
1.2532,6.4969,7.4942,1.8948,2.6875,1.2518,2.2629,11.4638,2.4388,3.3285,-4.9893,-2.7966,-5.2326,4.3413,
-7.981,3.215,3.1882,1.2992,2.5262,-2.6797,0.19889,8.3654,2.2925,4.0931,0.13082,1.7095,-6.8468,-2.6676,
-8.466,-4.2087,-0.85949,-1.6708,-0.51739,-3.4828,-4.1514,3.0432,1.1911,1.9193,2.5331,2.5712,1.2768,-8.2921,
-12.779,-4.9203,-5.6284,-5.4272,-3.861,-5.2022,-10.169,6.7168,0.63746,-1.5705,-0.99312,-3.8498,4.0924,-6.3486,
-20.6891,-7.0354,-6.737,-5.5837,-5.5573,-7.3,-9.5587,7.7603,1.0814,-3.4043,2.9226,-6.5111,0.95461,-1.1472,
-15.3502,-12.1567,-5.1275,-5.9718,-3.5369,-4.2107,-3.4418,3.679,0.29337,-3.9231,4.9167,-3.951,1.6205,6.8756,
-8.8858,-8.294,-1.6865,-2.4803,0.7729,-1.7891,-0.58392,8.0378,-1.8936,-2.4827,-3.3323,0.38316,5.6204,8.6325,
-17.5112,-5.3858,-1.5851,-0.4028,1.2085,-4.0919,-7.2973,8.0379,-1.7795,-0.88747,-6.0244,-2.05,3.3554,-5.9855,
-21.0401,-6.7499,0.19721,-1.1015,-0.55128,-3.6049,-7.1005,1.0479,3.3884,2.2993,3.737,-2.1679,4.8413,-18.762,
-13.029,-4.8991,4.5237,-5.8562,1.8919,-6.2812,1.0383,-1.9075,5.5953,1.197,6.8873,-3.0017,7.9248,-18.6006,
-8.873,-0.26659,4.2523,-8.8795,6.5994,-11.2069,5.7965,1.0993,12.0082,3.0536,7.9201,-5.7144,4.0751,-17.4848,
-9.7867,-3.1431,3.033,-3.0441,5.721,-11.9808,4.0025,2.9615,16.5904,6.7268,10.8193,-3.4433,-3.4002,-17.3996,
-4.138,-4.6418,7.9123,4.1285,1.2804,-9.0928,5.4491,9.7735,11.9795,3.1897,5.5904,-1.0675,0.4192,-14.6688,
0.20785,-3.1577,6.2325,1.2294,-0.96583,-6.378,5.3633,13.2846,3.3068,-3.5094,-0.77034,-4.6187,5.4555,-8.2449,
1.6414,-2.9685,2.9662,1.6378,1.9844,-2.1387,2.6316,10.0772,1.1804,-1.8528,0.72191,-5.7876,-0.17425,-2.9297,
6.1222,-5.9234,5.4396,6.6008,1.1424,-1.2875,2.2328,11.1598,-0.57763,0.90989,-1.0086,-1.8249,1.0415,-3.9587,
9.8525,-7.2555,3.9082,0.17942,-4.4695,-4.8255,1.3757,16.516,-3.6762,-2.278,-8.9021,1.4178,3.1479,-2.0342,
7.5743,-3.2045,2.9505,-3.447,-2.9962,4.3819,1.5339,23.479,-3.2145,-0.93622,-7.6448,6.8761,-3.5486,7.0057,
-2.0392,-4.4585,0.84531,-2.2759,-4.2627,9.9036,-0.0044147,23.9985,-4.4679,-0.88004,-5.2579,4.5354,-6.2278,8.0316,
-7.7014,-9.4936,-2.0977,-5.9957,-6.8995,1.1147,-4.3425,18.7022,-4.6817,-3.7198,-11.6909,-3.9314,1.3767,5.6215,
-6.034,-9.165,-2.2128,-2.9849,-4.3159,1.2887,-6.733,18.7849,-5.1242,-4.2195,-16.0511,-1.044,2.017,6.9714,
-3.2621,-5.7228,1.7761,6.353,-2.6109,9.8883,-3.9191,27.7809,-4.3346,-2.5203,-7.8575,7.695,-3.4069,5.1067,
-4.2714,-8.5127,3.3568,4.2849,-6.5518,8.0899,-1.9965,30.6936,-4.7976,-3.5741,-1.3602,4.5825,1.8594,4.5595,
-4.2561,-7.7609,0.50428,-1.5158,-5.4358,5.4354,-4.0459,23.3083,-5.715,-2.1544,0.89054,1.174,10.6655,10.3115,
-4.7241,-7.0543,-1.6954,-5.0403,-1.9762,2.4577,-4.5265,12.0279,-4.6488,-1.7842,-0.36819,-0.10169,4.4819,8.0056,
-2.2715,-7.8364,3.4678,-4.4969,0.31153,-4.6796,1.7706,11.0648,-1.2368,-3.3643,0.37726,-2.7467,-0.36626,1.9816,
2.9265,-6.6433,4.465,-4.4681,-0.43006,-5.1218,3.834,14.4987,1.4889,-2.4396,1.5595,-6.6792,3.7531,0.17551,
1.7868,-4.7982,2.2689,-5.646,1.5237,-0.95784,3.1218,12.1828,0.4355,0.11716,-0.46207,-4.8325,6.4202,-0.79912,
-1.4534,-4.7513,-0.51852,-5.5482,1.6737,-2.5876,1.2473,12.6566,-2.7241,-0.13083,0.77095,-3.3372,1.4557,-3.4023,
-2.3303,-6.8765,-0.48741,-2.805,-1.8014,-3.3964,-2.6842,13.8257,-1.5966,-2.0514,1.6888,-6.9936,0.88617,-4.6442,
-3.3958,-10.0794,0.26496,-2.3957,-6.2726,-0.059624,-3.246,12.2728,0.66838,-3.1332,-2.028,-4.4048,2.0383,1.1776,
-5.1203,-8.5103,-1.197,-3.6982,-7.8244,7.1753,-2.0869,16.3571,-2.7457,-2.4632,-2.8706,3.5722,0.95167,6.892,
-6.0183,-6.3129,-1.3663,-3.2354,-6.1501,9.8778,-0.75689,21.8832,-5.2325,-2.5564,0.91705,1.6707,-0.31027,8.1657,
-4.9341,-9.5493,-2.9714,-3.7644,-4.5756,2.7774,-2.8804,17.9193,-2.7492,-2.6442,3.5133,-3.0086,-1.0148,9.3628,
-4.3971,-16.9301,-4.4803,-3.2975,0.27822,-5.8249,-3.4309,6.9618,0.54879,-1.7622,3.0616,-0.17701,-0.71293,5.1856,
-5.3383,-14.7092,-2.5245,-2.8585,1.9485,-8.6091,-0.57376,-0.92798,-0.20726,-0.45187,3.6006,0.55629,1.4988,-7.4178,
-0.43828,-2.4985,3.6528,2.8566,0.14439,-4.9591,3.558,-1.1128,-0.4358,3.6731,4.1079,-2.1282,3.0961,-9.1419,
7.0598,2.2307,8.0131,6.7826,4.2335,0.88205,5.9961,1.6051,1.76,5.1399,-1.2003,0.16912,-1.669,2.7348,
4.7078,-3.2055,5.122,2.519,5.4256,-0.13497,-0.14849,-6.2043,-1.2384,0.011021,-8.8408,-0.32319,-2.5329,4.4987,
2.9793,-4.9412,6.2609,1.4042,7.5104,-1.5729,1.3065,-18.8472,-5.0202,-0.4718,-3.9718,-1.7498,4.3677,-4.4481,
5.6928,-5.6088,6.3674,0.83781,11.8802,-2.9246,7.4953,-28.8034,-5.6831,-0.44327,-1.8055,-3.5733,3.1416,-7.5555,
8.0026,-7.9236,2.3699,-1.3818,13.8187,-1.0621,5.84,-34.065,-0.28068,-2.5861,-6.2767,-3.1177,-2.1084,-2.5226,
6.076,-8.4127,-0.66477,-2.745,11.0612,-0.51666,3.0793,-37.8059,1.6641,-2.9131,-6.3823,-1.4846,0.91041,-2.3715,
1.1319,-8.1487,-1.348,-3.7853,5.3361,-2.1727,1.6895,-41.0812,-2.0509,0.39498,-3.8299,-1.1548,1.0965,-1.0241,
2.0283,-6.2135,2.5895,-1.63,4.534,0.85022,2.5524,-36.6879,1.4466,4.7101,-1.19,5.1815,-3.3076,11.0889,
0.46056,-6.8048,0.98786,-2.0144,2.3335,4.1734,-0.01109,-32.0765,2.3239,2.499,-4.9748,9.6911,-2.627,14.2801,
-0.28997,-7.1194,-2.2047,-2.1345,0.024346,7.5384,2.1587,-30.8748,-1.9129,2.5901,-7.3274,10.7968,1.1461,5.9515,
-0.75497,-5.7284,-0.62636,-0.56015,1.9511,5.1579,4.4393,-33.843,-2.28,3.399,-5.9239,6.7746,-1.8152,-0.1906,
-0.70944,-5.3849,3.7498,-1.0087,2.3162,2.92,3.2089,-33.2585,1.231,-1.6254,-2.6762,-2.3088,-5.5625,-2.1071,
1.7433,-3.1332,5.4532,-1.9121,4.5878,9.4937,8.8014,-29.3345,1.6395,-5.3843,-1.0693,-6.0266,-1.3723,-3.9089,
1.1563,-4.8738,2.7154,-2.7617,4.794,11.8162,7.7909,-27.5749,-2.3157,-6.0256,-5.3439,-5.1831,0.63821,-7.5307,
0.60496,-6.0277,2.5525,0.2961,1.6143,10.1433,3.4671,-21.1,-3.1411,-2.2896,-2.1308,-1.4977,-3.7389,-0.33045,
0.56889,-5.6658,4.8097,-1.1677,-0.89292,10.0169,3.7412,-15.9773,-6.3268,-1.1881,0.40742,-2.3719,-7.8526,4.5103,
2.4629,-3.8796,5.0033,-3.5078,1.0889,12.3084,4.4811,-16.4647,-5.9472,-0.63489,-2.9915,-1.7476,-2.0788,-1.0629,
-2.2643,-6.2981,-0.35836,-4.9843,-0.18154,8.9186,3.0071,-17.1641,-5.8311,-1.8019,-7.3915,-4.2936,3.1074,-2.6862,
-2.3695,-4.7149,-0.095889,-2.0341,1.5166,7.6601,3.5496,-8.1803,-5.2403,-3.381,-4.7789,-4.2775,1.2337,4.4644,
6.2084,-2.2629,0.63276,-0.22486,3.5947,8.8877,3.5776,-5.0384,-3.7211,-2.9371,-4.2512,0.55848,-1.9738,2.0274,
8.005,-4.2967,2.764,1.4754,1.6918,8.5954,5.5321,-10.7618,-3.2568,-1.0737,-5.6833,-4.5363,1.76,-7.4943,
5.5968,0.29963,10.3109,5.2435,4.9645,7.1156,10.0207,-12.5262,-1.133,-0.52711,2.8526,-10.0489,9.3674,-11.3831,
8.1535,4.1385,13.0669,3.0007,10.9336,1.3865,11.83,-14.1848,1.3456,-1.9417,7.5022,-6.5534,12.1798,-12.6284,
5.7361,-1.4125,6.4981,-0.55381,7.3851,-2.5535,9.6739,-14.2978,0.78245,1.0673,-0.1788,-4.232,10.4847,-13.7988,
-0.39311,-1.8101,1.2875,0.44375,-0.77077,2.4204,4.2728,-7.1737,0.7355,3.4134,-0.65046,-4.4605,8.8913,-10.0789,
4.21,3.8423,2.8977,1.6222,-1.9296,4.9265,-0.56309,3.6211,4.307,1.5216,5.4148,-2.9874,4.7426,-5.3765,
9.2605,1.2017,2.7241,2.9711,-4.2239,3.1846,-1.0112,8.7065,-0.77211,1.4303,-2.6229,1.5302,-5.6648,1.695,
6.5352,-1.522,1.8375,4.962,-9.0322,9.0191,1.2186,14.692,-7.2333,3.5136,-13.3117,4.09,-7.4941,3.2805,
3.974,3.1491,2.4501,2.0127,-8.7312,9.2009,0.90452,17.9074,-4.1482,0.16932,-10.3439,4.0851,-3.9114,-1.4961,
7.1095,6.8161,3.267,3.8202,-4.8334,7.2025,-0.59602,17.3149,0.43903,-1.769,-4.4211,3.84,-4.6411,4.8602,
6.2015,5.9256,2.1071,10.3399,-1.6504,14.4836,-0.56025,19.6509,-0.069242,0.2653,-2.7091,2.1638,-4.8441,14.6919,
0.76725,5.8106,1.7395,10.9248,-2.2747,13.8556,-0.28567,21.1229,-2.2342,-1.9198,3.4786,-2.5458,4.8461,11.1589,
2.1677,7.3904,3.0812,9.7871,-0.6922,6.2756,0.21363,21.3016,-3.0643,-4.2149,8.5727,-3.8391,11.304,7.1151,
4.9302,4.5368,3.8606,7.2717,1.2775,3.9708,-0.28112,17.1314,-7.2192,-4.9259,-0.61875,-3.1268,3.3954,12.4728,
4.6344,3.3003,6.0393,8.2817,-0.24538,3.2507,-0.26425,12.7291,-11.1244,-2.2202,-6.8481,-1.011,-0.6647,10.2786,
4.5973,4.3076,6.3999,7.0614,-0.47163,-0.077875,-0.0074314,7.3856,-12.6261,-1.3641,-6.6782,0.73687,3.9545,0.74384,
4.8031,4.0489,6.98,-2.0392,6.3053,-1.0373,-0.0072153,1.1581,-9.4582,-3.2102,-8.2059,-2.6816,1.3068,-0.26489,
1.6229,4.2884,7.5253,-5.7732,7.8552,-0.97506,-0.48872,2.0525,-7.4449,-0.6075,-8.6775,0.37139,-3.1099,4.5713,
-5.2232,4.0308,3.2176,-3.4984,0.63523,-1.8807,-3.3517,-0.48077,-9.89,2.8032,-8.639,5.1701,-1.9592,-0.5235,
-8.2842,3.789,-1.314,-1.8422,-1.813,1.6066,-3.1506,-4.3081,-2.0658,3.5993,-5.71,2.4497,-1.8416,-1.456,
-3.9308,1.1515,0.21087,-3.1779,0.22396,0.54591,-1.0334,0.28849,1.4322,1.9371,-4.4036,0.37409,-4.1413,8.2724,
-0.079524,1.3234,2.3676,-2.7463,1.8978,-0.20974,0.23394,2.9225,-8.0538,-1.7946,-3.8984,3.4851,-2.688,7.0531,
-4.6543,3.4134,-0.42578,-4.2685,1.0608,-1.4022,0.46064,-4.2425,-8.2937,-3.3739,-3.9057,3.5172,0.12464,-5.1804,
-6.5444,-1.8533,2.7328,-6.1818,2.6841,-3.0055,1.6381,-5.1932,4.0143,0.92568,-0.056156,0.6544,2.7685,-7.5209,
-5.4286,-4.8754,4.7382,-7.9803,0.83607,-3.0659,0.81665,-2.2303,4.4966,0.14701,5.0091,-3.482,0.91538,-6.8289,
-9.6822,0.96074,2.2845,-8.7068,0.54493,2.1792,-0.43718,-1.8555,3.0215,-1.549,11.2161,-3.0321,1.1014,-5.6958,
-18.9832,-4.6401,-2.9138,-15.1738,-0.21066,1.3256,-2.5801,-4.8772,4.0455,-2.6609,9.8202,-2.1268,4.6508,-6.077,
-20.2545,-13.0388,-4.185,-20.0479,-1.1623,-0.19976,-4.8354,-2.6564,5.731,-0.57308,9.231,-1.0353,12.0845,-4.7485,
-19.0393,-6.4719,-3.4519,-13.0605,-1.0926,-0.18777,-6.9559,4.2517,3.4589,-1.0206,11.0877,-2.419,13.2876,-3.9812,
-10.907,5.2444,-2.5219,-1.4308,1.1423,1.9924,-3.4053,10.9862,1.5644,-2.1645,8.735,0.85892,8.8747,1.3187,
-6.3965,1.5555,-2.8525,1.0654,-1.3366,2.355,-2.7188,10.3273,-0.93984,-0.10662,0.98028,1.7719,9.3068,5.5781,
-10.592,-5.0457,-1.9585,-1.1677,-0.53346,1.4904,-2.3147,8.0204,0.32139,1.587,-3.6583,1.4242,9.9532,3.5562,
-11.4027,-2.3329,-2.3231,-2.5439,1.4267,1.8829,-1.212,10.4312,-0.17983,1.4918,-4.4031,2.785,1.1608,6.7173,
-3.4877,4.556,0.70877,-0.46306,0.8592,1.7699,1.2713,13.1798,-3.5435,0.43795,-4.6209,2.6179,-6.6211,11.1349,
6.8445,4.7646,6.9328,4.8669,0.80765,5.0382,6.9796,16.2454,-6.2234,-3.4447,-8.2,0.050245,-7.6701,6.61,
12.2186,1.1049,7.4814,8.9139,-0.20491,9.0749,8.0074,19.6092,-5.8493,-5.6479,-9.636,0.047918,-7.6916,3.8035,
7.6291,2.0025,5.104,3.5584,1.2536,3.2273,3.6701,16.0226,-1.6424,-3.3809,-5.2014,1.0089,-7.2306,5.5035,
1.6275,4.5337,9.3773,-1.2347,5.276,-3.4736,2.2448,9.5174,3.518,-0.044753,0.17212,0.22525,-0.28903,1.0757,
2.2532,-1.7639,9.0556,-1.4015,0.3797,-2.0603,-0.059046,4.367,4.5118,-1.2474,0.88469,-2.9218,1.4155,-7.9065,
0.67176,-6.4788,3.6921,-3.2456,-5.4277,-0.0085317,-0.055503,5.5513,7.6155,0.27374,7.0986,0.14607,0.36674,-5.0219,
-13.4685,-8.0182,-2.3143,-12.6919,-1.2456,-8.6847,0.43022,4.7363,11.015,-2.1528,13.9035,-3.2371,6.6112,-8.0951,
-13.9862,-0.30652,4.5733,-13.3766,12.9291,-9.6101,5.2244,8.3082,18.0671,2.7968,19.818,-5.4533,20.3146,-16.7682,
-8.5675,-0.047165,5.5039,-8.9588,11.3095,-5.9,2.2599,9.9789,10.9571,5.2801,14.0492,-5.367,22.1082,-13.5929,
-13.5968,-6.5516,-2.2979,-3.3594,-2.6252,-3.3766,-1.9728,12.5139,0.89986,0.38426,7.1809,-0.46551,6.6817,-0.48506,
-15.9145,-7.3638,-4.3292,3.832,-8.9752,-1.9692,-4.0241,19.2344,1.0868,-0.36216,0.24209,6.0704,-6.6136,8.944,
-6.2828,-1.6193,-0.21304,9.3867,-8.4367,0.077182,-8.121,25.7936,0.53969,2.0697,-8.4491,8.1163,-9.5913,17.0845,
4.4585,3.0571,10.6458,12.9209,-4.7974,1.2778,0.80196,26.4151,-4.072,-0.70557,-15.4139,3.0495,-9.7387,16.7823,
15.519,5.525,19.407,16.2427,-1.3763,2.8882,11.1179,26.5172,-4.0689,-2.8326,-15.2122,-3.1587,-9.8775,6.3752,
18.6854,2.5422,14.145,11.653,-2.4988,1.0279,4.4255,22.2749,-2.1377,-4.3497,-13.5764,-7.0668,-11.4542,-0.99699,
8.6464,1.1846,7.7529,3.4822,0.30244,1.6893,-2.3477,20.2152,0.15993,-4.8118,-9.1466,-1.5813,-7.6337,3.6423,
-1.0316,2.5596,2.467,-2.0296,3.1766,4.4798,-1.7251,21.4127,0.63204,-2.5951,-1.8491,2.8521,-4.7653,9.6905,
-2.8979,3.3703,0.873,-2.8717,-1.3523,2.2833,-2.1036,22.0561,3.4866,0.93502,5.4927,0.27083,-4.4794,12.4836,
-10.1956,-3.822,-4.2411,-6.797,-7.7789,-2.4332,-6.0749,17.1171,6.4107,0.15579,9.7426,-0.46854,-0.59547,6.1907,
-16.574,-9.1361,-10.0124,-8.5585,-4.6608,-3.0104,-6.9155,15.3669,5.7849,0.38763,11.327,7.5131,9.3224,1.2398,
-18.2306,-5.9364,-7.7242,-4.9115,-2.694,-0.17865,-4.8133,21.4348,-0.10539,4.4617,6.0681,8.2676,12.3785,7.1914,
-15.4496,-4.857,-7.0195,-1.4836,-10.0039,0.073268,-2.3551,25.6925,-12.3914,4.9172,-7.0702,1.7462,3.1999,11.8213,
-10.4255,-7.2172,-9.2499,-1.6355,-12.5376,0.30984,-0.52707,26.8021,-20.5659,2.453,-20.3848,0.43615,-3.5001,7.9786,
-4.7383,-5.0969,-7.0077,0.63175,-10.0977,3.4247,-0.25402,30.7376,-19.091,-1.3096,-19.8846,-0.31292,-1.1204,0.99238,
2.2949,-1.4166,4.0181,3.0044,-8.0456,0.32673,3.6176,29.8576,-14.5711,-3.6412,-15.799,-5.1149,-3.4633,-1.9597,
13.2447,5.417,17.7565,7.1623,1.596,-1.1389,9.1854,24.692,-5.9838,-2.4586,-15.3332,-3.3619,-4.702,3.9427,
5.9421,7.2612,14.0396,3.599,2.7051,-1.3115,2.6082,21.0408,0.88268,-2.5525,-14.1725,-0.99106,-9.4816,2.9828,
-8.5144,5.3795,7.4126,-0.955,-0.34954,1.6594,-0.92248,24.1169,6.1321,0.010986,-2.2349,0.99683,-9.3944,0.39346,
-11.9807,2.8871,5.7628,-1.6211,-1.5334,3.729,-0.14423,24.3571,6.4876,0.73369,1.0327,0.21366,-5.2153,3.9853,
-10.5387,2.9551,3.2476,-1.7645,-0.23633,1.8178,-1.8226,19.762,4.4109,-0.51586,-3.6088,2.8522,-2.2515,7.8437,
-9.9062,3.7421,1.1248,-2.6225,1.2241,-0.7009,0.69736,18.0948,3.6643,-0.96638,5.2848,7.0198,-3.0803,3.9991,
-8.8298,1.5894,0.57515,-5.8396,-1.2599,-0.6593,-1.2731,15.5629,2.9625,-1.3908,14.1268,1.7779,-2.4135,-0.097671,
-6.1309,0.77064,2.7098,-4.2844,0.020967,-2.307,-3.3659,10.0493,3.0257,0.86182,13.5201,-1.9442,5.2031,0.14916,
-1.9067,1.6887,3.0294,-2.0992,2.4298,-10.3633,2.6206,2.6979,1.8803,0.32817,9.8164,-1.8275,8.2653,-7.0902,
4.2337,4.239,3.5707,-1.2498,2.0431,-14.8027,8.007,-3.9719,1.5265,0.54945,8.9864,-0.99452,9.939,-10.2802,
3.0152,0.12754,2.8743,-3.1033,2.4027,-14.3971,2.7061,-12.8924,1.4347,0.034321,7.4832,-3.3452,9.3425,-3.3971,
3.5576,-3.4951,3.9072,-2.1937,4.4277,-11.3637,0.37458,-17.6624,2.0715,1.2376,7.7575,0.47092,2.274,2.3508,
4.5492,-2.0803,5.8419,0.10683,0.064874,-9.4768,2.5215,-19.254,2.6703,0.92256,7.0509,1.1658,-4.3697,-0.9235,
1.3837,2.3828,5.9731,0.10042,1.5068,-5.5342,-1.0047,-21.9556,4.4383,1.8306,8.0736,-0.8328,2.1585,-2.7967,
-5.2068,1.9989,0.55348,-0.14657,5.0318,-3.0325,-5.5233,-26.1814,2.0029,0.99834,8.7945,0.90485,6.1268,0.98649,
-6.3408,1.3966,0.038112,1.308,5.2118,3.4159,-0.37161,-23.6467,-1.0098,-0.50828,4.8924,7.599,-4.3641,11.5321,
-1.1397,4.6875,1.964,1.2298,2.9707,9.4777,2.0606,-21.7457,0.014853,-0.95949,3.6347,8.1072,-6.9946,16.625,
-0.83056,2.2368,3.5332,-1.4953,2.5517,10.1141,-0.23198,-26.9487,-1.1911,0.30315,5.586,4.487,-1.9954,9.6017,
-8.7345,-6.3331,2.5983,-5.503,5.0497,4.9275,2.915,-33.2857,-10.5196,-1.4023,-0.29273,3.013,-2.5986,2.0362,
-3.8718,-7.3991,4.8527,-2.2805,7.639,4.1502,9.9711,-30.8064,-13.7446,-1.8003,-3.1675,4.2782,-1.4786,4.8063,
5.7607,-6.7144,6.7307,-1.4205,3.5655,7.5163,10.096,-29.199,-12.6792,-1.933,-7.075,-3.4501,-1.1486,1.3847,
9.5122,-2.214,8.978,1.316,3.5923,14.055,9.731,-26.7242,-9.7491,-1.0944,-10.2657,-5.8944,1.5711,-1.8321,
0.023838,-1.3582,7.7164,-0.45018,4.1001,9.5967,6.496,-24.3974,-7.9588,-8.0181,-9.8907,-3.8535,1.7183,-4.8552,
-10.3419,-1.0358,7.0125,-2.5923,5.5413,5.4055,10.2036,-27.0311,-0.97381,-7.778,-1.3435,-1.4531,2.82,-8.1793,
-11.6496,1.4367,9.0018,-0.50882,10.5113,8.9373,15.8581,-28.7837,5.3514,1.8475,6.4496,-5.7045,7.4713,-9.617,
-12.6376,1.1096,7.7388,-1.2012,7.2295,7.1963,10.8093,-27.2974,5.7532,1.0137,2.9296,-9.9415,6.3001,-10.2448,
-15.7357,-0.40305,4.3822,-5.4677,-1.8811,3.3898,5.8222,-22.7673,4.4439,-5.3138,2.7536,-2.5963,-0.82655,-7.2197,
-16.72,-5.6815,-0.21928,-9.9603,-1.7683,1.2582,3.5447,-21.4015,0.32087,-4.995,7.891,-0.51236,-1.2594,-8.7152,
-15.4756,-7.5098,2.4452,-9.6032,5.3277,0.94177,4.0553,-19.394,0.54258,1.3302,12.9612,-5.0609,6.7704,-8.9152,
-15.7522,-3.4438,3.0216,-7.3403,-0.53558,6.4289,2.1248,-14.6152,-1.6591,1.0095,8.0862,-5.9625,1.3025,-9.5851,
-4.6841,4.4756,9.1068,4.1874,-3.396,14.7202,8.2638,-3.133,-0.59572,0.9489,5.1909,0.17979,-4.5602,-8.0461,
-1.0289,2.2787,10.9708,8.7566,-2.2281,10.9447,5.8396,0.42922,2.3328,-0.55407,6.3255,-1.7594,-6.215,-8.0455,
-9.403,-1.9554,5.7328,3.1696,-2.3354,9.0828,-1.9826,-1.2838,0.98752,1.1659,4.7406,-1.4129,-4.6368,-6.8399,
-14.141,0.57227,4.425,1.0514,-4.1232,12.3944,-0.41716,-2.6528,-2.9279,2.5425,-3.7383,3.9748,-2.4302,-2.5729,
-13.7747,3.9124,6.5698,2.9165,-4.3582,12.6146,1.5361,0.39892,-2.7522,0.46174,-7.3704,5.1825,-1.8025,5.7766,
-14.8767,1.7492,3.2831,-0.63269,-0.72251,9.9298,-0.0025912,3.2668,-1.6234,0.91619,-5.0002,-0.43129,-2.1765,5.9117,
-12.2966,-2.935,0.43503,-1.3176,3.9006,9.093,4.0954,5.2404,-2.2489,1.5841,-1.5667,-3.0565,3.9801,-4.3249,
-4.5692,-4.9283,2.0959,0.44842,4.8716,10.7164,7.9468,6.1311,-2.3552,-3.5724,3.1064,-1.1861,9.2847,-8.6449,
1.4896,1.1522,5.3446,1.3856,5.0615,8.145,6.5059,7.2092,-0.7674,-6.7327,5.8123,-2.561,8.7274,-9.0903,
7.426,7.1086,10.0856,7.81,11.2653,7.4158,9.249,12.3203,4.3403,2.1074,5.223,-3.1302,11.3372,-10.7141,
3.1238,3.3076,10.9265,8.3057,12.0356,9.8629,7.7297,11.0991,5.0438,1.499,4.4273,-5.353,8.7288,-8.143,
-4.5354,0.45809,4.2451,1.2994,0.94915,9.0301,0.75848,4.8896,4.0182,-6.5451,3.4387,-6.2367,2.6615,-6.4491,
-3.7812,-0.051554,1.5803,0.25735,-3.4459,0.77533,0.71274,2.6678,3.7769,0.11432,-2.0705,-0.56004,0.57335,-3.1699,
-8.616,-8.0024,1.2443,-1.4451,-3.4803,-9.6353,-1.499,-2.0718,-3.9217,2.2768,-12.7923,-0.76763,-5.9688,2.0817,
-10.9913,-7.0401,4.5441,-0.39429,-0.86161,-2.7904,-3.3374,0.46286,-0.31174,-1.2344,-9.6144,1.2069,-4.6465,7.2592,
-8.4036,-2.7616,4.2714,0.11153,-2.7379,-0.21265,-2.1731,-0.52901,2.5993,-5.4985,-6.6272,-1.2759,-1.9574,-3.7814,
0.53672,1.0198,8.5949,5.6487,3.9346,2.9334,6.3936,2.1541,1.2382,-0.58905,-4.5421,-0.95817,0.81183,-8.134,
-5.5213,-2.6566,7.3561,0.24785,3.4573,-0.85782,3.3582,-0.62651,-5.8257,-5.1332,-7.4033,-1.6238,-0.92433,-4.5127,
-9.5285,-0.56923,7.3964,-4.1056,4.2135,-1.7709,4.1209,1.339,-1.1381,-4.3435,-3.5849,2.8122,4.9155,-0.86772,
-6.0645,-0.53508,7.435,-2.8949,3.9611,-0.2184,2.9097,1.2592,-0.58739,-4.5648,-3.8517,1.6791,3.1747,-0.8152,
-3.2903,-0.50274,6.9887,-1.7571,2.7594,1.2412,1.7711,0.70145,-1.0343,-4.7727,-4.5847,0.61427,1.5378,-0.76652,
-0.44156,-0.71378,6.8106,-0.44663,2.3526,2.3718,0.45972,0.41816,-0.73152,-5.2094,-5.0327,-0.62765,-0.24149,-0.96172,
2.236,-0.43021,7.1251,0.78523,1.4883,3.9165,-0.29099,-0.33006,-0.92836,-5.62,-5.4539,-1.7951,-1.4321,-0.66282,
4.9942,-0.40417,7.1793,1.7022,1.3988,5.1275,-1.2381,0.17191,-0.39096,-5.765,-5.6088,-2.6514,-2.7926,-0.62328,
7.3458,0.34298,7.4719,2.8054,1.0739,6.5071,-2.3686,-0.07937,-0.12608,-5.66,-5.9952,-3.6977,-3.8299,-0.34446,
9.7974,-3.0521,7.0236,1.1908,0.045604,0.81402,1.6299,-5.3773,-0.11897,-3.3922,-6.1174,-2.0295,-1.19,-5.6264,
8.2454,-1.9046,5.6378,1.1193,4.3812,-0.68062,2.9783,-0.7163,-2.522,-1.7424,-9.1248,-1.9078,-1.1186,-4.325,
3.8943,-1.7901,2.4073,0.57002,4.1185,2.2525,-1.057,-0.19116,-0.44222,-5.0126,-4.2388,-1.3111,-2.9794,0.755,
4.625,-5.5391,-1.5931,0.53582,-4.3233,3.5636,-1.9574,-1.6255,3.9231,-0.37304,0.83625,-1.2325,-3.2826,3.1203,
6.5164,-4.0017,0.18948,2.6731,-8.6439,2.1443,-2.0812,6.4256,1.5183,4.7108,-2.3476,0.046547,1.0115,4.6201,
3.4743,-1.1102,1.3832,1.3076,-5.4734,1.7749,0.21308,10.6195,-4.1166,-1.5972,-3.8938,-1.1613,-2.6644,1.2096,
3.7478,0.4024,1.7823,2.6752,0.15738,6.9708,6.949,10.4645,-2.4236,-3.4298,-0.28593,-1.5738,-6.3612,4.9932,
0.38969,-5.6475,-4.8325,0.34529,-2.9853,1.4911,1.9525,8.6316,-1.5546,-0.57266,-4.3659,-2.2025,-1.8819,5.8991,
-1.5619,-6.2725,-3.0961,-3.0494,-2.3243,-0.044617,-0.57476,10.0419,2.877,3.3181,1.1982,-0.14215,2.5693,0.72446,
-2.1913,-5.1733,1.1866,-3.5898,-2.9082,1.1634,-2.2275,8.2341,3.4273,2.8776,7.1519,-0.85652,-4.5747,-3.4164,
0.83269,-6.7911,4.4903,0.96435,-2.7332,-2.2809,-4.9859,9.1863,3.704,0.77719,3.3488,-0.3232,-5.2641,-1.2832,
2.2288,-5.4193,6.1486,0.4241,0.80477,-7.9286,-2.759,10.0814,4.4457,-2.6439,-1.1909,-1.7501,0.35441,-3.6163,
4.5052,-3.6481,5.298,-0.56545,1.2386,-6.0069,1.2631,7.5481,-1.6059,-3.9318,-0.6373,-7.4294,-0.14902,-5.8097,
7.6093,-3.9114,5.4623,2.8432,-2.2099,-5.1643,-4.597,7.0954,-5.8476,-7.0701,-3.9733,-12.2861,-2.5504,-6.4252,
7.3939,-2.9536,6.3396,6.7697,-1.3542,-6.0595,-6.0086,12.6955,0.52901,-7.8509,-2.5298,-9.8619,-3.6025,-6.7628,
5.986,-0.84839,6.4409,4.9175,2.5832,-5.6962,1.1006,12.4154,2.9072,-3.0413,1.9605,-5.896,-2.9042,-6.8392,
9.2422,-1.0382,6.7776,0.52485,4.5976,-4.6313,3.6858,9.0192,-2.8111,-3.1,0.63782,-3.3728,1.3672,-6.1877,
11.0981,-3.8682,4.4425,-0.47073,2.8753,-5.3175,-2.3201,15.2267,-4.5704,-7.7345,-1.8108,-1.7244,1.7673,-3.8885,
6.8168,-3.3952,3.9355,2.2091,1.016,-7.6495,-3.3857,20.3391,-2.127,-3.655,-2.4251,1.0306,-4.3642,-2.4499,
4.7205,-2.9505,3.4584,2.3175,-3.1423,-6.9496,-0.049111,12.6108,-3.2042,1.626,0.37154,-0.23653,-4.3434,-3.9901,
9.4987,-2.0503,4.4555,2.9011,-4.6412,0.45703,0.67651,11.613,1.5671,3.2154,8.3032,0.98272,8.6915,6.6134,
3.1445,-4.8196,1.2963,-1.1291,-1.9524,-3.4266,-3.7022,12.3627,2.9195,0.61257,7.3229,1.8879,7.6883,7.1807,
-1.6239,-2.3613,3.3872,-0.8204,3.226,-7.8007,-0.82895,13.7901,4.9135,4.1908,9.0526,1.5336,1.6829,-6.5065,
2.0889,-1.4967,5.8356,-1.0121,0.38131,-7.5736,0.42562,12.2393,8.2341,1.2882,9.2324,-5.5483,1.341,-12.6241,
3.1691,-3.0939,10.0649,-1.6745,-1.3286,-6.3961,-1.2869,12.7105,6.535,-2.4042,6.0276,-8.8306,1.9836,-1.984,
-0.87789,-3.3902,10.4249,-1.0921,2.1251,-6.4943,-0.24537,13.3937,4.2147,-0.33226,2.2915,-9.2651,-0.063574,-1.8654,
3.7543,-2.4636,9.0767,0.66084,2.2388,-5.8639,1.4563,12.3493,4.2026,-3.9275,-3.3899,-7.986,-0.78289,-8.2612,
11.7242,-1.8339,9.0141,1.5851,-3.6801,-0.20938,-4.4156,15.4647,2.9866,-5.1381,-2.2221,-2.2042,2.1566,5.2499,
11.0205,-1.2417,8.9554,3.4184,-3.9414,5.588,-7.043,21.2855,1.8433,2.4012,6.1061,2.7485,4.4371,17.4681,
1.9236,-5.7469,3.8383,3.4542,-3.9459,1.1554,-6.8614,18.3212,-2.8471,2.0162,-0.28579,4.2708,-2.3366,9.4306,
7.1108,-3.4735,5.0543,9.0316,-1.781,2.0499,-1.147,19.1501,0.21628,4.7873,-2.6792,15.1018,-6.5347,14.1675,
7.1659,-3.2653,6.6794,4.1511,-2.1563,-0.48345,-3.9705,17.037,1.6493,6.4285,-0.59005,13.7135,-8.553,19.1018,
-0.73586,-2.3465,5.5553,-3.0878,-1.7859,-4.5518,-7.8301,18.6659,4.6839,7.2476,3.0608,6.3828,-4.9063,11.9301,
-3.8252,-1.4828,1.1246,-6.0356,-1.4378,-6.4478,-6.155,17.3049,5.6077,6.5718,4.5639,5.2769,-4.8534,3.7425,
-1.4261,-3.563,-0.63006,-4.9505,-2.5564,-4.3737,-4.0985,14.0975,4.0664,3.5264,3.5672,0.86295,-1.9106,3.7589,
3.9619,-1.4208,3.7463,-0.31496,-4.8133,-1.7014,-4.8166,19.5184,4.786,0.90443,3.3529,-4.9736,2.0602,1.605,
8.5445,0.11073,10.27,3.5603,-5.4884,-3.0451,-3.0814,22.6856,1.6068,1.3321,1.7059,-5.1572,-2.4018,-5.7217,
13.5756,0.82722,13.2694,9.8544,-1.5439,-4.0675,0.23675,15.7811,-0.17661,4.3854,-0.083886,-1.2321,-3.9447,-2.7271,
9.3869,-1.6328,11.9911,6.8528,-0.48719,-4.3056,-3.1517,10.0137,-2.094,3.6406,1.3676,-0.19405,-1.7795,2.7389,
3.28,-2.7401,10.5487,0.41608,-0.21699,-3.3244,-1.7577,16.4023,-0.28157,-0.67565,2.4904,0.54049,-2.3961,2.3336,
4.2885,-0.88847,9.1929,4.0065,2.4476,-3.3659,3.4094,22.8904,-0.023248,-6.6607,-3.6846,2.1953,-3.9396,2.9165,
6.6823,0.85207,9.3642,10.2736,2.5417,1.4154,4.4097,22.2399,-5.084,-6.02,-8.0428,0.37635,-3.9442,6.357,
7.9686,0.55998,10.4896,6.5242,-2.1906,6.8745,2.4583,24.0386,-7.912,1.331,-5.391,0.1128,-4.9128,8.1447,
4.3572,-0.19675,9.619,0.58889,-2.7818,0.43627,2.0696,19.9454,-5.7503,-1.4002,-4.8264,4.6855,-5.3407,5.969,
-1.2068,-0.18495,5.6674,-2.8209,1.7234,-4.8926,-2.3929,11.5178,-2.5127,-5.1725,-1.6447,4.8863,-5.9846,-2.1019,
1.7576,0.79002,5.3274,-3.1336,3.5482,-0.74262,-3.2136,13.7188,2.4583,3.3325,4.2385,0.25485,-2.2511,-2.9401,
4.0625,-1.1853,6.9357,3.3212,0.92497,-3.5903,-2.5386,16.2699,1.8286,0.72222,-4.2107,-2.1708,-0.18805,5.4312,
7.434,1.5371,11.0995,9.1477,1.5926,-5.0619,-4.5557,9.2684,1.9601,-3.9002,-8.0552,-0.83549,-3.792,5.3466,
8.1932,1.6858,7.3001,3.5371,4.6301,-5.4816,-2.5951,-4.5446,3.0478,-0.051203,-2.0287,-5.3651,-7.1803,-9.0742,
9.1477,1.5845,6.3799,-0.049309,10.619,-7.563,3.8273,-12.4664,5.7572,2.3622,3.8778,-4.561,-2.4105,-8.6503,
7.6349,0.52552,7.9258,0.43558,7.5717,-12.8934,-0.25872,-20.395,0.59153,-0.67157,0.75307,0.53334,-4.676,-2.3467,
5.4898,0.73519,7.691,-0.79562,2.5379,-11.879,-4.8227,-23.7508,-5.9517,2.02,-3.3897,1.2245,-10.9031,-1.9647,
5.4014,-0.51422,8.4348,-2.917,4.0729,-4.6584,1.4927,-22.0848,-8.2461,3.5861,-1.981,1.392,-8.0798,3.6968,
10.3795,-1.9296,9.8564,-0.33189,6.7206,-0.040529,6.2234,-24.1342,-7.7514,2.8885,0.54796,5.6468,-4.221,11.1873,
13.3726,-0.60855,10.4703,-0.55294,5.1125,-1.2434,5.609,-31.6042,-5.599,1.5104,0.27412,1.693,-5.6545,4.4905,
12.0881,2.8022,10.3243,-1.0019,4.806,1.2416,8.1647,-35.4923,0.5217,-2.9188,1.7037,-8.5317,-1.4591,-5.9016,
13.2908,1.188,8.2588,-2.3878,4.9993,1.1668,10.0847,-33.363,0.0082379,-5.636,1.6012,-12.8407,6.3415,-10.8503,
14.6625,-2.0167,8.4862,-1.0397,3.4941,-2.0362,8.7568,-28.7101,-3.1257,0.24581,4.1567,-5.5624,2.3456,-6.5839,
13.0596,-0.20828,7.2539,1.674,2.5618,5.5576,5.0981,-24.8181,2.1233,5.7744,8.9688,2.243,-4.7853,3.2109,
11.3119,-0.67795,7.7827,2.5376,1.9259,14.3834,1.418,-22.3649,4.4062,3.0181,8.9128,0.18041,-4.4979,5.4286,
11.1156,-2.0835,6.8338,1.9034,0.84647,12.0741,2.7792,-15.7204,0.76785,-0.055525,8.86,1.1339,1.0746,8.9597,
9.7255,-4.1275,1.8443,-2.3079,-4.2662,9.1803,4.2994,-13.0902,0.48058,-1.7392,7.1233,5.163,-1.1593,14.9294,
12.5162,-6.7721,2.6977,-2.1696,-7.3845,12.968,0.66723,-16.6429,-1.4767,-5.0091,0.91156,3.8891,-5.9102,16.9264,
14.4166,-5.1607,5.6691,3.022,-3.3262,16.7694,-0.095935,-10.1009,-4.0394,-1.0933,2.0619,0.04059,-1.9399,16.6335,
5.8388,-4.3691,3.4008,0.91247,-1.6804,11.425,2.3199,-3.7103,-4.279,3.3106,0.49196,-1.89,-1.3416,8.887,
6.9345,1.1954,4.1608,-1.5526,-0.61547,9.7754,7.0012,-7.3443,1.2802,-0.26227,-2.9122,1.5976,0.18491,1.6051,
7.2414,-0.081584,4.1522,-9.4132,0.62675,8.4655,6.8221,-17.2675,3.8549,-4.8263,1.8422,2.2246,2.343,-2.1071,
0.29962,-6.5839,1.7341,-14.8737,1.3123,6.7525,2.7976,-19.3647,4.8287,2.4534,9.6857,-1.524,0.99734,0.18874,
3.1735,-4.7433,0.18356,-7.715,0.75138,8.2753,1.1833,-16.2748,4.0568,5.198,10.5506,0.013436,1.4197,2.1058,
8.5271,-0.84285,4.2704,-2.1905,1.4297,7.0563,-0.092565,-16.9851,-1.7298,-6.4416,6.3021,-0.22834,0.12965,-0.6716,
8.9794,-0.79228,8.3525,-2.059,0.86148,4.7043,2.3231,-11.1458,-2.1084,-5.5732,5.924,-0.69657,-0.84246,2.7427,
8.9228,-2.6727,5.441,-0.97139,-3.5283,5.3866,4.1122,-2.764,-0.53537,-0.41829,4.6044,0.30932,-2.2379,5.4709,
6.9411,-1.5489,1.2581,-0.9131,-2.8351,5.063,2.4192,-2.1167,-3.3962,-6.1782,4.3282,-1.6379,-2.5861,-1.1243,
4.8375,-0.25071,3.3518,-1.0993,1.4323,5.9645,3.9612,-2.7126,-0.5409,-7.4943,8.6478,-1.2982,-0.74367,-2.7441,
6.4756,-3.128,5.561,-3.4437,0.86469,5.1244,3.7233,-3.0315,2.3838,-3.6704,11.0212,0.70766,0.26505,0.79476,
5.1228,-5.3504,2.8172,-7.0934,-4.9718,3.8531,-1.8023,1.0067,-0.65125,-1.5215,7.9498,0.18327,1.2135,-2.6269,
3.6106,-2.8598,3.3711,-4.4982,-4.4325,7.7193,0.47504,10.8283,-3.7457,0.73891,3.3755,-1.0326,4.2741,0.66418,
6.527,-3.8935,2.4459,-3.5054,-1.0331,8.9433,0.68751,10.4195,-5.2081,-0.99265,-0.44249,-3.1402,-0.56204,9.06,
8.3045,-5.8295,1.5758,-3.0546,-2.1764,11.5398,-4.4154,7.6252,-3.2084,-0.69258,1.2713,-2.7108,-5.1081,8.275,
3.7089,-3.3101,2.6866,-0.7017,-0.84049,9.1606,-0.052685,10.3012,-2.775,-0.4096,0.47211,-0.86051,-1.1857,-1.1391,
2.5225,1.2268,3.0073,-0.17767,2.102,4.7541,5.7346,11.6113,-6.4648,-2.3132,-4.3769,1.1189,1.7775,-3.4814,
3.8172,-1.2571,-0.54735,-1.1311,-1.3983,-0.35114,-1.8401,4.1659,-10.8974,-3.6205,-7.4885,-4.7326,-6.5241,-2.3079,
1.9009,-0.94074,-0.27355,0.62399,-3.0017,-2.0173,-4.3808,-1.6276,-6.1462,0.69412,-9.2084,-9.0284,-10.7119,-3.3747,
0.82275,3.4543,3.599,1.0683,0.55265,-0.45069,-0.26177,-3.4584,-1.9213,2.0985,-6.246,-2.22,-8.6236,-3.6544,
3.9069,-2.2966,5.5527,-2.1289,2.2067,-6.4487,-1.4509,-3.0099,-1.5646,-0.6785,-2.2558,2.9749,-11.2393,-0.30167,
3.1903,-4.5692,6.6656,-1.037,0.14635,-7.5083,0.082183,-1.3833,2.3854,-2.5662,3.1824,0.86799,-7.1907,3.5726,
-3.5086,-4.0541,3.1321,-0.73385,-3.4778,-2.9605,-1.61,-2.5051,1.5194,-6.5096,6.6069,-4.7277,-0.25129,-2.1854,
-0.88842,-4.2927,3.9081,0.75644,-1.8234,0.1097,-1.5138,-0.90902,-0.98235,-1.2988,3.318,-2.0339,-2.1644,-6.875,
2.2986,-6.2046,4.3967,-0.012076,-0.99085,-3.5125,-1.1818,-1.0952,-1.1641,4.8049,-3.8712,1.7038,-11.4348,-1.883,
-1.9367,-8.0015,3.892,0.71155,0.2739,-5.9529,-4.7263,-2.2348,2.5211,2.3475,-0.50546,2.8068,-12.4359,4.256,
-7.3641,-8.2443,3.4179,1.3922,1.4628,-6.3186,-7.0938,-2.3417,2.6108,1.4837,3.6227,2.8794,-2.7717,3.2778,
-8.8504,-7.7496,2.7305,-0.61951,2.3389,-4.4937,-5.2219,-2.2012,0.52598,7.6612,0.030866,5.1168,3.1792,2.1168,
-5.4273,-7.7666,3.049,-1.5462,-0.2116,2.0429,-5.3906,-2.551,1.9407,7.6835,-0.45292,7.2203,1.5426,4.4003,
-1.968,-5.6136,0.21477,-1.2127,-2.8502,5.0536,-6.7541,-1.1929,0.61918,0.23283,1.7436,5.0997,1.2089,4.8595,
-2.573,-0.21531,1.8889,-2.345,3.3466,4.5092,-3.2156,2.0119,-2.5512,-1.4681,-1.0128,4.0706,3.7877,4.8086,
1.1965,1.4851,6.3551,-2.4455,6.279,3.5155,1.0744,0.20421,-3.1213,-0.17498,-2.639,4.5495,3.3192,2.8327,
7.8734,-1.0144,4.5273,-0.37034,0.59941,3.3048,2.456,-1.7365,0.44022,-1.611,-2.9628,0.41987,-1.2185,0.73473,
5.2319,-4.569,2.0865,-1.5534,-1.1238,2.8655,3.0315,2.947,2.101,-2.2372,-6.8824,-6.1128,-6.689,-1.4785,
5.882,-3.8127,2.4434,-2.4243,0.39013,2.6938,0.92169,12.4118,-2.8455,-0.17456,-4.541,-9.6022,-9.6619,-5.2464,
12.7597,-2.1379,2.779,-1.3148,-2.5256,-0.36054,-2.9898,11.6669,-6.5314,-2.5744,-2.3406,-10.4726,-8.6,-5.4138,
11.0303,-4.9017,1.166,0.21039,-3.8203,-2.2666,-2.3285,2.7722,-4.2113,-8.2046,-5.5746,-7.4336,-10.0122,-3.6422,
5.0658,-5.0899,3.0242,-3.1767,0.26531,1.7253,0.22138,3.0873,0.37968,-6.2665,-5.7221,-1.6854,-8.9295,-6.7986,
4.5209,-0.68674,7.4225,-8.5297,4.3472,3.7914,1.8953,9.8924,2.5265,-2.757,-3.6915,1.5492,-3.814,-10.97,
6.1778,-0.16406,3.6027,-7.536,-1.6987,1.1533,-3.521,9.7808,-0.035662,-2.5916,-0.57797,0.97432,-5.9958,-5.0091,
11.3508,1.5335,3.1456,0.87038,-6.176,1.8075,-6.4428,8.953,-0.27449,2.1437,1.6263,4.0489,-9.2514,9.3914,
8.5003,-0.24599,6.572,-1.3512,-4.6004,0.011572,-5.3336,5.2821,-4.8375,3.702,-6.4252,4.0471,-7.4913,9.6713,
5.8212,-8.6669,7.865,-5.3675,-2.1552,-3.6041,-2.8439,2.3141,-7.1984,0.34688,-8.2089,1.6352,0.43046,3.5479,
9.0873,-11.7628,5.7058,-2.8763,-2.2669,-2.183,-3.8786,4.3444,-0.259,1.5309,0.71933,1.778,1.1275,4.5398,
5.6498,-5.7541,2.9536,-4.6317,-4.0588,1.3222,-7.9844,9.3866,6.9876,7.7058,7.4249,5.0456,-5.6888,5.7135,
-4.5711,-4.686,2.5349,-10.3798,-3.0924,-4.3007,-7.2644,2.3155,7.2913,5.5562,10.1128,7.8763,-0.76818,0.30898,
-7.6713,-10.1894,0.45465,-11.2033,-2.9069,-11.2735,-6.8285,-5.0543,3.4793,-1.5261,10.9523,2.583,10.3651,-7.9043,
-1.9086,-6.2034,2.3558,-7.1564,-1.2864,-7.7048,-4.4904,3.4439,3.7527,-1.4343,10.295,-4.3206,8.7791,-9.8404,
-0.34762,-1.4926,7.0349,-4.799,-2.1733,-8.2062,-3.7388,9.9859,3.0459,-2.7942,7.2674,-11.292,0.53984,-13.1061,
2.3241,-0.19799,8.7822,1.9966,-2.7661,-5.0629,-4.2376,10.1099,2.6219,-1.4215,8.0364,-7.4812,6.0508,-11.1147,
6.7642,0.53656,4.6396,5.9744,-2.8408,1.2666,-4.2245,12.6366,3.1877,2.7609,3.4566,-0.52465,6.4109,-4.9044,
10.9376,0.2634,5.0842,3.9287,-0.019284,2.8778,-4.212,18.8678,2.755,3.3181,0.11574,0.22973,0.48265,1.4154,
8.5944,-2.8857,7.4304,0.077796,0.705,-0.42809,-3.2362,15.0849,3.3129,4.3246,2.7601,1.4215,5.0332,1.0897,
-0.35721,-6.3282,3.8514,-5.9531,-3.4349,-8.8388,-2.3193,4.2976,1.4271,3.342,3.3176,2.0589,7.8645,-7.8939,
-0.81794,-4.502,3.1381,-6.5596,-2.7466,-8.3082,-1.2156,3.0757,3.7518,3.6236,5.0465,1.9356,6.4285,-9.8302,
-0.7684,-5.6781,1.504,-8.0942,-2.5818,-5.3991,-4.0352,3.8554,5.4549,3.4062,5.2261,-2.037,3.1507,-6.8303,
-2.1688,-4.8553,3.3417,-3.2704,-5.3192,-6.0397,-3.3109,8.4441,4.6455,3.6835,4.9123,-1.433,4.8897,-6.4207,
-2.0384,-1.6717,4.5873,5.6031,-6.4461,-8.0873,-4.0764,17.5787,2.9207,3.9447,5.0998,2.5096,5.5604,-6.5171,
-2.8805,-3.0176,3.3482,7.6771,-2.6853,-5.6738,-7.6882,18.9346,0.33487,3.708,4.3119,3.3233,2.3342,0.1404,
1.3897,-2.5956,7.2446,4.5653,-1.8008,-5.0924,-6.0216,12.7368,0.5562,3.2446,1.884,2.4005,-0.93885,3.2655,
10.4656,0.93481,10.1846,6.7018,-4.1032,-6.7148,-1.8041,12.4548,1.9689,2.5682,1.2888,1.2929,-2.3286,-4.1611,
11.5249,0.63776,8.3683,7.5045,-0.24154,-5.5891,-2.4188,13.8766,-2.2466,3.137,1.4524,0.010011,-0.019678,-8.4907,
9.3871,-0.84677,5.938,3.1978,1.2192,-4.7718,-2.7561,11.5978,-4.5224,2.4664,1.3653,1.4552,0.94537,0.213,
6.1726,-2.001,2.4484,0.35465,-2.9515,-6.1725,-1.3852,9.6968,1.2928,1.5957,1.0422,3.0554,-1.7627,4.2978,
-0.22377,-1.1581,0.61385,-0.87192,-2.0515,-4.1154,-2.5074,11.2842,5.3126,3.6687,2.6669,1.1848,3.8867,5.7272,
-4.7894,-2.7756,-1.5919,-5.3991,-1.6872,-4.5911,-4.0439,11.3303,0.89623,3.2078,2.2661,2.3188,6.7868,7.5529,
3.4517,-3.8143,1.1547,-5.3161,-0.38118,-6.4853,-1.1502,12.3377,3.9759,4.7026,3.8169,12.5435,3.7285,7.3407,
5.1728,-4.5498,1.0854,-6.4434,-4.6966,-7.06,-2.5274,10.6331,3.7374,4.4204,3.106,11.309,-3.2442,3.0439,
-2.8506,-4.2766,-0.90768,-9.431,-3.4507,-5.6723,-2.3756,9.031,3.031,4.6374,2.9198,0.9897,-0.15722,-0.99537,
-8.4639,-6.9123,-4.2274,-10.3112,0.61293,-9.1886,0.65927,7.0431,3.3313,4.3589,2.7444,-0.9981,1.7806,-3.8279,
-4.0997,-2.1588,-0.11741,-3.908,0.094217,-4.2985,-0.82655,10.4769,1.2032,7.9542,6.9185,7.7389,3.1201,-0.70574,
-5.0588,3.5141,4.9511,-2.9504,-4.009,0.05654,-5.8384,12.0177,-2.4846,6.7534,6.2622,0.76684,4.6199,-3.7967,
-1.622,1.1339,5.3767,2.2881,-2.0815,-1.1519,-1.391,12.9836,0.31577,2.733,1.307,-11.5719,6.0297,-9.5946,
7.8753,-3.5134,2.8854,5.2843,1.1769,-5.1802,-0.10223,9.5535,-0.42608,0.88176,-0.45867,-10.6362,4.945,-9.2599,
6.6799,0.31281,6.3277,-0.094424,1.8296,-8.4848,-1.7833,4.4006,-1.1234,2.998,1.2561,-1.0799,3.9254,-7.499,
0.49455,2.2222,8.3582,-0.088758,0.75554,-7.0114,1.6981,3.6546,2.3184,2.3362,2.145,0.91305,7.5462,-9.9416,
4.0798,-3.4547,2.795,3.0501,0.46924,-3.9396,3.2835,5.6045,1.456,-1.9013,4.1855,-2.7572,6.3701,-7.176,
9.3789,-2.0424,-1.4698,0.69766,-0.76398,-2.4981,-0.046794,6.4737,-1.2827,1.8279,6.1033,2.4697,-0.037415,6.0293,
-0.10214,-1.6791,-0.17704,-5.8519,-1.9237,-4.0352,-5.1059,4.8798,-2.4108,6.2978,0.67565,5.9367,0.6875,6.3902,
-6.3623,-3.5063,0.3162,-7.4288,0.12018,-0.90084,-3.835,4.5872,0.62613,5.4382,-2.7391,4.6169,4.5029,-1.2238,
-4.5345,-3.2957,-4.5237,-7.9471,-5.1894,-1.8109,-7.4615,2.866,1.0707,4.1478,-0.16441,3.3758,2.7867,2.2238,
-1.1294,0.51701,1.2913,-2.891,-6.5658,-1.4613,-7.7372,7.2733,2.2113,7.9959,-1.3598,5.3419,1.8961,14.3825,
1.1082,2.1734,5.3114,1.38,2.2645,-2.0967,-0.28284,13.3446,1.8379,9.6859,-6.8216,7.1913,-2.7967,15.2074,
-1.6101,-3.5008,-1.9974,-4.2466,4.2976,-13.2993,-0.989,0.73357,-4.2981,2.1147,-8.5817,2.1798,-7.6908,0.19498,
-3.2003,-3.0498,-0.67223,-5.1967,1.8706,-14.6705,-2.135,-10.6386,-1.3892,0.78252,1.3332,-2.0483,4.0988,-10.3015,
0.36576,1.9539,3.7069,0.89973,2.7227,-8.4877,-0.56059,-10.4823,1.1048,1.6999,6.5558,-7.2281,7.7093,-11.6121,
9.2617,4.488,4.2071,8.3173,6.6564,-9.6654,1.6424,-12.987,0.31535,-5.3922,6.4032,-7.5175,-2.6354,-8.746,
11.5985,3.7368,2.027,8.7826,5.2932,-9.5674,-1.3486,-19.9201,-2.1137,-9.8889,10.8397,-5.1383,-1.513,-3.4005,
7.0464,1.1022,-1.9513,5.8453,-0.32682,-1.2804,-2.2314,-20.1709,-7.7717,-1.1007,9.7072,0.95483,4.8445,7.4086,
3.9723,-1.1333,-2.0754,4.2895,-1.0303,0.96539,-2.3391,-22.0944,-12.8492,2.0986,-1.2393,8.3691,-0.50759,15.4,
7.108,-2.0296,-1.4689,4.5141,1.9235,4.2815,-4.127,-23.1789,-9.1857,-1.4017,-1.6469,11.7234,-2.8877,21.2244,
1.3793,-2.3898,-4.7548,2.797,1.8081,7.8814,-4.8432,-25.1626,-3.8139,-0.83523,0.86203,10.0561,-4.6422,18.0232,
-7.6218,-1.5233,-3.7464,4.3166,0.49457,2.829,-2.3832,-30.6425,0.51207,4.2763,-0.39475,10.6578,-10.3894,7.5416,
-6.4411,-2.1548,-0.87049,0.44219,0.70632,0.49012,1.3752,-32.4193,5.543,6.6708,1.7981,9.2954,-8.0788,4.438,
-1.2341,-6.846,-0.33609,-10.1894,2.11,1.4248,5.1488,-34.8127,-1.5382,0.0038501,-2.166,-2.8317,-3.738,-3.0593,
10.4093,-2.0967,7.879,-7.6501,9.214,1.821,13.0348,-34.6519,-3.8563,-0.47808,-1.0719,-4.5898,3.235,-9.6245,
12.677,2.3672,7.406,-4.2988,5.7689,-5.5189,10.8067,-37.8757,0.71363,1.4786,1.8847,-3.3503,5.4513,-12.4212,
7.3369,1.0206,-1.4738,-6.6917,-1.085,-4.4646,4.1325,-36.808,4.7684,1.1491,3.4586,-4.8363,3.9191,-9.0246,
2.7993,-0.72787,-2.5906,-7.0136,-1.2609,1.8288,5.5718,-32.9125,4.2413,-0.60706,8.3128,-2.3769,3.9249,-8.2422,
-4.3587,-0.9254,-2.1945,-7.3159,-1.9083,2.9242,4.0324,-30.6968,1.3355,-0.3299,10.4653,1.3809,3.9306,-9.917,
-7.7124,-0.14674,-5.678,-5.1899,-3.9632,5.4,-1.271,-21.3832,1.9785,3.3055,10.5605,1.5388,3.4536,1.0421,
-6.7677,-0.61987,-7.2655,-2.9499,-1.3148,6.0404,-3.1229,-14.3156,-0.068386,2.1429,10.8908,-0.96368,2.7645,7.2465,
-7.5667,0.13999,-5.1426,-5.4242,-0.99521,6.4011,-2.6948,-12.7335,-2.2337,0.32732,10.4785,3.1917,3.8036,4.1604,
-7.1127,0.61399,-3.8697,-3.1706,-4.3095,11.8016,-3.015,-9.077,-1.1353,2.2359,7.4397,9.7491,3.5754,8.7315,
-0.41922,-1.3513,-1.2272,3.2864,-5.9793,13.9858,-2.352,-3.7119,-3.9595,2.1015,1.6904,9.1639,-2.9058,17.3664,
8.0416,1.8633,4.872,6.2222,-4.8977,13.3876,-2.4518,-0.35617,-9.266,0.77056,-2.0264,9.337,-4.4187,19.4575,
7.8005,4.4026,6.2669,3.6798,-1.4703,12.3434,-0.13555,-3.9498,-7.9867,0.48336,-5.5202,8.0539,1.8724,13.7107,
4.1988,-1.405,1.7933,1.2896,1.7511,7.5052,3.0058,-10.2209,-6.7843,-2.197,-7.8404,2.0268,1.5189,7.8266,
4.911,-3.731,1.6855,-0.23383,2.1282,5.1265,3.7896,-10.5718,-7.8238,-3.5116,-6.8878,1.9054,-2.4289,9.285,
1.7238,-2.0614,0.6205,-7.9326,1.0362,6.2651,0.18776,-8.4912,-3.498,-1.3727,-5.0282,0.34485,-3.7294,3.4253,
-3.4409,1.6782,-3.0321,-7.2156,0.25114,8.5408,-2.9565,-5.3302,4.6661,-0.085084,1.7814,-1.845,-2.7823,-4.2516,
-7.332,1.3363,-6.4659,2.1351,-2.8972,7.7871,-6.3948,3.4255,7.0375,-2.2494,7.2179,2.3633,-2.8565,0.10061,
-6.4099,0.77398,-6.5596,7.7918,0.16894,10.6941,-6.0109,14.307,6.1331,-1.1503,6.3027,6.56,0.20714,12.1459,
-6.0253,2.6557,-10.5048,2.0217,-0.80553,15.3551,-5.1683,13.4486,-0.019504,-0.11696,-4.1984,1.3457,-1.2511,13.8273,
2.2899,6.5937,-5.2948,2.1413,-3.8902,16.603,0.68542,12.8826,-2.6699,0.61295,-10.4544,2.4703,-4.7914,12.7567,
12.7581,6.6803,2.2535,3.9413,-3.1746,7.8943,4.5005,13.0738,-3.4733,-3.28,-10.3089,3.7681,-4.9861,10.0633,
16.0897,5.0744,7.1798,2.4997,-2.2615,-0.53337,8.328,8.6741,-4.9524,-4.7706,-13.306,-1.5195,-3.4819,4.3976,
18.9809,2.3596,13.98,3.3139,0.28455,-3.3937,12.1669,2.3689,-5.1374,-2.556,-18.7744,-3.8386,-1.3446,0.27758,
16.878,-1.6382,11.2128,0.70467,4.606,-7.5286,10.9547,-1.1475,-0.97255,-1.4385,-16.6838,-2.1623,-2.7099,-4.0776,
5.2602,-2.022,1.8632,-6.5682,5.7757,-10.4511,3.5487,-5.8991,7.7627,0.09382,-5.5597,-0.10413,-5.922,-8.1715,
-2.5274,-1.66,1.0283,-8.8259,0.84964,-14.8859,-3.1719,-13.4991,14.2866,0.32939,5.6199,-1.3034,-2.9154,-10.3325,
-1.6526,-2.7654,5.0641,-5.1626,1.0399,-17.608,-1.7765,-14.3762,16.0807,0.068427,14.201,-5.8043,7.1417,-14.2921,
-7.3381,-6.4554,4.2784,-5.8172,3.87,-18.4797,-0.22366,-14.4779,8.8493,0.064322,14.3129,-10.2767,7.6771,-24.5214,
-9.5491,-4.3811,4.2629,-6.1908,4.3609,-12.7914,0.030953,-10.9579,7.1133,2.7118,14.6596,-8.4551,4.0832,-21.845,
-6.3251,-0.50283,3.7657,-4.6146,2.894,-4.5521,-1.1762,-10.0595,8.8557,-1.0663,14.0205,-6.7425,5.5254,-12.0986,
-5.9456,-0.47266,1.1296,-2.8914,-0.17219,-3.3146,-1.1056,-8.974,4.9499,-6.305,8.359,-7.7842,5.6759,-7.9983,
6.4627,-0.92669,6.8464,4.9948,0.32007,-4.0801,2.8171,-2.1686,0.7965,-2.0703,6.4112,-1.0506,2.4432,-2.2157,
19.8133,-2.5579,12.4612,7.3462,3.4344,-4.0763,7.2274,0.1307,0.50774,-0.25887,2.8931,-0.26421,-0.83684,2.0146,
18.6245,2.8978,11.7135,3.531,5.1565,2.9168,6.3118,2.0511,0.47728,-1.2072,-5.4752,-1.6946,0.17724,4.3038,
16.061,8.0268,6.6721,5.2476,-1.4196,7.0808,-1.2975,8.1947,-2.9256,-0.65261,-8.039,2.7456,-1.7614,5.974,
17.2667,2.0014,0.72842,8.066,-8.3241,1.1121,-8.6917,6.9799,-5.4014,1.0735,-6.8335,1.3758,-12.9836,4.8925,
19.1226,-1.4929,-1.2437,7.5822,-7.8249,0.081259,-6.7242,3.1869,-1.7031,1.0089,-4.4955,0.8111,-14.615,11.8295,
14.119,2.4528,-2.1332,3.2707,-6.8732,3.4506,-2.4641,5.8875,0.32708,-5.3184,-2.2974,0.28027,-3.1335,17.8684,
5.3179,4.475,-4.6561,-1.5051,-7.6659,3.0028,-4.9676,7.7041,-2.8258,-9.5783,0.49178,-2.3879,5.4909,10.2891,
1.8656,0.59132,-2.2078,-2.1374,-5.0366,3.5458,-4.9103,7.0007,-5.3071,-6.8342,-0.74279,-2.0034,4.9202,2.1997,
-2.3435,-4.5056,1.5404,-2.7323,-2.083,6.4663,-2.4463,8.75,-5.7118,-6.6654,0.50684,-2.6063,5.3482,7.1292,
-9.9159,-8.5743,-2.8911,-7.3893,-3.8865,0.77545,-3.746,4.8503,-3.4411,-6.7476,5.2969,-5.8246,9.8478,9.1118,
-4.7414,-2.034,-1.0302,-6.7048,1.4082,-2.8863,-1.3518,0.46173,4.7193,1.1288,12.4507,-3.3058,16.7289,1.093,
-3.7338,-2.6351,1.683,-7.5075,2.0468,-2.9543,-4.4044,-3.6631,3.713,-0.14398,8.5704,-3.3482,11.1452,-8.3723,
-4.956,-5.8515,3.0278,-8.0214,-0.48614,-0.3669,-3.1758,-1.5156,1.5616,-0.13534,6.128,2.6369,3.7281,1.2886,
-5.6227,-4.0539,-0.52764,-9.4681,-4.3131,-4.201,-3.467,2.9144,0.022307,1.8012,6.7248,7.2996,2.5403,7.9604,
-10.8292,-2.6056,-5.5579,-8.6593,-2.3673,-6.1184,-8.3209,7.3186,1.708,0.97,7.526,0.83584,6.9674,0.010742,
-12.1077,-4.3775,-3.2962,-4.7653,1.6311,-4.305,-9.7498,7.8438,4.0156,-0.052529,5.1462,-3.0707,5.1031,-1.4362,
-1.0169,0.94687,4.3734,1.0643,0.32793,-2.3595,-1.693,6.6502,3.5337,2.1202,4.1145,2.6572,-0.74673,6.6042,
2.6593,2.5771,5.316,-1.6509,-1.3787,-4.8692,2.9881,1.1893,2.5986,0.30557,1.2163,-0.63553,-3.8352,-4.1561,
1.2947,2.1812,6.6845,-2.7569,2.8011,-1.9258,2.5676,-1.051,6.5402,1.4923,-0.5441,-6.1412,0.97445,-15.7171,
3.1454,3.0149,5.8013,-3.0737,2.6333,0.11821,-0.47876,3.3506,3.2555,0.43867,-5.8139,-12.0391,0.43382,-19.1127,
10.9102,4.0386,9.5503,1.6903,4.6442,-1.0944,4.6114,13.0313,1.3727,0.65354,-6.6701,-10.594,0.64898,-15.7965,
12.666,0.90447,7.0493,4.9635,0.50939,-3.4386,6.2632,13.6959,0.32628,0.13217,-3.8595,-4.1736,1.5741,-7.1362,
6.6038,2.2965,0.84181,2.7375,-4.8234,2.0703,0.10278,10.946,-2.1034,-1.804,0.22842,-2.9588,1.9616,1.0052,
0.66375,4.3276,3.9246,-1.5243,0.045099,7.0076,-1.1084,13.4225,-0.28977,-0.49066,0.93784,-2.0582,2.0851,4.0782,
-3.7146,-2.6807,1.2787,-5.7714,2.4527,-3.0541,-2.9704,11.653,0.20932,-0.46099,-3.457,2.4034,-0.93227,1.9051,
-2.2867,-2.7611,-1.4489,-2.2919,1.1005,-5.5222,-4.4791,11.1946,2.8481,2.6999,-3.4908,4.9105,-0.6356,3.4782,
0.020137,3.4306,2.2535,0.49721,-0.65274,1.3171,-3.487,13.6564,1.9543,2.7789,-4.4861,0.51853,-0.35604,-0.82783,
-4.0789,2.9833,5.2513,-2.1842,1.0737,-0.44961,0.33715,10.6678,1.5956,0.92494,-4.9403,0.72839,-1.058,-7.2861,
-7.2086,0.3942,3.49,-5.9095,5.3476,-9.5817,2.2451,0.38635,1.4999,1.3514,-1.2695,-0.27964,0.45171,-9.7415,
-1.9551,-0.59354,1.3526,-6.0366,3.5807,-14.3087,2.5926,-3.493,-0.035683,1.7525,0.2532,-8.4573,1.8706,-14.4594,
3.9467,0.40639,3.6816,-0.37226,1.4376,-9.1119,6.2934,6.84,1.4123,1.6473,0.71994,-10.8424,2.2408,-16.4839,
0.57668,3.0333,1.2918,-1.0726,0.62825,-3.0213,1.8187,8.5989,2.0507,-1.5848,-1.9746,-7.0582,-0.54498,-9.9515,
4.8804,4.7795,3.6244,-1.4906,1.0725,0.052012,-1.183,3.2623,0.48135,-0.52537,-2.8204,-0.85009,1.8978,1.7328,
16.1567,1.6002,7.2633,1.9733,2.4544,-1.8793,1.7801,4.5128,-3.4039,-0.49385,-5.5433,0.64672,1.302,4.039,
13.9823,5.6018,7.5506,8.3626,4.4765,-0.079547,5.2889,11.2317,-1.9942,0.25891,-6.4157,2.7773,-0.46354,2.5916,
1.8149,7.4346,6.3745,8.102,0.11035,0.64836,1.8383,13.691,1.2587,0.48411,-6.272,4.2977,-0.19453,5.5694,
-1.9092,3.8553,4.305,7.8566,-6.8859,-0.11368,-4.2977,16.0028,-0.50423,0.69626,-3.2443,3.7991,1.0222,7.8865,
1.5796,2.1779,-0.77379,6.4211,-10.3294,-2.9991,-3.5577,17.935,-1.92,2.1005,-2.5675,2.607,0.47871,5.9673,
-1.4072,0.60101,-3.1379,-2.1588,-9.2272,-6.6756,0.99406,15.4126,0.12339,0.52823,-0.0033421,1.4863,2.3782,1.7529,
-4.6975,-3.2912,-0.53931,-3.9577,-12.5302,-5.7929,0.45226,13.0418,3.0083,-0.46756,7.7094,-1.0133,4.1639,-0.28072,
-1.041,-2.6116,2.8673,3.9927,-15.1526,-3.5169,-0.53898,13.2234,5.2381,2.4528,9.6577,-0.95223,-0.42447,2.1465,
-0.73776,-1.2503,1.0078,6.404,-11.1107,-5.9577,0.21649,10.2606,3.2364,1.1006,4.0163,-0.65436,0.80606,-3.5261,
1.2345,0.75317,2.3938,5.0557,-5.6235,-3.6722,3.5777,11.5729,1.5962,1.5162,7.1495,0.83093,10.3984,-11.0271,
3.0888,3.1183,7.5526,3.7883,-2.8758,-3.4517,7.2197,11.3607,1.9826,-0.020782,10.0952,-4.5213,11.221,-10.8477,
0.49337,1.9669,4.2074,-1.7412,-1.7389,-8.5468,7.2684,6.3408,2.3455,-5.3217,3.2226,-13.4086,4.7632,-10.6787,
1.4281,1.367,-2.794,-2.6011,-2.5984,-9.4802,4.9041,2.5863,4.133,-2.5923,1.5834,-6.3376,2.0673,-11.9662,
-0.58602,-1.6074,-4.0724,-2.9267,-4.3709,-10.3574,0.75373,-2.8717,0.99274,-0.026399,-2.3682,2.7195,0.97913,-8.8379,
-3.4431,0.41751,-2.8639,-3.2333,-2.6627,-7.3261,0.70827,1.1572,-0.99479,-0.025044,-4.1541,1.5923,7.6691,2.2975,
0.86057,0.6332,-3.4152,0.093976,-5.6362,-0.86075,3.3171,9.5232,-2.6226,-3.1568,1.1561,-2.6009,9.3778,4.8109,
5.8708,-2.0561,-6.3436,0.32953,-7.4669,0.39596,3.8412,12.0855,-5.1165,-5.1363,2.7742,-2.2036,1.8255,2.3529,
3.1085,0.47784,-7.4088,-4.0286,-4.1268,-1.0736,2.1645,6.0577,-1.4351,-4.3462,2.1258,-3.5172,3.6442,-0.68034,
-4.3093,0.93064,-4.5546,-6.6798,-6.2898,-6.3123,0.10641,-1.0546,2.9893,-3.1216,3.926,-7.163,4.3894,-9.3166,
-0.91706,-0.3298,-0.1837,-0.73519,-4.7069,-9.0668,0.34122,4.0706,5.9432,2.1272,10.1986,1.7027,-1.8993,-9.4808,
3.2353,-3.4435,-3.3062,1.96,-0.80907,-6.8356,-1.3665,7.9237,1.4893,-0.16962,4.525,1.3595,-2.9906,-3.8502,
5.6925,-0.58557,-5.2767,1.6017,-4.3757,-1.3635,-2.0076,8.6533,2.1231,-1.3645,-0.32598,-1.3734,1.2864,5.2986,
1.2534,-0.79163,-9.0577,0.30051,-9.657,-2.4872,-6.9491,10.7854,3.2007,0.8863,-0.065225,4.7348,-4.8166,12.4523,
-10.6319,-4.3591,-17.4319,-4.2968,-10.7648,-5.953,-13.5215,11.3436,-1.0887,4.9309,-2.7124,9.9943,-10.5531,13.8748,
-11.9225,-1.2057,-18.3144,-2.111,-13.4932,-3.1859,-10.7823,12.109,-6.3258,6.0811,-3.0318,7.4663,-5.0994,10.1495,
-1.8069,7.3025,-7.3333,6.9335,-5.6939,4.9592,-2.6633,19.8184,-3.2949,2.583,-0.68098,1.9568,-0.69589,7.8536,
4.809,11.9261,1.5423,7.7228,5.494,6.3489,0.62952,21.7623,1.964,2.187,-1.8454,2.0804,-3.7876,2.8026,
5.4848,9.7642,2.8961,2.4387,6.1282,-1.7448,4.9305,12.2619,-2.9741,2.0558,-3.6624,1.4736,-1.6322,-6.5241,
6.602,7.7326,5.6148,2.7747,7.6892,-3.0864,11.8655,10.5623,-2.3137,1.9325,-0.068228,-0.061039,8.1072,-9.5071,
0.42105,1.4838,2.3856,-0.28403,5.7813,-4.3472,2.9587,4.6257,2.1637,1.3344,-1.5106,-0.53954,7.1386,-9.9008,
-8.5223,-1.2563,-4.2654,-3.4005,2.7833,-7.7018,-6.6189,-6.0157,2.7568,3.4235,-4.0711,0.21619,1.6486,-10.5116,
-8.4931,1.229,-7.3842,-2.7147,4.0624,-7.2399,-1.8832,-9.0295,2.5916,3.2183,-0.93453,-2.2071,1.0675,-9.3992,
-4.1269,0.67353,-6.4585,-3.5155,4.7827,-7.2872,2.0864,-12.3439,2.4363,0.13289,-2.8064,-2.5569,-3.817,-6.4249,
0.45926,0.63289,-3.6611,-4.2691,4.4955,-9.2604,0.51476,-24.1365,2.7718,1.5709,-4.0845,3.3814,-5.9984,-4.1114,
3.0828,1.8002,-7.0569,-3.2896,1.0928,-8.9457,1.2068,-34.9808,2.3646,1.2357,0.2579,1.9732,-4.9151,-4.5876,
4.8263,3.1382,-5.187,-2.1281,1.9913,-5.0347,4.509,-35.7743,2.7049,2.6076,2.1709,0.40876,-7.9949,-3.3483,
5.5005,2.9499,3.8009,0.89161,5.7282,-0.87627,8.0944,-31.2177,-1.3143,2.4512,-0.85192,3.7582,-7.0332,-1.2192,
6.8577,3.9782,7.1883,1.5615,8.0356,1.3455,9.7784,-26.2111,-5.8147,-1.3113,-0.55984,-0.08223,3.2711,-3.3152,
10.3027,6.6316,3.8649,4.8422,11.8923,2.711,14.9763,-25.1204,-0.64512,0.69554,9.1147,-4.898,9.8233,-5.5264,
3.4178,-0.51498,-6.9725,-1.7155,6.8397,2.5481,7.8109,-34.7006,0.83962,0.65358,11.9421,-7.9788,2.4852,-5.677,
-0.1613,-1.9303,-3.6616,-6.9148,4.5016,5.2877,1.5577,-37.4388,0.30731,3.9893,7.8515,-3.1613,4.2643,-4.8544,
4.1869,1.0778,4.2711,-3.6076,5.6775,2.5601,9.6592,-32.3002,-0.19329,2.3034,1.5956,-2.9714,7.3831,-9.8656,
5.6227,3.6644,0.88108,0.70646,8.9525,1.2015,16.0693,-28.675,0.059503,1.4421,-0.66903,-4.4806,4.7708,-11.443,
-5.5609,0.79347,-5.1973,-3.9157,6.2458,0.8884,9.0796,-31.534,-1.6313,3.0428,-3.2804,-5.4166,-0.57716,-9.5512,
-6.9147,-0.9416,-1.7522,-2.9576,2.7378,4.9322,3.4729,-30.8473,1.5998,5.5115,-0.91422,-1.4764,-1.2657,-5.3629,
-3.3661,-4.9822,-6.2262,-3.0209,2.3328,7.77,-0.35022,-26.827,2.227,0.11941,4.6845,2.2278,-0.94852,-2.8717,
-2.6822,-4.2014,-9.2275,-6.2141,0.74653,7.7857,0.15227,-21.8432,-1.763,-3.2622,5.8492,3.058,-0.89161,0.67501,
6.3968,4.0045,-1.2016,-0.29763,-0.98549,5.6314,3.2766,-15.4709,-2.3806,0.067008,5.2573,4.5618,-2.5253,11.4808,
13.0026,7.8618,1.0394,6.2279,-1.6495,8.4267,2.3569,-8.9993,-2.9609,-1.1421,0.84427,5.9751,-4.5432,20.6736,
11.4993,6.6669,-3.1201,7.0593,-0.82739,17.3214,2.9386,-2.4335,-10.2548,-1.7967,-8.1242,7.304,-2.5832,15.818,
12.0147,6.5084,0.20064,10.7331,-0.53678,15.5592,11.6804,2.7742,-14.7008,0.48028,-13.6623,4.6966,-3.1511,7.3971,
11.7757,9.4918,2.1163,7.679,1.4236,6.4305,13.3897,0.19712,-7.5527,1.8977,-10.9144,1.5223,-5.3726,10.8097,
2.8745,7.958,-5.2415,-0.9769,-1.0719,4.5984,4.3916,-5.5993,0.61374,3.2297,-3.993,0.94904,-2.6401,10.1611,
-9.3493,-0.71441,-6.855,-5.2568,-3.418,6.2509,3.164,-9.1195,-0.38718,1.5898,-2.3074,-0.072,-3.4458,-2.9818,
-13.85,-3.8046,-2.3463,-3.7361,-1.0437,5.6349,4.6614,-7.8494,-0.60538,-0.19277,2.8927,1.6195,-8.3003,-6.4183,
-19.2856,-2.13,-6.0619,-3.512,-5.3194,4.8144,-2.8491,-8.3423,6.1799,0.30119,10.4319,1.04,-5.3921,-2.1768,
-22.4672,-2.0027,-7.6264,-2.3374,-5.0007,5.4899,-7.9808,-6.396,10.6293,2.6932,12.2161,1.9419,-3.1404,-3.9744,
-21.3601,-5.9794,-7.4098,-4.8482,-4.4592,3.4732,-7.261,-0.95054,3.4841,0.36249,7.8682,1.5844,-9.4595,-1.5668,
-15.0166,-3.9337,-4.7963,-3.8342,-3.951,3.988,-6.5842,6.5785,2.07,-1.8286,6.1911,2.6944,-6.241,9.3732,
-14.1156,-0.80558,-2.5803,-3.1222,-2.7496,2.7844,-5.2253,7.1477,0.49951,-2.6828,-1.4112,-1.3236,1.3643,3.5082,
-12.7867,0.20708,2.3952,-4.8631,2.718,3.0997,7.1398,3.8268,-1.9406,0.37023,-0.84464,-3.6548,6.1031,-2.0045,
-5.0299,-1.0109,4.4205,-3.3662,0.86751,0.74433,11.7729,5.2842,-3.0292,-1.8214,4.7494,-0.78418,5.9777,3.6592,
-1.5949,-1.191,-1.8701,0.93332,-9.0662,-1.9517,-0.26146,10.0286,-8.3908,-9.1837,-2.0428,-2.9061,3.4501,3.1989,
-3.1862,0.56796,-7.3013,3.5286,-8.2811,2.745,-7.7178,10.15,-14.877,-11.284,-7.4641,-8.2751,1.5561,3.7301,
-2.7542,-0.18925,-8.5506,0.66561,-4.6514,6.6778,-6.5316,8.3359,-17.6001,-10.3657,-5.8112,-8.5022,-0.22474,8.5673,
2.4729,2.4734,-0.56557,5.2052,0.20765,2.6615,2.2962,10.4871,-13.4108,-5.6462,-8.1138,-1.9663,0.029942,9.7407,
5.9397,8.3508,4.0479,11.4006,3.8104,-2.0772,9.6305,5.7603,-6.0984,-0.72792,-9.7959,2.2493,-0.21305,5.0591,
1.486,9.5365,-0.77474,5.1729,0.9302,0.69804,5.4367,-0.12896,0.77494,2.4488,-3.665,2.3553,-1.4056,2.1036,
-4.8699,5.5901,-1.2104,-2.3685,-0.57164,0.17446,1.2539,-0.12145,6.5133,5.1941,-1.5167,0.7675,-2.7673,-0.43255,
-7.47,-1.012,1.2726,-3.672,-0.53711,-7.0666,0.21505,-7.3448,8.5328,5.8466,-4.318,-0.24219,-2.1191,-6.1909,
-12.0835,-3.6029,-4.8293,-10.4415,-3.1564,-10.7404,-7.2697,-15.8222,9.2257,4.7724,-0.44347,3.8697,2.5874,-8.471,
-21.2406,-3.6274,-9.1191,-17.2871,-0.79766,-10.8191,-9.4848,-12.7034,7.4671,4.2454,8.019,5.8064,2.6733,-1.937,
-23.3402,-3.4098,-6.6438,-13.3573,2.1423,-5.8312,-5.0593,-8.5668,8.9472,6.8832,10.9123,4.9761,-1.3435,8.7845,
-13.5041,-3.4462,-5.0398,-6.5303,-2.0836,2.4724,-5.4787,-5.8836,11.062,8.6393,9.5342,8.293,-0.53995,11.8724,
-7.3912,-4.6857,-6.1837,-7.1028,-6.2969,3.7703,-6.5962,-4.5667,6.5414,1.854,8.4803,6.8311,-1.4714,3.9292,
-6.7065,-1.7532,0.21309,-4.5073,0.10666,1.8566,-1.139,-1.6409,4.9439,-0.90857,10.6228,1.3598,0.30386,-1.368,
-5.0991,2.4496,2.3697,-3.9957,3.2335,1.0226,1.0987,1.5908,4.8884,-0.61286,9.2623,-1.3727,1.9731,-2.9729,
2.4377,6.159,-3.0756,-2.792,1.5932,5.2995,0.068494,4.8698,-0.22514,-2.9862,3.4039,-0.32646,-0.55589,1.0619,
4.2196,8.1996,-1.4443,1.2323,1.0157,11.7305,-1.3814,6.9877,-9.8526,-6.1815,-8.8514,-1.2707,-3.4146,4.8545,
3.9662,8.6717,4.4267,4.5326,2.8827,10.5445,1.5933,11.3889,-9.7436,-1.954,-12.6589,-0.71279,-0.31743,5.5274,
2.282,6.2232,-1.624,0.8862,-0.18229,-0.69348,1.9796,7.3311,-7.7132,0.090984,-8.5249,0.77623,1.1474,6.1596,
-0.50603,6.0912,-3.6952,-1.3361,-1.3766,-0.89284,1.6204,1.8301,-3.1526,0.80888,-5.3619,1.935,-0.12626,5.5495,
0.97059,2.3509,-2.5096,-4.1485,-4.6685,1.0889,-1.8513,5.5762,-1.5176,0.76035,-10.8252,0.3726,-3.9751,0.39582,
5.2509,2.6924,-1.8769,-3.8993,-1.4956,0.059493,-1.74,11.9907,0.50185,1.6788,-10.1755,3.2425,-4.2183,2.3005,
-3.5,3.7355,-3.4517,-6.7986,1.7274,0.29712,-2.8411,5.2455,0.71293,1.3369,-6.9136,0.87859,-4.6888,3.8495,
-10.039,3.9933,-4.6909,-10.7295,-0.30494,3.6533,-1.7068,1.5563,3.0803,2.7029,-5.053,-2.0662,-5.3718,-1.2022,
-5.5802,4.2361,-5.3733,-11.5318,-3.6606,1.024,-0.15813,2.9092,4.8237,0.13064,-4.7498,-2.9065,-5.049,-12.6992,
1.7445,6.633,0.010763,-1.922,-0.7899,0.23962,-2.3178,7.7963,7.1853,-0.6001,0.11493,-0.080597,-0.16677,-12.6602,
4.5321,3.8251,0.97421,2.5318,-0.26035,1.6713,-5.553,14.0772,3.8619,-1.0463,-0.37413,-1.5218,-1.1209,-1.7775,
9.0806,3.5954,3.3261,6.2366,0.23744,1.5712,-1.8456,19.017,-0.22595,-0.98371,-5.6541,0.97941,-2.9816,6.5241,
7.5717,6.272,4.0906,8.7547,-0.7409,-0.9334,1.1575,14.5017,-0.21262,-1.4068,-6.279,5.7411,0.57154,6.1325,
-2.0414,0.59323,0.95292,-0.4475,-2.6249,-0.87763,-2.2862,10.7393,2.2105,0.60599,-4.4562,2.0224,1.5013,1.426,
-8.6678,0.07524,1.3777,-8.6158,1.8709,3.0314,-5.5235,12.987,2.5598,3.4617,-1.2968,-0.50903,0.44694,-2.516,
-14.8967,-0.41121,-0.63318,-11.4731,1.7587,-1.9707,-3.7458,4.495,1.9243,0.84386,3.1198,0.0034426,2.3488,-4.7752,
-14.0029,-4.2429,-5.4159,-13.677,-2.2032,-4.745,-3.5211,0.85134,1.8088,0.31129,5.3428,1.9314,3.6537,-2.0785,
-7.1367,-0.85486,-4.8495,-9.7231,-0.86574,0.60138,-6.4428,10.6822,1.9413,3.908,3.335,3.5028,0.78334,0.21535,
-1.6473,4.2581,2.4309,-3.5959,3.766,1.2882,-5.3334,12.2104,0.13756,1.5044,-0.48054,-0.80475,-1.9148,-5.8231,
1.3439,2.5561,2.7672,-5.7905,1.6116,-3.1276,-3.0854,9.0674,-1.3167,0.93197,-4.3079,0.20763,-2.7644,-5.9559,
7.0478,1.9208,-1.2557,-5.9255,-0.89571,-1.4937,-1.454,18.1644,-1.2377,7.6245,-5.4957,8.3899,-1.6342,1.6323,
8.5534,0.35909,-3.1083,-8.4622,-0.84174,-2.3682,-0.40268,19.9668,-5.0201,4.2747,-6.13,5.9581,-3.4646,2.0165,
5.3886,0.57897,-4.1271,-13.0159,-2.9604,-2.949,1.7906,15.1534,-2.5497,-1.043,-3.1111,-0.9069,-0.60518,0.69024,
-2.6475,-0.90202,-7.7359,-13.6812,-5.6753,-4.2183,-0.24499,12.316,1.4597,1.4297,-5.3346,-0.85248,1.3593,-3.2076,
-6.586,-1.5713,-4.1382,-8.2808,0.20884,-4.6886,-1.4356,10.3722,2.0954,4.9594,-6.2198,2.3321,1.5187,-5.6662,
-4.5034,-3.6459,-0.27429,-6.5787,0.91944,-5.6123,0.33801,9.0267,0.76465,1.0466,-3.1953,0.50477,0.70448,-7.4956,
-3.9924,-6.0785,-0.49903,-12.2098,-2.269,-6.9626,1.5228,9.6902,1.9238,-1.6675,0.61208,-2.6588,1.3853,-6.3228,
-6.163,-7.642,0.97717,-15.3333,-1.1685,-6.5448,-0.014835,8.1449,4.2185,-1.5675,3.9498,-2.4993,1.7842,-5.9434,
-3.865,-8.1478,4.7749,-9.1109,-0.13454,-6.6341,-2.4241,3.7994,2.5192,-0.50954,5.6406,-1.8674,-2.6612,-6.5511,
-3.3922,-4.0435,6.1757,-1.5746,-1.8137,-6.477,-2.0377,5.741,1.1632,0.72633,2.1691,-2.4782,-5.635,-1.0964,
-4.6347,-0.90859,0.98464,-1.4801,0.70549,-1.2679,-0.46937,13.1091,2.5394,0.68252,-0.85334,-1.8474,-0.95838,11.0207,
-6.0438,-6.3977,-6.0643,-5.9708,1.3861,2.4236,-3.5742,14.9736,0.69982,2.3288,3.7771,2.8428,2.2326,13.0106,
-6.6455,-6.0138,-7.6287,-8.023,-1.1072,2.7601,-6.7342,12.629,-2.2347,8.4556,4.9968,9.903,2.5806,9.8198,
-2.6311,0.85517,-5.0015,-7.7823,1.1286,-0.056816,-5.6071,10.1842,-4.7515,7.7075,-3.7389,7.6219,1.7026,10.4357,
8.6137,0.3217,0.11903,-6.351,-0.38516,-3.4276,-0.45014,7.1633,-6.8767,0.97831,-9.2989,1.3797,0.63637,6.4353,
18.22,-0.17977,3.4861,-3.0777,-0.84421,-0.32968,4.3973,8.1795,-4.5357,-1.0083,-4.4029,3.7073,0.11603,0.26487,
13.0293,2.4823,2.0719,-4.5805,5.7142,-3.9256,5.3386,6.9656,-1.6127,-4.0816,-2.4513,0.35161,0.83219,-2.4028,
0.67834,-1.523,-2.8731,-12.0184,1.9969,-14.2949,1.6438,2.2094,3.3048,-5.7644,-0.37602,-5.4541,0.30033,-3.2225,
-5.8698,-6.4933,-8.7263,-20.2154,-3.6666,-14.1605,-3.9984,2.7997,7.2038,1.0889,6.154,2.8269,-1.4049,-0.37806,
-11.5432,-5.3808,-8.9256,-18.7615,3.0609,-3.429,-3.9995,7.211,7.4945,5.121,8.9183,8.6829,0.84854,0.84991,
-18.0817,-7.9502,-7.4264,-15.7076,2.3951,-6.1155,-6.6518,7.2605,4.6345,-1.453,9.3473,-2.4432,1.2798,-7.396,
-14.104,-5.5448,-3.6062,-12.3546,0.32342,-7.6765,-6.2525,12.1277,6.2853,-0.8837,15.0532,-3.2607,4.5777,-8.3983,
-12.053,-3.5249,-4.5946,-8.962,-0.90082,-5.0468,-5.1544,11.6411,2.7747,-0.58971,6.1962,-0.41349,0.20521,-8.1354,
-9.1604,0.3018,2.1883,3.8678,-0.60604,0.79986,-1.7119,13.1115,3.8133,0.65074,-1.1656,-0.62988,-4.8686,-4.514,
-5.2368,0.76609,3.5033,8.4562,0.87658,1.2338,-3.5374,17.1455,5.0307,3.9861,-2.0596,1.3361,-6.0227,0.57757,
-1.0659,0.71989,1.8466,4.5744,1.7876,0.67761,-5.7355,18.5267,0.87228,9.5313,-3.3825,8.4866,-7.5898,3.9167,
-0.037891,3.569,5.1105,6.2284,-0.24759,2.5649,-2.981,16.451,3.2298,10.4059,-5.1075,10.8696,-12.4368,10.9128,
-0.99971,7.6934,3.3578,12.1214,-1.6788,5.3038,-3.7662,16.9104,8.3389,7.8536,-3.8369,9.2534,-15.5467,15.0785,
0.024365,3.8576,2.1922,11.3943,0.35038,5.9496,-7.3964,19.2705,4.4644,6.9002,-4.5708,8.2165,-13.1679,9.3537,
0.74603,0.97433,5.194,4.6844,4.4265,2.4589,-6.7119,15.9444,-0.38302,2.3886,-5.0197,3.6254,-9.7265,4.6945,
-2.432,6.4597,3.6773,1.7523,2.9558,-3.7139,-4.1398,10.4087,0.3631,-1.3699,0.34293,-2.1355,-6.9735,1.7619,
-6.1427,5.108,6.3489,3.0934,2.2963,-4.4552,-0.51719,6.4095,3.7155,0.64029,2.2508,-2.0071,-2.699,-5.0925,
-7.4616,-0.74229,7.655,-1.1898,2.3997,-2.5009,-0.24497,5.3018,3.2514,-0.12126,0.91021,-1.164,-5.6703,-8.4026,
-0.98788,-0.45632,1.6525,-4.2514,0.56898,-5.0019,-0.95317,9.5634,0.40523,-2.2831,1.579,-1.8166,-8.9455,-4.283,
3.4095,1.981,0.10688,-1.5864,0.052221,-8.0765,1.032,8.5075,-2.5114,-1.1821,-1.4081,-3.1541,-1.1781,-5.9544,
-2.3382,4.0317,1.3058,0.67814,1.7363,-5.4223,-1.1991,5.3459,-0.67347,-0.38824,-0.60069,3.5426,5.8824,-8.7302,
-6.0543,2.3436,-1.6646,-0.32642,0.18634,-6.0608,-3.5373,6.9534,3.7057,2.5276,5.7023,9.1151,-3.1472,-4.35,
-0.14746,-1.8944,-0.84187,0.898,-1.0301,-9.795,-3.0841,8.2234,-0.1325,7.4376,6.5655,1.5783,-13.3227,-4.33,
4.4409,0.87057,4.2701,7.834,1.2011,-8.0022,1.1981,0.25794,-2.2935,8.1964,7.8585,-2.132,-6.4975,-7.6858,
2.4875,4.9159,3.2908,7.6051,-0.076067,-8.7271,1.3674,-13.8575,-0.46888,-1.2132,7.1458,0.16528,-6.8308,-10.8399,
4.0252,2.4516,4.7803,3.0513,1.1336,-8.4442,2.4904,-23.0283,2.6925,-5.238,2.1376,-2.496,-15.339,-10.9126,
4.2656,-1.5519,9.3142,0.93999,5.8858,-4.0812,4.7516,-28.3955,1.0852,-4.4418,3.4556,-10.059,-12.9724,-13.1499,
5.6967,0.71014,9.4785,3.5347,7.2197,2.189,5.1892,-32.2356,2.2247,-2.9702,11.6841,-5.3579,-2.3121,-9.71,
5.1141,-3.912,-1.9367,-1.2569,5.5814,-0.11174,3.1908,-39.2193,-0.55969,-5.4433,3.0291,-1.4212,-12.0556,-5.9937,
1.4326,-6.5696,-3.7485,-7.9302,6.693,-3.4793,4.9273,-44.0967,-1.0083,-4.6346,-1.9731,0.5925,-18.0809,-9.9726,
-1.0635,-5.6934,-1.1134,-13.2392,5.3271,-4.2348,5.1136,-48.682,0.49803,-2.4283,2.9655,-2.8175,-5.4269,-19.0157,
3.3389,-1.4952,-2.0107,-11.4805,10.3104,-0.60606,6.2533,-49.1351,-0.49549,0.60969,2.3059,-4.5769,3.0936,-15.9463,
7.4771,1.0048,-0.92599,-5.489,12.5836,5.2147,9.2523,-43.2949,-4.8043,2.5015,-2.6529,0.036289,-2.8763,-8.2409,
5.1003,0.46262,0.57583,-5.6418,7.0083,3.456,8.2152,-39.251,-5.9623,2.8334,-1.5294,3.4086,-6.0782,-7.7464,
2.6249,0.6756,-1.1462,-6.0265,7.7929,4.4537,7.9631,-36.173,-4.8814,2.9041,0.24933,2.4809,1.2761,-7.5228,
4.3954,-3.2211,-5.4155,-3.2545,6.8431,9.0069,7.0036,-32.0744,-7.4808,-1.6082,-4.1042,-2.4884,0.71741,-4.6611,
10.1576,-7.1252,-4.3677,0.074009,1.8533,9.1894,5.3781,-24.6061,-5.3448,-4.1633,-5.5452,-3.062,-8.7256,0.19829,
6.1735,-0.91332,-1.6953,1.5156,-0.6683,7.192,4.0913,-19.7555,0.27833,-2.9494,-1.3563,-0.95033,-13.9867,-0.7777,
0.018734,3.962,-2.0757,3.835,-3.0386,9.1709,1.4355,-18.088,-0.70246,-2.7722,0.65351,0.070788,-13.6296,-2.1775,
3.874,2.2784,0.94136,3.123,-1.41,10.0669,0.38547,-14.1107,-1.1422,-3.5702,-0.83196,-2.8255,-14.7398,0.36371,
7.0158,3.1054,3.7772,2.9354,1.5669,7.0525,3.2546,-12.3,1.8186,-2.3919,-0.78181,-3.6205,-15.7839,-3.5147,
4.6669,4.8475,4.9966,5.6518,-0.93747,8.0754,4.0234,-11.5617,-1.1828,-0.31995,1.6755,-0.51056,-12.4265,-8.6063,
5.5917,5.2795,7.3483,6.5177,0.32407,7.3499,7.3975,-9.6627,-2.7991,0.42215,1.334,-0.23896,-12.4038,-5.9207,
7.6665,6.8912,7.3891,3.7163,1.2687,4.4985,10.8098,-7.6374,-0.22124,-1.0492,-0.19257,-2.635,-19.8547,-3.6375,
8.4118,6.2367,8.633,3.7345,-1.4589,7.3621,7.992,-8.8659,-2.3771,-0.74529,-3.7964,-2.2359,-18.9042,-6.0704,
6.7016,0.80063,6.428,5.6796,0.79798,8.1255,1.4867,-12.9135,-5.3678,0.98642,-5.7376,2.9597,-9.3343,-5.4649,
2.4436,-2.1395,2.186,4.3747,3.6426,2.3353,1.398,-12.1387,-2.6351,1.4096,-2.9832,2.7821,-9.2561,-4.6551,
-1.0775,-0.56484,4.4649,0.73803,2.9421,-1.6612,7.5806,-6.5896,-0.066873,-0.12121,-0.87601,-1.7231,-15.9314,-5.3397,
-1.4952,-0.049018,4.197,1.6576,3.7295,-0.11529,8.5716,-3.3022,-1.9911,1.8143,0.62281,0.79038,-7.2629,-4.0554,
-1.6465,-2.2152,-1.5984,4.6916,3.7467,-0.34934,4.9243,-5.7552,-2.1126,1.9464,2.2727,2.9121,2.5728,-6.9456,
-1.7884,-2.3235,-0.29743,3.2051,0.87054,1.8406,1.9775,-2.7585,0.66552,-1.3037,1.8951,-1.3597,-3.1249,-4.8414,
-1.9223,-1.461,-0.52078,-0.60264,-1.3506,7.7559,-0.79249,4.8786,1.8307,-2.4305,-0.38799,-3.4475,-7.9991,2.4387,
-3.4942,-1.6143,-4.5869,-1.7715,-2.9568,4.6394,-1.9498,4.8268,-0.44835,-1.0794,-1.5695,-2.0354,-3.9037,-0.84062,
-4.4896,2.5802,-4.0705,0.50391,-3.5025,-2.1466,-0.14579,4.7784,1.2655,-0.29196,0.69356,-0.70821,-7.2849,-5.8521,
-4.2202,0.014758,-0.93419,-1.9367,-4.2567,-3.4641,-0.61898,4.4917,4.0821,-2.2026,0.17001,-1.63,-16.9707,-3.0908,
-3.4849,-2.3965,-0.87791,-2.7846,-4.0011,2.5281,0.86419,8.0784,1.9088,-2.0702,-4.1787,-2.9783,-13.0604,2.8794,
-6.1683,-0.80643,-3.2354,1.721,-3.761,3.3407,-0.63392,13.3782,-0.61587,-0.98216,-4.8919,-0.87138,-4.5638,8.9732,
-4.111,-3.8911,-1.8359,6.1973,-5.7045,-3.3672,-5.1752,9.4425,-0.33795,-0.19987,0.94525,6.1708,-7.9054,11.5683,
8.1868,-3.1757,-0.76192,8.7175,-7.2909,-1.7193,-6.3109,3.5733,-0.80007,0.29405,2.8167,6.2825,-10.3236,12.3204,
6.7315,-0.57478,-1.6803,2.8921,-2.033,3.2043,-2.558,3.3587,-2.1981,-2.6159,-1.6908,-2.7714,-4.4015,11.581,
0.30228,-0.78149,-0.37442,-1.861,2.669,3.2532,1.2111,4.8446,0.58512,-4.6283,0.58001,-4.2921,-1.004,5.3427,
5.1046,0.71143,0.61214,-1.2672,1.0624,3.0583,2.1025,3.1079,0.55024,-2.4222,0.54498,0.78594,-2.8719,0.68362,
4.7981,3.5615,-2.7988,-1.6733,-0.4474,4.3208,-3.3265,1.4749,-2.3751,-1.3128,-6.7183,-0.22532,-5.11,0.64283,
-2.9613,-0.26785,-1.9082,-1.8139,0.30257,3.8204,-6.2602,1.6276,0.9007,-0.028938,-4.6282,-1.8993,-3.5983,-0.60126,
-3.7475,-6.0364,4.4733,-0.74071,-1.1618,0.21714,-1.0639,1.53,4.703,0.93713,0.95211,-2.2672,0.47422,-4.4211,
-1.1126,-3.746,8.5432,-0.21456,-2.5384,0.68605,-0.036153,0.95626,3.4565,-1.0478,-1.0332,-1.6493,1.4096,-3.6744,
-0.80484,1.54,7.3077,-0.44265,-6.0015,2.814,-2.6851,0.17552,2.0443,-1.7078,-2.6584,-0.82741,-0.36217,-4.6587,
0.44829,4.0992,7.5921,0.78897,-7.8106,2.8862,-0.35481,1.3703,3.1265,0.081904,1.5984,-3.9108,-0.099471,-9.4409,
1.3855,-3.8598,8.5826,1.2238,-7.3417,2.2308,-0.33375,2.2522,3.4211,-1.369,3.4309,-6.5684,0.38866,-10.3205,
1.0616,-10.1355,7.345,-1.0188,-6.6605,1.8562,-2.9646,1.8758,3.9389,-1.0462,0.57375,-3.0411,-0.35756,-4.1579,
2.9261,-1.815,6.4219,-0.9579,-6.2608,0.78055,1.0692,1.2814,1.2925,-0.50146,-3.7995,-1.4123,-1.3004,0.43039,
9.258,6.73,13.0265,4.1613,-5.6438,2.9029,6.0667,3.856,1.4559,-2.1581,-2.3662,-1.5686,1.4291,-1.2827,
10.149,-0.42246,18.0297,1.9836,-6.2692,3.2109,1.3646,2.6606,1.3688,-4.9209,-2.224,-1.9566,-0.10263,-7.9544,
7.8526,-2.5665,19.5992,4.5157,-4.688,2.2951,3.4517,7.5624,0.081109,-3.4206,-3.778,-1.1161,-0.33767,-2.8976,
8.3458,4.8188,20.8334,9.5474,-4.4067,2.1574,7.101,15.3033,-0.88763,-0.32286,-5.4791,-2.013,2.5749,5.9534,
8.3272,5.4933,21.0294,7.0461,-4.6245,2.992,0.40818,16.3136,-1.3165,1.1425,-4.6686,-1.4105,2.4204,3.6677,
4.4529,0.82515,16.8754,6.6236,-4.8292,3.7766,-6.8469,14.3707,-1.2373,-0.3725,-1.9781,1.5664,-1.0993,1.0373,
1.5344,1.9812,14.1759,9.3594,-6.2264,1.863,-7.6412,11.821,-2.3686,0.85491,-4.0288,0.74929,-0.79237,3.6264,
3.6115,4.9953,15.4945,8.5569,-7.0581,1.9922,-6.9417,11.8346,-1.0212,6.3472,-4.51,0.46337,1.9067,4.6136,
4.8411,2.7674,16.9749,5.151,-9.0448,3.3189,-5.5609,14.499,-1.9238,2.5924,-3.7575,-0.046366,-1.5821,6.2655,
6.2378,2.8428,20.0538,9.9036,-4.4047,8.6634,-4.0224,22.0652,-1.5674,-5.0349,-2.3267,-0.28455,-3.1744,10.9508,
9.479,4.8414,22.9479,10.0323,-1.007,10.7947,-4.022,24.8386,-0.26851,-3.0456,-0.9823,-0.50844,-0.33264,9.0889,
8.91,5.9969,22.5351,1.7178,-4.3212,4.3622,-2.8166,16.1172,-1.6984,-0.93492,-0.4412,-1.9244,3.5435,-0.61571,
6.6884,7.3241,17.0859,2.3379,-6.7128,0.0033475,-2.4064,8.6429,-0.39146,-4.0121,-1.6198,-3.014,3.5721,-6.1221,
5.5642,6.1618,13.4096,5.3311,-4.1409,0.72605,-3.4673,12.7037,1.8016,-3.048,-1.7636,-3.0742,0.22448,-3.1033,
1.3737,1.9354,15.4969,0.19027,-2.9283,-0.28161,-2.7771,17.2439,1.2114,-1.4191,-1.1756,-2.8895,1.1751,1.903,
-2.5648,0.37328,15.5312,-1.2672,-4.6811,-2.1927,-1.1645,15.7275,0.65654,-1.3342,0.34098,-1.752,9.7815,4.6811,
-0.0010501,2.2793,12.6713,6.5219,-3.918,-2.5433,-1.5768,15.2656,1.0993,-1.2539,0.80268,-1.1652,14.0151,2.4722,
4.0968,4.7936,15.5265,7.8178,-2.9596,-1.1854,-2.2051,13.1448,0.31045,-1.4196,-0.93271,0.11002,12.9332,1.1191,
-1.9336,0.64964,17.4874,-3.7388,-2.7825,-3.5249,-2.5547,4.1614,0.77376,-0.85252,-0.87674,0.58535,11.6753,3.4621,
-6.8792,-5.8973,15.7148,-7.1298,-1.8926,-10.3032,-1.6785,2.224,4.3423,-2.0067,5.6833,-0.17267,9.2875,3.0129,
-0.44093,-2.41,15.0129,3.1801,-1.0557,-6.5516,-0.37251,11.4906,5.769,-2.6092,7.9934,-1.3676,10.8994,1.6273,
4.4062,4.4835,14.1121,8.2919,-0.99237,2.0367,-1.7964,14.658,3.4946,-0.52442,3.1755,0.16072,15.5481,-0.88047,
0.76718,3.7324,12.3013,8.7581,-2.3793,-0.97825,-6.0272,14.2602,0.39268,-0.97511,1.5389,1.5971,9.7943,1.1003,
2.6496,5.9183,13.9736,14.0174,-1.2725,-2.3656,-4.7015,24.4916,-1.0769,-2.845,2.4107,0.055246,6.3143,11.1574,
5.8651,7.4919,17.9559,12.2125,0.73254,1.6327,-0.080586,24.4688,-4.8687,-5.0845,-4.0004,-3.3225,8.3461,9.5237,
6.9592,8.0065,18.3245,9.5513,2.1346,4.4271,-0.55791,15.7696,-4.0949,-0.44084,-3.7607,-0.23088,10.7376,3.1679,
-1.4123,3.9104,9.753,4.3987,-2.091,0.54625,-6.0683,14.1003,-1.1974,0.79068,-1.8476,-0.45776,5.5138,0.3265,
-8.076,2.23,8.6859,-2.6137,-1.4832,0.99541,-3.2936,21.9314,1.2846,0.74323,-3.183,0.051635,7.1112,7.0554,
-2.53,1.855,10.8161,-2.698,0.77473,2.6227,-2.8552,23.7488,0.48438,-0.50642,-3.7151,2.2175,10.2997,11.2115,
4.8524,2.2254,8.2387,3.7306,2.1743,2.4656,-5.5762,18.4672,-0.50878,0.0056672,-2.0462,0.15646,5.8256,11.021,
1.6689,2.0921,4.3702,-0.3494,-2.7762,2.7998,-5.2414,14.4674,-1.9243,4.3443,-1.9232,-0.81703,5.4763,7.9499,
-2.0462,-1.1664,9.1696,-4.9082,-9.5995,0.94457,-4.204,11.4302,-3.4961,7.2172,-3.0131,6.2219,7.3168,6.7495,
1.9328,-1.0967,12.958,2.135,-5.6493,-1.0401,-2.5053,12.1904,0.087935,8.2302,-2.3501,12.1153,5.4318,10.2012,
0.37032,-1.0311,8.3239,1.5247,-1.4542,-2.9061,-5.2477,11.9407,0.56482,7.7361,-2.6913,7.0494,0.76689,3.3219,
-0.3748,1.1999,11.9218,0.71034,1.7665,-1.045,-3.2456,13.3934,0.7719,11.3693,-2.7708,9.278,7.7107,4.8098,
3.0219,1.6101,12.1706,5.9701,2.1427,-0.017704,-3.5331,14.0363,0.24342,11.1693,-4.0506,12.0955,13.5148,14.1624,
8.8661,-0.65568,7.343,12.1199,5.6296,0.22433,-5.4902,16.8095,-0.01215,6.4018,-2.1208,5.3442,11.4987,10.6616,
12.1906,2.2762,9.7945,11.8746,3.8455,0.6928,-1.3044,19.1749,-2.9039,4.5714,-4.4036,1.6491,10.3268,1.3448,
8.8083,3.3447,8.9661,6.1007,-2.4105,-0.55383,0.94321,15.3736,-11.6471,0.68196,-13.0573,1.7914,4.1638,4.3978,
12.3774,0.9746,7.2231,8.386,4.7238,3.0946,0.16349,19.0307,-8.7793,-2.0103,-10.1044,0.47883,4.6371,8.713,
11.1523,-0.047743,8.7179,10.7749,9.2606,2.9089,1.1175,22.2272,4.7629,-4.7822,0.1428,-3.8887,14.4818,-1.9327,
-0.12212,1.8833,8.1948,3.3795,4.8486,-2.5683,0.086629,10.7702,12.1899,-2.5671,4.9545,-4.1373,15.5411,-10.0119,
-11.9247,-0.88101,2.1593,-10.5614,3.8345,-8.4395,-4.4981,-3.976,11.6997,0.23829,2.4883,-1.7197,3.7626,-7.7237,
-14.5837,-2.7563,1.0658,-12.8202,3.1225,-11.3076,-3.2643,-3.858,13.4078,2.1522,6.1954,0.31171,3.0544,-5.3321,
-9.1294,-1.3857,2.2072,-6.025,-0.68025,-10.8701,-2.3451,3.3634,11.8804,4.1922,10.4029,-3.3224,12.7536,-8.1457,
1.7827,0.86663,3.7615,0.84397,2.0121,-1.7822,-1.9634,8.2233,9.4804,9.4843,6.1633,-2.8821,11.7474,-6.9336,
7.2194,-0.39066,7.1513,1.9986,2.6143,-1.9162,-1.6047,7.9708,6.7419,5.7817,-1.6783,0.42431,1.6425,-4.8303,
3.6532,1.32,9.8557,2.6016,1.2526,-8.3087,-1.7489,4.8415,3.2044,3.2661,-0.37228,-1.2884,2.7493,-6.7097,
1.9875,2.2049,6.372,3.8915,1.1772,-3.4721,-2.1266,5.0327,-4.7009,6.4439,0.61416,-4.5853,10.2969,-0.52274,
8.1348,0.14442,4.0615,4.6224,-0.33968,3.0032,1.8574,12.4435,-11.1677,1.719,-4.7253,0.51007,9.6791,8.6677,
13.9134,1.5818,11.0484,10.1294,0.6448,3.3051,3.1924,18.928,-8.5692,-6.0967,-4.4416,7.7101,6.206,10.558,
14.2837,4.6206,14.0012,15.0655,1.3292,2.8656,0.34957,18.0335,-9.7421,-7.9003,-7.3084,2.6684,4.6286,9.6833,
14.8729,3.379,10.2686,13.6791,2.2134,4.14,2.2568,17.433,-12.0501,-6.4624,-15.5469,-4.2406,8.6892,10.0662,
12.0524,2.2124,8.6886,12.8589,3.0449,2.4453,1.6395,14.9412,-8.9165,-5.1103,-14.1322,-2.5399,9.6141,2.7137,
3.3752,4.2486,11.3005,10.8823,5.9954,-0.83467,0.33602,8.5009,-1.3919,-1.6705,-7.7404,0.74575,3.9758,-3.4749,
-0.68365,4.4756,8.6943,2.998,5.6357,-7.5335,2.726,0.27804,-0.34447,-2.0522,-8.7223,-6.0479,-1.0835,-2.7844,
0.080496,2.0382,0.70063,-0.79705,5.5388,-10.2147,1.8393,-8.6565,0.39933,-0.24204,-6.5119,-11.2284,-0.29531,-5.2682,
-1.6116,-1.2176,-1.0286,1.9019,10.2677,-8.879,-1.4045,-22.2371,5.919,2.424,4.7251,-9.8318,-0.036628,-13.3883,
-1.5149,-3.0728,-1.4489,-2.0682,9.1697,-9.792,-0.35595,-34.0385,4.6,1.7967,8.2979,-3.9392,1.4118,-17.4052,
-3.1112,-6.0219,-6.9055,-10.3802,5.9684,-10.4098,3.2808,-38.5042,1.1905,0.48357,2.2564,-2.4976,-1.8064,-16.12,
-2.2014,-2.5273,-2.3936,-4.2136,13.5643,-5.6876,7.1811,-37.8809,2.8061,1.6596,3.3261,-3.0709,-3.385,-11.5376,
6.1259,2.445,4.4989,3.2701,16.6068,-1.008,8.6789,-38.5006,-1.7006,1.0781,2.6446,-1.4404,5.0128,-8.4347,
13.2296,1.093,3.5056,-1.5059,6.6923,1.2216,8.3987,-43.6623,-9.5523,-3.0839,-6.9141,1.7791,9.7737,-4.3137,
16.7746,1.0275,4.2596,-2.8618,3.8807,5.0047,11.7511,-43.9347,-7.051,-2.417,-7.4635,4.5649,7.2591,-3.5725,
13.3578,-3.3727,3.0399,-2.2079,7.9859,4.2227,10.082,-40.8169,-5.1819,-0.82591,-4.6054,0.43435,8.2696,-10.1073,
7.0127,-5.3395,1.6522,0.57567,11.1222,3.7279,5.3797,-38.6088,-4.1481,-0.052999,-1.6775,0.64972,13.799,-2.9929,
-2.8083,-8.6343,-3.5083,-4.0384,5.8753,-4.9317,-0.48647,-47.6205,-0.76595,-3.6655,2.0383,1.3334,6.9453,-0.16198,
-6.0135,-10.0443,-1.8518,-8.1342,4.0768,-8.4919,1.4711,-50.5476,2.1728,-2.4814,2.3982,1.2536,3.1548,-8.8291,
-1.5558,-4.3804,2.3566,-6.9232,4.5551,2.3815,4.034,-36.1868,-0.60916,0.80093,-1.8435,0.93745,6.5805,-7.0946,
-2.4263,-4.5995,-3.0874,-3.1334,2.3536,6.5774,-0.54685,-29.1949,-1.5365,-2.6216,-3.1787,-2.4933,5.7037,0.080027,
-6.6195,-6.2522,-5.3123,-0.053312,3.1767,2.8083,-1.4779,-28.8894,1.9297,-0.054158,0.86842,0.066468,3.4333,-1.371,
-7.9091,-7.0819,-3.7883,-0.77301,1.2989,2.8807,-1.1483,-24.5045,2.0553,4.5288,2.5035,3.196,2.0224,-1.5297,
-6.9527,-3.7644,-5.9711,-1.2086,-2.1531,4.6361,1.8131,-22.0704,0.9677,-0.081214,3.7996,-1.3341,2.865,-1.9199,
