"AF3","AF4","F3","F4","F7","F8","FC5","FC6","O1","O2","P7","P8","T7","T8",
-64.8359,-31.5742,25.7899,42.1797,-96.6513,-69.6564,0.72313,-0.72313,6.5077,2.1694,14.2205,49.4101,-26.7537,-25.7896,
-62.1507,-27.9927,26.4118,40.3717,-86.7548,-71.5027,2.3669,0.52544,8.2865,-0.61221,16.5006,53.4353,-25.8715,-28.3397,
-53.3602,-23.1798,25.55,44.4572,-74.5598,-55.8843,4.394,2.6631,12.3688,-2.7446,18.6438,53.3624,-26.0067,-22.542,
-53.2922,-27.8147,28.1142,43.4768,-78.522,-49.3981,7.7457,0.81617,9.4572,-0.89285,19.2123,51.3661,-30.9539,-19.9845,
-48.6483,-18.4329,20.1609,41.3503,-65.1337,-35.8288,5.3528,0.28516,1.1771,-0.35723,11.793,45.8739,-29.5787,-15.4109,
-37.7757,-5.9988,19.6742,36.7001,-47.1257,-20.9049,7.683,1.9553,1.8296,-2.023,9.8803,37.5778,-22.7425,-5.5684,
-29.9653,-3.4695,22.1094,34.2571,-32.3673,-16.999,10.3555,0.15073,5.3353,-0.21441,10.9747,37.4923,-11.9778,0.30955,
-32.2649,-8.8051,16.2031,33.8887,-34.5229,-18.6306,8.0467,-2.5096,3.3279,2.4498,11.0391,36.4478,-7.6439,-2.8425,
-31.5341,-9,14.508,30.1681,-30.7643,-16.7897,8.7692,-0.67183,5.2974,0.61556,14.4744,28.7174,-10.3185,-4.3592,
-20.001,0.69919,14.6017,25.4661,-14.9388,-8.0694,10.6533,-1.1136,9.8002,1.0607,12.6419,22.6561,-4.8788,1.6871,
-27.9599,-10.43,21.9203,20.5637,-28.1425,-20.1187,13.8705,-3.4571,14.9967,3.4074,14.2935,27.5633,-5.0682,-2.2706,
-40.3824,-23.9042,27.1127,18.6066,-40.5539,-33.0116,13.7613,-1.5623,16.2662,1.5156,16.5693,35.3093,-18.5026,-12.0164,
-34.4646,-18.493,24.2809,21.1059,-27.7567,-26.0896,14.1409,0.70056,12.157,-0.74449,14.3701,33.9139,-23.418,-10.0903,
-31.1915,-12.804,24.9933,21.5266,-19.5837,-16.5706,17.3899,-1.0286,8.2942,0.98729,11.8208,31.6382,-14.059,-7.3156,
-34.6226,-17.8204,22.0476,20.2349,-30.942,-25.2174,15.3823,-1.9311,7.7964,1.8923,8.701,30.7039,-10.8053,-9.7691,
-46.6452,-27.3564,25.5451,16.1284,-43.1855,-37.8044,17.3515,-1.3332,10.703,1.2967,14.9278,33.2001,-20.2802,-14.9676,
-39.6287,-23.5457,25.2175,17.33,-40.2329,-28.9079,18.4797,-1.0121,7.8915,0.9778,12.8269,33.8595,-18.8223,-12.8644,
-23.151,-8.033,10.9303,19.4237,-23.719,-13.0735,12.3095,-1.1923,0.42838,1.1601,-1.1991,21.9456,-5.8826,-1.7284,
-7.6619,2.4515,7.623,12.7145,-8.1958,-5.1788,14.2221,-2.326,2.5717,2.2957,3.4523,17.0138,-2.3965,-0.90172,
-16.8433,-4.6852,7.4066,8.3362,-4.8117,-13.304,12.6457,-1.9455,4.5868,1.917,7.8247,19.6084,-6.8322,-6.391,
-9.0839,-4.404,5.0341,9.2822,4.6362,-6.721,9.4767,-1.8286,5.7577,1.8018,2.5348,15.5395,-9.7966,-3.5973,
-6.1287,-2.6937,4.2501,10.6535,4.8399,-2.4614,9.3902,-2.683,7.3405,2.6578,1.4186,14.1249,-13.0652,-1.4533,
-12.2686,-1.3269,2.3078,9.2912,0.93424,-1.5905,9.0679,-1.799,5.2129,1.7753,3.0206,16.4108,-13.0043,-1.125,
-12.2555,-4.8626,9.6412,8.0108,2.0834,-5.5925,15.5136,-0.96804,4.6591,0.9458,4.5267,18.0774,-12.4649,-1.2986,
-11.2792,-6.7402,13.6421,9.2173,1.7172,-10.8006,16.2698,-1.1509,4.1386,1.13,2.0857,14.3416,-19.1891,-0.49753,
-23.6179,-11.1563,11.8594,9.1462,-9.4731,-15.4552,13.3654,-0.11777,3.4081,0.098119,6.7811,15.4091,-19.0018,1.9424,
-24.129,-9.5228,13.0761,12.9358,-6.4944,-11.6356,15.9379,1.8175,4.1677,-1.836,8.7843,21.2332,-14.4872,-0.58445,
-8.5812,-0.51544,13.0147,15.2932,7.9953,-2.9836,19.0791,2.4315,4.1587,-2.4488,2.7138,15.862,-22.054,-6.0929,
-13.9713,-8.9204,18.7416,9.3142,0.16438,-11.2403,22.9958,1.0805,6.5605,-1.0968,9.0589,17.0797,-34.8308,-7.8965,
-17.4716,-11.7596,15.2067,6.345,-5.6303,-13.4584,17.7597,-0.91252,4.7206,0.89718,9.9614,22.8033,-42.9843,-3.5663,
-2.9259,1.4792,7.5456,4.518,5.7948,-0.1176,11.8736,-3.7501,2.9914,3.7356,-2.6876,16.6146,-35.5848,-2.8704,
5.4446,15.4904,2.7544,2.3187,19.5471,12.9049,8.7508,-5.9354,-0.08041,3.5115,-11.6854,8.3869,-25.7369,-7.5186,
19.2179,28.661,-11.5109,3.867,32.4742,26.2306,-1.656,-4.3741,-10.4398,-3.2068,-15.0817,-1.034,-24.9157,1.8507,
32.1648,41.0414,-21.0639,-4.0782,44.6258,38.7568,-9.7517,-7.486,-14.634,-13.6196,-18.5153,-15.072,-26.3132,6.56,
44.3349,52.6789,-25.3435,-14.1977,52.192,48.2416,-13.746,-15.9548,-16.8891,-21.7203,-31.1428,-28.2676,-34.1345,-7.0901,
44.6876,63.6181,-24.305,-14.792,42.3117,49.6855,-14.3676,-17.8899,-24.0708,-20.8992,-35.0589,-29.9462,-46.1864,-14.8595,
46.3448,73.9011,-8.8673,-0.88869,35.4345,47.6686,-0.0080973,-3.319,-13.9496,-6.6299,-18.8554,-14.0494,-54.3818,-0.47049,
44.2872,83.567,-13.3967,-2.0407,32.5853,39.747,-4.105,-7.6994,-13.3536,-15.6321,-19.5317,-11.1576,-46.5393,-4.5396,
42.3531,84.9401,-3.6748,-2.6414,24.6047,35.1928,2.1671,-6.5143,-10.3832,-22.6479,-16.1906,-13.6214,-35.3111,-15.5954,
35.7145,79.6028,4.0174,3.0609,21.441,32.8404,8.0627,-1.0619,-5.6627,-15.2634,-8.7113,-2.4402,-30.5412,-15.383,
30.6792,70.4882,-2.4903,5.2874,25.9393,32.7981,3.7225,-0.99807,-3.3947,-9.0451,-9.1529,2.0447,-23.4062,-2.4085,
14.7384,52.1589,-3.0639,-4.4297,10.2829,17.0917,-0.11618,-5.0357,-3.914,-13.0818,-5.4703,-4.1034,-15.9762,-3.9511,
4.3335,42.4013,3.6274,-0.066782,4.0017,11.4867,5.4342,-0.15423,0.41819,-6.2713,4.2579,3.1324,-4.6535,-6.3656,
-6.5314,33.1084,5.8202,5.24,-0.094649,4.049,8.9646,-1.109,1.8392,-1.0744,3.5204,10.6574,-1.964,-7.4296,
-5.8987,21.7218,7.1581,8.5409,-2.7402,0.67242,6.2575,-0.31941,3.416,0.67715,-0.30615,8.8127,3.2154,-0.47623,
1.6861,20.9007,2.3901,5.6183,3.6907,6.8988,1.5437,1.146,0.31875,-1.7738,-1.734,0.089039,12.1815,6.301,
2.067,18.2005,1.2827,1.4247,4.9157,3.1105,3.3792,3.4875,-3.0747,-4.5596,2.2265,0.083811,15.789,4.959,
7.4864,15.4211,1.4466,3.0263,7.7539,-0.20946,3.8994,4.0013,-3.6132,-5.4912,-1.5226,0.31964,20.8673,2.4922,
9.2065,10.3986,4.4932,6.4603,4.1553,1.0083,8.727,1.11,1.183,-4.4387,-2.1543,-1.3867,26.1229,1.1375,
7.9311,11.4618,3.9827,12.0983,9.4497,3.1171,8.4445,-0.1618,0.38896,-3.9313,1.5905,0.86582,25.7607,3.2385,
12.2758,17.5227,-3.005,9.9261,22.8621,7.2685,2.6353,0.32996,-1.0805,-0.32108,1.495,4.1884,26.6253,6.9007,
6.9599,7.5536,-2.1017,-0.55132,10.1623,1.7708,4.1643,-3.3051,1.6355,1.8675,3.0924,4.1782,21.4125,4.3174,
4.3729,4.931,-2.2166,-1.7235,5.9371,8.1723,5.1197,-0.45551,0.81426,1.9964,0.25551,1.7581,17.4764,8.6378,
-0.95091,4.3941,-7.6272,-6.1994,8.7144,13.2255,-0.24892,0.29495,-1.8857,-2.2208,-5.7854,-7.2652,17.6331,13.181,
-1.1349,0.51497,-12.2311,-7.9969,9.3965,13.155,-6.2599,-2.3742,-0.085438,-4.7389,-8.5716,-11.8908,18.7442,15.5235,
1.1023,-1.2032,-20.8973,-8.24,9.5558,15.9811,-13.838,-4.8831,-8.0343,-9.5161,-15.047,-18.1673,16.4145,17.2434,
-1.3741,-0.64892,-14.3409,-4.8535,10.4286,14.5402,-7.7052,-2.1798,-7.5521,-7.017,-11.252,-14.667,20.7321,18.6188,
-0.80969,-1.5741,-20.7113,-8.9008,20.408,15.1138,-11.5814,-8.7977,-10.9556,-11.4165,-20.2178,-19.0898,16.1137,14.1275,
2.1314,-0.033378,-24.771,-13.6689,24.004,19.9918,-14.2608,-11.1621,-15.6007,-15.5517,-22.8611,-27.585,10.8086,14.2439,
-0.16586,-0.27234,-14.8489,-12.6078,17.5023,13.7306,-9.3078,-7.8411,-11.0492,-10.5215,-12.5716,-21.8325,13.7753,12.6662,
8.5211,3.6003,-19.7426,-12.3334,27.5393,14.3529,-14.0518,-13.1553,-7.976,-6.5157,-14.2276,-18.5945,15.8412,9.9781,
12.8303,1.9385,-22.8964,-14.4859,31.6717,19.7587,-15.6191,-14.2942,-7.9794,-3.7146,-10.4814,-18.9251,17.783,13.7178,
5.0708,-3.2395,-20.3175,-16.7498,21.8177,15.9217,-15.887,-13.6775,-11.598,-6.625,-6.7193,-19.4768,16.475,14.1,
-1.741,-4.2501,-7.2882,-10.6832,8.216,2.192,-8.9081,-10.6876,-3.9126,-4.5404,3.5659,-12.7642,18.6199,10.1206,
-9.5906,-10.9851,4.9593,-3.0527,-3.1231,-12.0395,1.5084,-4.0207,4.7582,0.31169,14.6801,-0.18837,24.9744,2.0415,
-7.0869,-8.3979,1.7693,0.98671,-1.9715,-10.4735,3.3462,1.5231,2.5444,4.6314,11.389,6.0896,21.0657,3.8473,
-13.4104,-12.7143,3.1094,-2.4467,-12.9405,-13.2193,-0.22901,1.4317,2.3917,6.7639,7.3315,7.1705,5.7018,3.6164,
-18.8725,-16.7721,3.4048,-0.85388,-13.6103,-12.4264,-4.0717,3.274,3.6945,4.9118,6.4094,8.6682,-8.7404,1.9532,
-15.812,-13.3556,-1.1379,-2.2488,-6.0451,-6.8602,-1.8993,1.1493,-0.38368,1.7247,5.5428,5.7381,-22.3159,5.6925,
-15.8272,-12.5542,4.7149,-4.524,-10.0207,-14.6435,4.9634,-0.84789,0.60343,4.5135,7.6206,12.1425,-35.077,4.3869,
-15.8418,-12.765,3.95,1.5319,-9.4194,-17.1393,2.2553,0.64913,4.9057,6.171,5.235,15.2704,-45.5056,-2.143,
-16.8195,-12.9632,-2.0716,1.9222,-3.5518,-7.916,-0.7723,1.5743,4.6113,3.8725,4.9209,8.0872,-33.6162,-0.086212,
-14.8461,-9.293,-8.6959,-3.0135,0.51782,-1.1744,-6.9924,-4.3046,-2.8961,0.26585,0.76941,-1.0748,-27.2608,7.1497,
-17.5708,-10.4227,-4.5588,-2.5919,-9.8775,-8.5756,-10.1884,-6.6978,-1.5171,2.4189,2.8923,-1.7333,-28.2766,5.5155,
-26.8807,-20.1615,6.0788,-0.2672,-23.3848,-21.3177,-3.0693,-2.1986,6.0455,9.2637,12.1188,7.2885,-23.9287,-0.84095,
-24.0626,-21.1209,-1.2755,-1.9382,-17.0405,-13.0488,-6.0184,-0.86138,0.62129,10.877,4.402,8.5385,-11.6467,1.3787,
-22.8599,-25.8793,-3.8505,-7.8475,-9.9924,-12.9888,-6.8625,-3.9431,0.82509,13.8399,1.9686,5.3749,0.38016,2.5011,
-28.719,-33.4855,-2.1731,-10.751,-23.4929,-26.3095,-4.5225,-8.5268,7.0422,23.1326,7.1532,5.5347,3.2498,-3.9156,
-26.7549,-25.933,1.0906,-3.5985,-30.3989,-27.7438,-2.5641,-6.8102,6.3787,35.4829,4.5547,9.7817,10.5266,-3.4397,
-16.4726,-20.5205,10.6662,4.3305,-17.9695,-20.7764,1.4462,-2.0631,3.5858,38.6567,3.3174,11.6053,18.0898,-4.6794,
-7.0485,-19.0482,7.3748,1.9012,-7.0095,-23.1454,-1.292,-1.2163,3.1295,29.8295,3.8414,3.437,18.2096,-9.4602,
-15.0614,-21.0387,4.2811,-5.6846,-20.689,-30.6746,-1.9375,-3.7946,6.0751,25.3885,7.7081,2.9897,19.7682,-13.472,
-19.9425,-21.7045,12.219,-2.4512,-33.5476,-31.7267,-1.3393,-1.6387,7.6388,29.6498,8.2097,12.9335,26.2949,-17.4844,
-12.7202,-16.3049,11.727,1.7932,-23.5809,-23.7973,-1.4999,1.5929,3.0831,26.6657,4.5839,11.9167,28.8148,-14.266,
-15.0904,-16.5317,12.7104,0.96251,-26.2636,-24.0567,4.6156,2.7024,2.175,21.9323,12.7448,14.8167,32.1474,-5.4563,
-18.2823,-21.0833,14.5992,2.1102,-35.0518,-28.6387,-0.24047,1.3353,3.2497,21.3396,14.1493,19.9536,29.0133,-5.3697,
-14.7752,-21.7465,16.6155,3.4296,-35.3588,-31.2589,-3.1183,3.1834,5.4648,22.4694,12.3363,19.2383,18.5957,-6.9757,
-18.468,-18.7545,11.0393,3.465,-35.4064,-29.1422,0.68419,4.1974,3.9319,17.9879,10.391,19.2895,17.239,-6.3162,
-22.1807,-15.7011,5.0742,3.2568,-35.6925,-25.4658,-4.1777,1.0532,3.2139,14.0163,6.393,17.1675,24.3994,-6.4195,
-24.9472,-20.7848,11.7594,4.2666,-36.2023,-28.5172,-6.5781,0.74902,9.0466,18.237,8.6608,16.3786,22.2123,-6.7573,
-17.9068,-12.0659,5.5102,5.6979,-19.9302,-14.0319,-4.9784,2.3913,8.2629,21.2401,6.9361,12.7448,19.1924,-2.2545,
-11.0477,-7.9674,-5.4253,-2.3569,-4.6344,-3.5489,-8.054,-1.6087,-0.42773,13.2171,2.6636,-0.071313,22.8614,-0.67283,
-10.1437,-16.8895,-1.4845,-8.2411,-5.0792,-11.7718,-9.2579,-3.6812,-3.5354,6.3984,4.1909,-2.718,24.6231,-2.8017,
-8.3299,-14.6709,-2.1185,-6.0593,-3.5693,-7.4502,-9.9076,-3.7014,-1.6362,8.6657,1.7702,-2.7962,21.9406,-0.94652,
-12.8919,-12.5857,-3.1965,-4.4908,-2.1502,-4.3519,-6.6619,-1.7922,3.0414,11.2789,4.3152,-5.2799,17.9729,-0.64888,
-12.3594,-11.1075,-4.692,-4.9445,-4.6725,-6.26,-8.4314,1.9307,0.68973,8.433,5.2616,-2.7937,19.0637,1.5594,
-14.751,-15.0204,-2.7231,-7.299,-17.1665,-10.9459,-9.6126,-0.35438,-2.0029,9.6144,6.151,3.8815,19.607,1.707,
-24.2302,-23.0373,10.6964,-2.7637,-29.8748,-20.6533,-0.118,-1.0562,5.5891,12.6527,13.7357,12.5667,9.5127,-4.4212,
-36.8764,-30.8137,14.8755,-0.18744,-42.1823,-33.5141,3.2636,1.8995,4.7717,9.4835,14.8399,16.1513,0.74715,-16.2072,
-48.7638,-43.0649,23.3827,-0.41739,-53.7514,-45.6032,4.2729,0.5805,5.6905,7.2273,22.3854,28.9206,8.1741,-27.527,
-59.938,-54.34,29.9337,5.1513,-64.6263,-56.967,2.8112,-2.1057,9.9286,6.0705,24.6575,38.5135,-6.4163,-29.9728,
-61.0415,-48.9106,25.4863,5.0833,-74.8487,-67.649,2.4015,-0.77414,6.1995,6.4293,18.5986,34.9975,-20.1313,-27.9335,
-56.415,-47.4219,15.7623,-0.52426,-74.4553,-64.795,2.2575,2.1645,2.9353,6.5256,15.0725,30.4875,-33.0235,-29.1497,
-52.0659,-43.1304,10.9603,-0.49269,-66.1314,-58.9793,-2.2164,2.5167,3.7234,3.7238,9.8297,29.1403,-45.1421,-24.9905,
-52.0753,-43.194,18.7384,0.74182,-61.4405,-59.538,0.5678,0.67855,3.7409,3.7415,11.8911,31.4893,-48.9412,-22.2859,
-43.4072,-38.433,13.9987,4.7949,-51.2464,-51.3862,4.6313,1.8429,2.3114,10.9888,12.8649,28.3949,-48.1739,-20.2256,
-41.526,-35.8862,6.6512,6.1943,-50.823,-46.1337,2.1842,1.9734,1.9316,12.4985,7.9955,21.1475,-46.9708,-16.843,
-46.7471,-34.215,16.3751,6.3047,-57.8967,-43.3656,0.12481,2.3371,1.3337,10.3027,7.5159,23.253,-48.973,-13.9041,
-29.8423,-18.0621,10.3312,11.47,-40.3229,-26.6637,-2.0518,3.8841,-0.43359,13.2997,4.8955,20.6527,-37.5989,-5.5981,
-21.4237,-16.1347,5.6138,6.6844,-27.4188,-26.1485,3.6148,0.99958,2.2439,12.7428,7.7352,15.7982,-32.6915,-8.8777,
-34.2382,-29.2666,18.2923,2.909,-39.8737,-38.6796,6.7724,-0.024381,3.0732,9.568,13.5379,24.4914,-43.2634,-21.8423,
-46.2839,-41.3695,22.9796,8.0371,-51.5813,-50.2178,4.9198,2.8694,-0.0034705,8.9939,13.6898,27.3603,-36.8112,-19.5677,
-36.7582,-33.3441,17.0212,10.2058,-40.7736,-39.733,5.8296,2.9383,-0.24434,4.3568,11.663,22.1031,-24.2386,-16.7065,
-28.2861,-27.0048,11.6615,7.6654,-33.9888,-34.4568,4.0337,1.7978,0.73453,1.6852,10.4811,19.3308,-28.5687,-19.0784,
-22.9733,-18.8768,16.5054,6.4823,-27.8519,-27.8099,4.0329,0.48485,1.8955,5.6816,13.9498,16.9659,-29.5059,-16.7287,
-13.6412,-9.3083,16.7201,10.191,-12.0807,-15.7772,3.0678,2.143,0.094563,7.9918,7.5692,18.1173,-15.4433,-8.2531,
-2.6997,-0.55494,8.4862,11.0257,0.81579,-1.8151,-0.97258,6.3528,-4.2495,5.1021,-0.11564,15.102,-5.8397,1.401,
-6.8761,-0.52153,6.0487,3.1334,-1.6434,-5.0805,0.049754,3.5614,-1.5843,2.8679,5.676,9.3755,-11.2738,-1.5753,
-7.4277,2.884,4.2398,0.53505,2.3116,-2.8475,0.52893,-0.026708,1.8852,7.9985,5.8174,10.259,-7.7051,-4.373,
0.0077609,2.952,2.7802,0.26186,-0.47831,3.831,-1.1901,2.6263,-0.87937,11.1339,3.2991,13.2587,0.71087,0.95068,
4.1046,0.60551,3.3365,1.4512,0.75545,3.8421,-1.8419,3.6738,-2.0317,9.2605,5.7524,14.1504,-0.53684,1.6168,
8.9199,7.5592,1.4492,3.5336,14.8101,6.7449,-4.3826,3.2123,-1.6687,4.6077,1.792,5.8297,-1.2276,0.31481,
8.6257,10.7208,2.0852,2.1163,19.1036,9.9557,-1.9504,3.7427,-2.2917,0.23362,-0.0027631,1.8645,6.7998,1.9829,
19.6776,18.7547,-4.7886,4.8816,30.0087,23.4583,-0.86933,4.0001,-2.6361,4.076,-2.413,3.1987,15.0689,11.023,
24.0404,21.2447,-6.1884,7.24,32.3056,29.8842,-0.093922,3.5192,-2.2371,6.0007,-3.4734,-0.60854,9.1032,15.9051,
12.957,14.6674,-0.51446,7.2877,23.6186,20.8603,2.804,3.79,-2.5848,-2.0721,-0.37243,-2.0181,4.2184,11.0944,
22.0617,25.1155,-4.099,7.5736,36.3015,33.7087,0.4666,7.178,-6.0451,-4.5991,-4.4477,-3.1023,16.2576,15.0083,
28.2097,28.1882,-3.6122,2.0576,30.1464,37.8323,-2.2128,7.4703,-6.4055,-2.1539,-8.7602,-6.0495,19.3796,18.6872,
24.3479,26.2558,-0.26212,1.6931,14.5992,30.5008,-3.7672,5.335,-4.334,-3.7118,-6.5475,-3.9992,15.0835,17.3251,
28.6717,28.0548,-4.1027,0.6275,27.8232,34.4554,-3.541,2.1227,-2.6278,-4.9352,-6.6367,-4.7235,27.6759,14.3573,
31.0488,22.274,-3.1336,-2.0617,33.5051,27.8086,-3.0878,2.7183,-1.747,0.42236,-9.372,-10.4658,40.1154,8.9163,
27.4986,16.8402,-1.7405,-0.25077,22.0948,19.1502,-1.2153,3.2783,-2.3653,1.6021,-7.1224,-14.8993,34.6957,9.1045,
22.7154,14.1425,0.051135,-1.4408,19.5638,19.2065,6.8116,-0.53381,1.392,0.30089,4.6331,-8.9437,33.3368,9.7633,
26.6549,15.7043,-9.111,-9.0671,30.9234,22.8746,-1.7921,-6.2864,0.34439,-5.5017,-3.3576,-13.7097,33.747,6.2852,
33.4915,23.198,-17,-9.7282,43.168,30.4199,-7.7101,-5.186,-3.2917,-7.823,-14.9663,-22.2871,31.9631,11.9338,
31.482,25.6625,-15.4981,-6.7343,50.3394,32.4511,-0.49881,-4.8749,-6.9506,-5.4254,-14.5505,-19.5039,33.4198,16.0383,
30.7983,29.1843,-22.0401,-8.4996,42.2575,30.2632,-5.0485,-8.1979,-14.4874,-7.7513,-19.221,-23.3952,30.2094,9.5323,
27.9862,26.9512,-15.8971,-9.4357,25.622,25.555,-3.2995,-4.8136,-10.2438,-10.6606,-14.2114,-26.3299,26.4686,9.4424,
29.4405,23.6469,-11.3278,-4.2901,25.4104,22.8167,2.4421,-2.8376,-7.942,-14.1183,-13.1176,-19.2065,27.5318,10.5631,
29.3612,22.4692,-22.4584,-7.648,34.7319,17.3502,1.5726,-11.1034,-14.4552,-15.9224,-19.8024,-19.7412,28.5313,1.0113,
20.8509,15.3363,-17.7366,-12.9738,23.971,14.863,6.7808,-11.8833,-11.1776,-11.1108,-11.3836,-20.0029,30.1938,3.3609,
22.4922,11.0419,-12.816,-9.3028,18.6766,18.7917,7.338,-10.6881,-10.9889,-14.3003,-11.1825,-19.2847,30.3103,16.1747,
25.963,16.1639,-13.9751,-7.7807,24.3045,17.6643,6.8978,-16.7956,-15.1502,-20.6732,-14.368,-18.6099,24.1533,8.4554,
24.1643,18.8095,-18.1983,-10.9293,27.4258,20.2197,7.2069,-19.8855,-13.5183,-18.7097,-11.8187,-17.734,21.9809,-1.9339,
20.0631,12.1373,-17.3474,-9.5504,20.7188,22.6219,7.9798,-17.0051,-9.5737,-16.864,-9.4224,-18.3574,24.2775,4.2077,
19.8235,12.8552,-5.7013,-4.1568,16.1013,23.1929,16.6599,-12.6103,-4.6608,-14.406,-3.5545,-13.8814,20.4106,3.9554,
22.9725,18.8327,-13.5541,-8.7279,19.4737,26.6219,14.2141,-18.1205,-8.2377,-14.0237,-5.2695,-16.905,16.2936,-2.5486,
15.5686,10.2309,-20.6948,-13.7479,10.8334,16.5887,12.1562,-19.2024,-9.9126,-13.9054,-5.6763,-17.578,18.9314,4.112,
15.3574,8.8939,-16.8018,-9.7898,13.3167,13.424,13.596,-12.5067,-8.1128,-8.9737,-4.1306,-12.4259,18.5186,10.855,
20.2207,12.6987,-22.0603,-16.915,19.7484,21.2955,9.8881,-19.9511,-11.9642,-9.3993,-6.775,-21.321,13.0691,3.4551,
15.6331,8.0805,-17.3624,-17.8284,13.7431,22.9102,14.1152,-23.0925,-6.9081,-8.8354,-2.5122,-18.5958,16.1412,0.83732,
20.9619,17.2367,-21.1411,-4.2255,22.5595,28.7662,8.9299,-12.0659,-9.8679,-12.6436,-7.6639,-16.5157,13.2445,8.5001,
33.8041,30.3025,-21.5599,0.12564,34.9445,38.3684,8.1529,-1.4601,-8.0707,-8.2696,-5.0349,-19.1402,13.173,16.9079,
19.8448,19.4458,-21.2304,-13.9819,20.7963,29.7996,6.2175,-15.4725,-6.6224,-7.7737,-3.7689,-18.4742,13.3467,11.5549,
12.1467,13.2176,-21.6438,-16.6379,19.7897,31.1451,5.6037,-19.967,-8.3942,-8.9942,-6.6758,-12.786,20.9818,11.1028,
14.3103,11.9425,-19.8631,-11.3012,21.9767,30.7225,6.2315,-12.0202,-7.8905,-8.9366,-4.3472,-13.465,21.6512,10.9187,
13.4515,11.2258,-25.902,-10.1411,20.176,25.0227,0.072895,-11.7813,-8.3812,-7.4364,-7.9429,-20.3702,12.1571,10.7456,
10.2342,18.2651,-27.7222,-8.5684,17.0374,30.7523,0.55057,-6.736,-8.3604,-5.5441,-9.3944,-20.112,8.0533,13.4752,
10.3432,20.3026,-28.2282,-9.7417,16.256,36.8608,1.2406,-1.7522,-8.582,-9.7909,-11.9641,-20.5926,7.8112,9.0512,
15.0252,18.1203,-28.9449,-8.675,23.4756,35.6134,-2.6903,-5.0215,-5.6568,-4.8649,-12.6925,-22.731,8.3066,10.9184,
7.1339,9.0793,-21.1823,-8.8775,17.4876,24.0765,1.5686,-7.8536,-2.6659,4.345,-2.0487,-17.2699,6.1211,11.9505,
6.4649,9.2576,-29.3113,-14.3706,22.9461,26.2474,-4.0689,-4.2489,-12.3881,-0.49524,-9.8797,-19.8492,8.4052,9.0643,
10.1745,11.3534,-38.3988,-21.4622,30.4873,31.6625,-14.6709,-5.681,-20.5628,-9.3835,-23.3869,-30.9506,11.0342,11.6538,
10.2868,7.5388,-25.7309,-17.5233,18.2938,21.8087,-8.7293,-7.9916,-12.3393,-7.1334,-13.1864,-26.4424,7.2386,14.0877,
17.3826,9.4968,-19.8485,-11.1693,22.4988,22.4283,-2.421,-7.03,-6.2963,-3.8131,-8.0566,-19.0708,5.3582,6.9759,
21.4012,9.1679,-19.3808,-11.7043,30.5488,26.6261,-2.0346,-5.4032,-7.6058,-5.2714,-12.6348,-20.578,8.652,5.3522,
15.2967,8.6178,-21.5922,-10.5199,24.3775,22.6184,-8.1791,-6.5251,-11.97,-6.4014,-15.2509,-22.7178,7.651,6.4773,
10.2814,12.6801,-25.3582,-10.6117,18.3353,21.9843,-12.268,-8.3028,-12.4569,-3.848,-10.7206,-22.0779,7.4328,3.9194,
13.5209,13.8478,-25.2828,-13.3492,15.3072,25.0041,-9.6035,-7.8047,-9.7811,-4.0988,-9.1132,-21.7169,5.5408,4.6483,
18.0122,13.4989,-27.6223,-14.4768,19.2091,24.9497,-9.5095,-11.1929,-11.1225,-6.2634,-13.387,-25.7169,2.3159,8.7081,
14.2802,10.5197,-18.0111,-11.9208,22.154,12.6066,-3.8774,-9.3161,-6.8399,-2.7544,-4.1478,-23.4506,8.6848,6.9802,
13.1823,12.5398,-17.1715,-7.5903,28.2965,10.645,-9.6702,-3.6956,-4.7424,-2.8302,-4.14,-21.3206,11.7793,2.9461,
16.73,15.1618,-23.854,-6.6525,19.3681,18.2013,-15.8389,-2.5095,-3.4935,-3.1424,-9.6762,-24.8616,8.18,4.6975,
11.3876,9.4319,-16.6382,-8.6639,4.106,10.8425,-4.7652,-3.8052,0.57249,-2.4717,-2.8289,-20.4778,10.0998,5.3798,
15.043,13.2044,-15.6398,-5.7338,16.5135,8.7458,-0.62323,-1.6486,-3.8003,-5.2158,-2.6593,-14.9107,11.904,9.3956,
16.5507,13.3761,-15.1834,-5.3897,14.5585,9.6672,-4.4421,7.1271,-7.9107,-5.3849,-4.4278,-14.9798,5.4049,11.2421,
7.6037,6.5478,-13.5495,-6.7533,8.1414,7.8821,-9.237,8.3867,-7.6773,-2.8924,-4.8852,-16.2504,5.3218,5.0238,
2.8089,5.673,-18.0392,-7.7944,21.7529,12.7118,-10.611,0.65263,-7.2166,-5.1294,-8.9307,-18.6499,7.4126,2.7942,
8.184,8.4661,-14.3055,-6.1219,21.5323,12.672,-4.9131,2.7826,-3.1682,-5.5446,-4.7792,-18.2538,0.46035,-0.024591,
20.9493,16.394,-13.206,-1.657,20.9635,15.5269,-5.3415,6.2311,-5.6294,-4.0068,-6.1799,-20.7742,-1.7367,1.1819,
15.3538,12.0359,-16.2703,-8.3065,23.0801,16.0415,-13.2157,-6.1941,-11.0763,-6.1765,-14.4862,-25.7943,-0.18666,4.485,
9.8533,12.0369,-15.535,-8.5307,29.1669,16.2841,-13.1459,-3.6531,-6.3143,-5.0828,-13.3758,-23.5235,1.512,6.3853,
18.1799,21.6785,-16.7721,-5.8497,33.4429,19.8868,-7.7774,6.9302,-6.1764,-5.9831,-12.3323,-27.6557,1.1803,9.1357,
21.9096,17.4855,-10.9453,-6.4629,24.2052,16.2832,-2.9722,2.658,-6.2878,-6.1063,-7.7358,-28.4067,2.5555,8.1054,
25.1746,17.6417,-11.9755,-4.8698,22.512,10.7269,-7.8555,-0.15278,-5.1874,-2.1245,-7.9945,-25.0151,5.5357,1.1116,
17.6388,25.0191,-11.9801,-4.3369,24.2945,13.2166,-9.5536,3.4718,-2.707,1.6186,-8.7204,-24.7192,3.0341,0.32175,
13.447,21.3488,-12.4666,-7.2101,28.8624,20.3773,-3.9187,0.61217,-2.7858,-0.16574,-10.8482,-25.8876,-3.6554,8.7381,
26.7401,20.5496,-16.0572,-3.4033,31.4692,18.6725,-5.1301,-0.38888,-4.5468,-2.5662,-12.6077,-26.7447,-1.99,13.0343,
27.9073,24.6192,-11.7193,4.0317,19.9401,8.3931,-10.1244,3.4911,-0.41761,-1.9303,-6.5486,-21.2832,3.432,9.3602,
27.4382,32.5421,-12.2212,5.4771,31.5181,19.7001,-10.2403,8.3433,0.3308,-1.0911,-9.7711,-19.7652,5.3953,13.3779,
32.2994,25.5279,-16.0674,-4.7335,37.5808,21.1692,-11.3131,7.1193,-7.1609,-7.5336,-16.6566,-29.9075,0.49225,11.8523,
25.059,21.5863,-7.8726,-1.5572,27.131,15.0786,-6.7777,6.2105,-3.8389,-4.1888,-7.4623,-21.3644,1.4268,10.1771,
35.6068,21.7372,-7.8821,2.3928,20.2007,16.1018,-11.1916,0.053025,-4.5727,-2.0095,-10.8712,-20.0828,-2.0335,8.1204,
46.2446,14.8896,-5.2403,0.079884,21.64,1.0357,-15.5815,5.5932,-2.6113,-1.6482,-12.3878,-23.9392,-2.1522,6.9101,
29.3699,18.0938,-9.5052,-0.16565,34.4416,-4.6903,-15.3698,11.2834,3.5711,1.5844,-9.4752,-19.8516,7.3772,11.075,
13.5077,27.3718,-13.9965,0.56696,46.4751,9.6911,-6.976,8.9194,3.5981,0.76622,-5.7734,-22.2757,9.5854,16.4362,
26.7972,23.8013,-13.6387,-1.8772,57.7866,16.461,-13.3059,5.0098,-5.2949,-4.1005,-10.2477,-29.1343,-0.6307,10.1474,
39.2894,19.4811,-20.5331,-5.6209,63.1167,5.8324,-26.6075,-2.0397,-11.7261,-3.3725,-18.7919,-33.1708,-1.0748,5.1998,
22.832,23.6145,-13.9987,-2.8736,73.4297,19.5824,-10.9111,6.7598,0.5466,6.9532,-3.6851,-20.0933,13.0897,18.9878,
23.7518,21.4745,-17.2564,-8.2445,83.124,26.2407,-2.7848,10.4513,-2.1375,-0.93602,-5.6329,-21.5391,8.5684,19.8972,
36.4267,23.8016,-15.9796,-6.0629,92.2365,19.6048,-10.5713,13.9223,-3.6963,-2.5669,-8.9101,-28.6822,6.3673,8.8217,
47.136,14.4198,-12.8516,-7.8682,100.5614,4.3285,0.90882,2.2407,-6.6075,-3.6181,-7.6526,-31.541,3.8157,-5.8076,
58.2874,13.0725,-10.6345,-13.181,90.1891,-1.8367,0.85452,-5.1248,-5.7294,-2.437,-9.1219,-24.3461,-1.7157,-4.6158,
55.7542,16.6267,-1.3196,-9.0154,84.7776,6.4684,-9.3199,9.2827,3.2913,2.5297,-3.7541,-15.6547,-0.64867,5.7843,
38.309,13.9418,-10.6404,-4.3771,93.7909,8.7319,-0.80695,17.0414,-1.4855,-2.2013,-1.3592,-22.1868,5.8977,0.85795,
21.9104,18.6489,-16.0275,-5.8017,102.2634,22.308,13.3415,9.9929,-1.6373,0.099914,3.3016,-19.6507,11.5694,8.7602,
6.6163,5.7196,-11.9326,-15.8177,110.2276,6.8695,26.641,-2.899,-2.2622,-4.0037,-5.3324,-17.7486,-2.8628,7.9934,
-2.2164,5.1355,-10.9757,-7.3969,117.714,-7.6427,38.0577,8.1212,-0.43972,-4.0044,-9.5922,-15.9608,-1.0043,6.3085,
-13.6528,6.7553,-7.4249,-5.507,124.7511,2.8185,49.8743,16.7927,4.8895,2.0207,1.5884,-12.1108,6.769,8.3404,
-5.1208,-1.3628,-7.4613,-10.9612,126.7868,2.167,60.9818,12.4112,2.668,-0.02877,1.0112,-16.6864,0.57824,3.5016,
-2.6442,-0.075935,-9.6649,-4.7601,128.5794,-8.3271,67.4462,14.3174,2.2667,-2.1964,-2.1828,-21.7114,0.78429,-1.288,
-16.5855,0.65175,-2.5773,-2.7871,133.1569,-3.2479,77.4995,14.6634,5.7459,0.58668,4.9378,-12.4548,5.7991,-3.862,
-6.0699,11.2179,-1.9408,-1.1736,137.701,11.0469,86.9495,9.4453,1.0628,-0.89478,0.78519,-8.815,7.8613,3.6005,
7.5509,7.8935,-10.7422,-7.1289,115.3389,-3.7159,81.9735,4.299,-9.847,-14.9411,-10.5899,-22.3861,-1.5282,-2.1589,
-7.0022,5.9739,1.4718,-8.1472,102.5137,-7.5903,91.1551,18.1411,-0.5793,-10.3085,-1.7596,-18.753,1.4558,-0.58333,
-12.7283,19.7155,2.8295,-10.0688,110.4629,6.9651,99.7858,31.1526,-3.4368,-9.6902,-2.1361,-15.2175,2.3325,6.2003,
-0.63664,32.6325,-6.2581,-15.9723,106.3655,10.5243,88.9782,15.7863,-14.0766,-20.9192,-12.854,-26.5972,-7.6896,-1.1613,
6.1505,41.2799,-0.57998,-15.4959,94.199,4.5902,77.8549,16.7674,-10.3395,-18.6997,-14.011,-25.0009,-9.1564,-3.5022,
-0.72627,39.0438,7.8903,-19.1457,82.5217,4.556,82.1014,22.751,-9.9604,-13.9625,-11.9652,-19.4037,-7.8839,-6.4253,
4.1378,48.7525,9.3453,-17.9972,78.0521,-4.3942,76.2112,18.0117,-13.7013,-12.6426,-12.2114,-17.2754,-9.3388,-6.522,
2.9254,59.9274,3.4821,-21.2554,78.19,2.6181,66.8181,19.8233,-11.9151,-11.4019,-11.4785,-21.5413,-10.7069,3.9929,
-3.0347,60.5496,9.5397,-18.0519,72.5342,11.62,76.909,30.685,-4.9332,-7.3433,-4.5233,-19.7669,-4.2799,6.1635,
11.2474,62.7014,6.557,-10.2201,62.8798,-2.0928,75.5484,16.3106,-11.3864,-14.6157,-13.8931,-20.9912,-8.3617,-6.2577,
24.6726,70.9909,6.646,-10.0889,50.9123,-7.7518,69.0873,15.8144,-9.7389,-10.8463,-14.5058,-12.5004,-8.8238,-4.9183,
9.0922,64.0799,6.4882,-16.9553,40.8677,0.66749,69.5218,28.9655,-6.021,-6.5801,-10.9839,-8.135,-8.0534,-4.8642,
12.7645,66.2606,0.072869,-11.3587,52.5156,12.4371,65.1091,27.1069,-9.2752,-10.2831,-15.8684,-13.6729,-7.3293,-4.8133,
18.0244,67.3464,5.1304,-11.4003,62.2591,10.0039,65.7821,11.3804,-10.8881,-12.317,-15.1575,-14.5395,-9.0589,-1.8732,
19.8352,65.716,4.3404,-16.5011,44.4236,14.2241,61.353,15.8796,-15.5372,-13.5064,-17.6223,-18.97,-8.5151,-2.243,
22.0196,65.6294,-3.6328,-18.4031,30.3095,15.2989,50.441,20.7114,-21.3539,-18.4806,-26.6883,-30.8473,-5.1122,-5.0004,
25.5184,75.7917,-9.682,-13.4428,42.5909,15.827,46.9323,5.3687,-15.7346,-17.8539,-26.0511,-32.3706,-2.877,-4.2187,
38.0873,85.3442,-23.2011,-11.6716,54.1355,28.9774,40.7422,-1.5816,-13.8259,-13.8904,-32.6825,-37.659,0.18789,3.2655,
48.6975,85.2852,-35.909,-25.0713,47.7543,41.3387,25.7646,6.226,-27.0964,-25.108,-44.8216,-49.4995,-7.0542,-2.2331,
38.5446,67.1524,-44.6003,-33.5699,33.8016,30.4227,26.6291,3.9245,-25.832,-21.6736,-44.4224,-48.8191,-5.1849,0.31124,
37.6781,70.3541,-31.8009,-19.9866,36.5942,27.1511,38.0463,-3.5418,-10.1821,-6.2732,-27.657,-31.79,2.357,6.0771,
30.5967,67.5791,-31.3391,-18.7874,23.3113,18.2912,36.2455,1.491,-6.7994,-2.1606,-18.4051,-29.0394,-2.6047,1.8557,
29.7253,65.4526,-38.6178,-19.1059,10.3435,17.1942,25.3941,4.776,-12.176,-10.7081,-22.6034,-31.6354,-5.8228,0.78047,
29.8699,56.7052,-38.2289,-18.9239,13.0973,18.0907,22.4242,-1.7771,-8.071,-10.0656,-14.9807,-27.8091,0.79304,-2.1584,
32.4161,45.1077,-48.9506,-25.5013,26.4115,17.9691,14.8122,-0.70662,-15.3,-10.4256,-20.8303,-30.9608,0.26352,-8.7778,
42.2817,45.5347,-53.4854,-23.7302,28.8035,20.5064,11.2724,2.4693,-22.8176,-13.4154,-27.5342,-37.5393,-3.3677,-3.6714,
39.2624,44.7304,-40.6353,-13.6298,12.9752,18.3117,18.3084,-1.5353,-14.7001,-13.0929,-16.2417,-29.9843,0.69074,4.2612,
25.8199,34.8162,-43.9818,-14.7397,-1.9033,17.2135,12.3896,-1.4432,-12.8538,-14.2351,-17.1949,-21.9182,0.6493,0.14959,
18.9678,19.712,-38.9325,-19.1577,-15.8891,9.9139,10.2002,1.5357,-13.5286,-11.9349,-18.0916,-21.0853,-2.282,-4.6799,
27.9531,19.0112,-25.5093,-10.7779,-16.9844,4.0164,14.8908,-2.8947,-14.1631,-12.1832,-17.0061,-23.6766,2.1933,-5.3634,
40.3759,28.2344,-29.0404,-3.6237,-6.5653,10.7649,14.7203,-3.9264,-13.5548,-12.6575,-21.0475,-27.3181,7.6053,-4.8006,
32.2893,18.3454,-32.6004,-11.6008,-12.4382,12.5293,9.0166,-6.1011,-9.8487,-7.5595,-16.8923,-26.1607,5.221,-1.6203,
27.9416,13.8705,-31.1266,-13.3151,-3.9789,19.4906,3.6551,-8.6274,-9.74,-1.803,-13.9504,-25.5552,7.8,7.6362,
27.2292,8.6997,-35.0438,-14.4446,-12.417,18.3209,5.8462,-10.0377,-13.4941,-7.9616,-19.3801,-30.2886,9.26,5.2496,
20.7749,3.8396,-35.3511,-14.0596,-23.2414,14.3294,5.4952,-7.5074,-10.2741,-9.4123,-17.7351,-27.0248,7.7408,0.11413,
13.5027,3.368,-25.2765,-10.5647,-21.6057,13.7108,1.5503,-5.8519,-7.0064,-3.7861,-9.6814,-27.5727,5.1069,2.2762,
3.2925,-2.3777,-10.9854,-5.8335,-34.4094,-0.36824,11.3392,-4.2955,-2.9706,0.056923,-2.1106,-23.2673,3.5952,-1.9577,
-4.1359,-3.6813,-12.2545,1.2654,-46.4448,-7.577,14.0333,-1.6277,0.10019,1.4993,-0.53771,-7.8915,5.3077,-4.7323,
-7.262,-11.1729,-12.9653,-1.2209,-47.9967,-12.4248,8.3708,-2.4941,-0.38798,-1.0005,1.4225,-4.0438,2.097,-3.4843,
1.8509,-13.3951,1.7924,1.7444,-59.2169,-16.9819,14.6175,1.03,3.9736,2.4339,6.6398,-0.42669,-1.8853,-5.2034,
0.29331,-2.4687,2.6485,5.014,-69.7638,-12.5888,15.6679,1.9323,4.2169,6.626,6.2412,2.9731,-0.80804,-7.3016,
-13.8243,-8.3459,-2.0899,-2.7584,-65.578,-14.4848,7.2563,1.5752,3.7232,5.5053,10.9286,3.9998,-0.51836,-6.6223,
-15.2842,-15.7986,-2.6872,-2.3517,-53.6894,-19.1591,3.2057,1.7218,4.7053,4.4523,9.0678,7.3755,-2.6566,-3.0917,
-0.26719,-10.9943,5.1868,5.9841,-63.9654,-21.8659,12.1724,4.0287,8.7613,8.5235,6.5951,14.6457,-4.9074,-1.4599,
-3.9873,-9.1298,6.5628,8.7585,-70.9737,-14.5284,8.791,5.4742,8.4766,8.735,9.3329,12.5617,-4.372,-4.0239,
-9.2917,-11.7151,-4.1953,2.6894,-53.9408,-3.7748,-5.8365,1.0484,0.97811,1.7034,4.6756,-0.0021461,-1.9405,-4.9873,
-9.2161,-16.7968,-1.051,-1.8103,-46.3661,-8.3686,-0.78631,0.98546,-0.044442,2.5651,5.3594,4.3368,-1.8241,-2.2779,
-2.8786,-12.8969,1.9041,4.5649,-48.4048,-4.9744,6.0093,3.3365,2.3684,12.0521,6.0017,10.825,-4.1247,6.5354,
-8.2495,-15.7385,2.9951,8.3883,-58.275,-0.096175,2.9977,2.4134,3.4311,16.3907,7.3288,6.5601,-3.1544,11.6869,
-18.6005,-28.5327,6.9125,5.7156,-61.7681,-9.4906,3.0585,3.9556,3.9483,12.7559,10.9867,8.8178,-4.6521,3.5141,
-4.9515,-24.8926,3.1233,4.8908,-45.0466,-6.993,-0.49943,5.1645,2.7471,12.4725,6.4706,6.3601,-5.8192,0.89267,
-2.9671,-23.64,7.5157,3.8744,-41.6204,-4.8862,-2.6386,-0.68899,5.2338,14.3757,7.7696,7.1838,0.07354,5.4189,
-6.1633,-25.1139,4.6544,5.088,-37.1953,-5.5571,0.41199,-4.9862,7.3302,11.1028,7.3037,11.5732,4.4077,4.1296,
5.0525,-20.4738,-6.4709,2.6133,-25.5633,-1.6085,-0.33586,-6.374,3.7571,7.7853,4.2141,4.3711,5.8302,3.6407,
6.9185,-21.4145,-2.4672,-1.1589,-29.5731,0.65763,-3.9311,-6.2326,0.88013,11.4155,5.6485,1.9397,5.2394,6.0738,
7.2265,-16.514,-13.6476,1.08,-23.2192,8.0897,-8.2743,-6.0998,3.4786,11.9357,-0.71619,1.1006,3.72,7.3963,
8.4804,-12.8723,-26.9288,-1.6361,-13.3902,7.3632,-8.9834,-9.8309,7.3675,8.5682,-4.2884,-5.4736,6.1481,7.1938,
-0.2236,-18.3665,-39.413,-7.8045,-25.1202,-2.7196,-14.229,-16.4719,-0.78732,7.0903,-4.9954,-11.8936,6.7431,4.8339,
-4.0668,-22.5669,-51.1483,-5.8902,-37.713,-5.9306,-13.375,-15.0019,-5.5606,8.1109,-2.2854,-11.6621,4.8925,3.5798,
-2.617,-21.4539,-34.7023,-0.47507,-40.8734,-7.262,-4.6188,-5.6656,1.2806,7.8652,2.9134,-3.0082,4.358,2.6421,
-3.1834,-18.9618,-36.2355,2.2045,-37.6976,-6.1029,-6.0289,-4.1204,1.9271,8.5986,-1.8411,1.7516,2.8912,2.2422,
-12.1514,-26.9831,-31.6513,4.4824,-49.5358,-12.4857,-3.7389,-9.1758,-0.1172,13.8672,-2.2126,3.0923,-3.0668,2.1076,
-14.3144,-31.6306,-22.0392,7.106,-59.9407,-18.9674,-3.5146,-10.0715,0.37223,19.3017,-1.1155,9.1737,-9.1494,2.9455,
-13.9377,-34.0714,-19.7528,1.3772,-57.7903,-21.2036,-10.5343,-8.5032,0.34966,21.5183,-0.084465,9.1054,-10.5288,-1.5698,
-17.4402,-38.776,-7.9628,4.6685,-64.9286,-23.3058,-2.1895,-3.6546,9.9697,26.9756,11.4893,11.9331,-6.5226,-5.332,
-17.3577,-37.8952,-11.8231,13.0655,-61.9963,-19.0149,-3.9863,-6.8094,8.4076,21.5007,5.9797,12.1815,-8.0595,-3.0839,
-20.4136,-36.3444,-9.9086,12.0406,-60.9281,-15.7049,-11.2189,-9.0524,6.6979,19.0054,4.4156,14.5841,-9.7451,-0.72968,
-22.3225,-33.4411,-1.8425,10.5951,-65.7083,-16.45,-8.3769,-3.9297,9.4292,21.9626,8.2483,18.7705,-8.4372,0.037234,
-18.3316,-28.7831,-9.2036,8.2721,-57.6685,-14.2577,-6.1866,-4.8992,5.2485,17.9938,1.7278,14.5107,-9.1363,2.6861,
-16.0264,-30.6715,-6.4822,8.4987,-50.111,-13.1613,-3.1643,-6.292,9.5129,16.1908,6.6858,14.3635,-8.8291,6.1403,
-11.4496,-30.5187,-4.406,8.7119,-47.3451,-11.6485,-9.0002,-5.6738,6.2908,14.9786,6.0435,11.3323,-9.0225,3.603,
-11.7267,-29.1692,-4.6236,5.7793,-50.7711,-11.9137,-9.9062,-5.3331,1.5748,14.5621,2.3067,10.6526,-7.517,4.3509,
-15.1207,-29.5885,-4.5874,5.1913,-47.966,-10.4757,-12.4451,-8.6288,4.1316,14.8929,2.8909,11.7004,-7.7891,4.3306,
-3.1262,-22.0286,-5.7584,5.8437,-34.4828,-0.20623,-20.8574,-12.4494,-1.4189,11.5892,-2.5847,3.2851,-8.2856,3.1069,
2.364,-18.7787,-0.11025,5.0112,-40.609,-3.0864,-15.2677,-14.113,-2.78,8.4838,-2.4301,0.67791,-5.3784,3.4024,
-4.7677,-18.8573,-5.6472,2.0594,-38.8953,-6.9985,-17.0027,-14.953,1.4846,6.7694,-3.0072,0.8782,-3.8504,2.4754,
-7.8559,-15.7974,-3.3804,0.97129,-25.9566,0.65198,-17.911,-6.3433,5.2517,10.2199,-0.89834,2.7539,-7.476,6.6649,
-10.0359,-21.8392,7.1869,4.0467,-35.2452,-3.4843,-12.2568,0.54505,2.2852,10.3298,1.3245,8.6145,-12.0889,6.9882,
-4.6132,-22.4573,5.7916,10.0707,-47.2305,-6.1675,-11.5212,-1.4156,2.6303,8.7459,0.76332,9.5436,-6.0611,5.6048,
-6.9877,-25.207,11.4694,13.5636,-57.0504,-11.3413,-5.2865,-2.5362,8.9802,10.8725,7.2252,14.5144,-2.0818,2.6172,
-19.1017,-29.9613,24.8813,21.909,-56.5197,-17.4095,4.1895,4.847,16.1544,16.9688,15.4686,27.7435,-3.8853,5.3524,
-30.2479,-32.7431,37.4884,31.9224,-64.9388,-22.8726,9.482,15.4022,24.5849,22.4584,26.3508,40.1789,-1.9647,12.0214,
-26.7458,-28.6094,49.3391,41.8177,-75.1425,-27.0439,20.2412,25.3244,32.0279,26.6545,38.8698,51.8682,1.7686,14.9155,
-26.1052,-34.1239,51.8019,38.3441,-77.9853,-31.2056,19.9909,18.502,24.8033,19.7524,34.2475,55.6255,-4.1224,5.3433,
-38.6389,-46.1764,49.1759,31.7051,-86.8035,-43.4333,16.3813,14.0179,25.2438,17.6034,31.7107,56.6263,-7.2495,-6.0641,
-50.1796,-54.3721,48.6355,32.2131,-88.8261,-49.3839,10.5779,12.6947,26.6214,16.5469,32.2184,60.9417,-8.2608,-11.4851,
-37.2866,-43.1561,44.0304,35.824,-72.1684,-37.0206,11.1481,10.2458,25.2651,14.8312,30.0443,56.0799,-7.5239,-5.7343,
-30.4701,-41.772,43.5577,33.9155,-59.4026,-30.7023,12.6484,10.8363,24.4721,14.6642,26.5545,49.0997,-6.3496,-1.7753,
-22.6162,-37.5782,36.8469,26.3372,-41.7385,-28.137,8.7562,11.3912,18.9062,14.0256,15.079,42.0566,-5.7274,-1.9095,
-14.7515,-34.6004,34.3949,20.1774,-34.052,-22.8331,14.2566,5.6463,19.4593,16.3173,17.7895,37.3638,2.0878,0.37448,
-11.456,-30.5964,31.3673,21.3771,-41.1677,-15.1964,12.4371,5.3073,22.1483,14.8561,22.9893,32.7116,7.2654,1.3161,
-24.2663,-33.5811,31.8952,21.5401,-52.7976,-23.926,7.8343,11.2556,18.891,11.0724,21.6097,35.0875,-4.7399,-7.4402,
-36.9103,-45.6662,40.8278,22.4172,-63.7298,-36.5905,16.2826,11.7854,19.9268,11.6133,27.3029,45.7566,-14.8195,-14.9474,
-38.4318,-48.5906,34.2805,21.3132,-55.8088,-42.9514,13.6181,4.5705,16.0796,5.8549,22.5314,41.3241,-13.6895,-10.9172,
-28.8947,-49.0493,35.1163,20.0348,-60.1727,-41.3381,12.3194,6.2248,16.0792,3.5758,19.7333,39.8088,-9.4935,-8.816,
-25.9561,-42.9727,38.0709,25.8222,-50.5369,-36.6888,15.6773,14.2871,18.2478,9.8688,21.6827,46.8204,-5.7905,-11.4204,
-24.3987,-31.2358,26.1454,23.7905,-33.5252,-24.8465,8.4701,9.0911,15.2248,11.6868,17.0073,37.2623,-5.4433,-7.3607,
-19.3194,-31.0484,24.336,17.7838,-36.093,-16.3658,4.8284,2.0381,16.4804,11.2266,15.2639,26.5909,-4.8753,-1.8574,
-4.0602,-25.8113,12.7527,17.1989,-19.8274,-1.2839,-3.6558,2.8799,6.8148,5.2506,3.743,15.8362,-4.1011,-1.2638,
9.5601,-11.7293,-2.1125,12.7923,-4.5378,12.17,-15.4882,-3.0777,-4.6816,-2.2955,-7.0871,1.8703,-8.1936,-0.22435,
4.6481,-4.2771,-12.4705,5.7583,-4.0245,11.9218,-21.3074,-12.534,-5.8465,-4.5679,-11.9645,-3.0621,-12.0403,1.2354,
2.4413,-9.3229,-19.9173,-6.1562,2.0013,12.1706,-27.7419,-13.7099,-13.2087,-11.5245,-20.4054,-16.9784,-10.3538,-1.731,
7.8382,-12.8611,-17.9991,-11.3306,8.3889,15.5379,-21.9798,-9.754,-13.1393,-13.9663,-16.5298,-24.7571,-4.6711,-1.8684,
10.019,-7.5097,-18.1244,-10.8918,5.234,14.8466,-20.9025,-18.5688,-7.2897,-9.0314,-14.3331,-20.6205,-3.186,-1.0334,
10.3824,-3.6849,-11.2522,-9.2742,4.4383,12.9917,-15.3093,-15.5267,2.7893,-0.7765,-5.7602,-13.5985,3.2724,7.706,
8.7949,-7.8024,-11.5411,-11.61,2.2436,15.1045,-16.8011,-9.2922,-1.7171,-6.0323,-4.4504,-16.1573,3.0758,9.6535,
7.0624,-4.2007,-18.8024,-8.7443,-1.506,23.1163,-22.3005,-15.7246,-12.4598,-13.6241,-14.5473,-20.2491,-1.688,7.8695,
3.2639,-5.8771,-10.4436,-5.8092,-7.2005,12.5701,-16.1425,-16.2276,-11.7125,-13.7708,-12.7104,-15.6599,1.3051,3.5407,
12.7095,-3.5958,-5.9606,-8.8351,3.3545,13.2621,-17.584,-6.5768,-8.5991,-11.0163,-10.5015,-13.274,7.0118,0.91811,
14.1159,-2.175,-3.916,-11.4383,0.50188,18.0098,-15.8059,-4.9772,-5.4323,-7.704,-7.7025,-14.1651,6.3499,-0.34204,
11.8231,-4.937,10.419,1.7815,-12.0613,10.1807,-0.75751,0.62458,6.4632,2.8811,6.8597,-0.78166,6.9332,6.4274,
11.1135,-3.1948,15.4581,13.2435,-12.3017,6.1957,3.0238,6.8534,11.3779,8.975,14.0404,10.3522,7.9633,15.6825,
-1.3636,-13.3672,22.0025,11.2439,-25.6636,-2.13,1.155,8.6116,15.7566,11.5697,18.2594,17.2031,10.6187,9.6801,
-4.656,-23.1698,23.5748,9.6051,-37.2597,-10.1972,6.3885,8.577,16.7397,11.3577,17.6465,16.6531,10.4638,1.3867,
3.8185,-13.1029,18.3037,9.9932,-20.9241,-0.90825,6.0052,8.5444,13.8071,8.7481,12.2489,12.2795,8.3897,7.0881,
2.3841,-4.363,12.1438,5.7781,-5.5686,5.1718,-5.6833,6.3445,9.3632,0.26944,4.5241,5.9991,6.1991,6.4214,
3.928,-4.3424,-2.6848,0.85148,0.79102,3.6564,-16.1888,0.90235,2.2937,-8.1831,-6.1114,-8.4609,3.6577,0.49273,
9.9593,-11.7942,-5.5363,-1.1273,0.74356,3.437,-7.9862,-2.0443,0.22792,-5.2815,-2.8522,-16.2684,6.8127,1.9094,
7.1926,-15.6663,-1.5887,-5.6395,-5.3266,8.2925,-6.7841,-4.5727,-5.8113,-8.58,-7.2604,-14.0875,7.1273,1.5539,
0.25334,-8.2186,2.6042,-5.0599,-3.8019,8.0357,-8.064,-3.5753,-4.7395,-7.824,-6.584,-12.0367,6.4585,1.7019,
-2.1725,-7.2436,3.4119,-1.8642,1.7288,1.769,-3.7243,-4.807,-1.0811,-3.0163,-1.3687,-9.3868,3.6609,1.5993,
8.8042,-9.9424,-9.5673,-8.2599,8.1326,7.6884,-8.0801,-9.5803,-8.97,-12.2353,-15.3866,-17.2592,-2.1024,0.78043,
14.3015,-5.73,-6.3417,-9.4515,12.2244,17.1095,-3.9799,-2.4975,-2.8882,-11.2602,-14.3427,-16.4646,5.4955,6.7591,
2.8385,-5.3862,-9.3357,-9.8483,5.2239,7.4058,-10.49,-9.0966,-3.1968,-9.1383,-14.446,-19.8151,3.7195,-1.3592,
11.1037,-2.4122,-6.1242,-9.0166,2.7416,8.1665,-8.1731,-6.3814,-3.7282,-2.5643,-16.713,-19.3493,-0.11881,0.89177,
11.402,-7.0879,7.2584,-8.9578,1.613,6.7124,1.958,5.0885,3.2442,2.892,-8.4791,-9.9934,0.37002,6.1407,
-0.85151,-7.1444,13.0897,-2.6355,-0.41223,-4.2954,-1.0513,2.3733,6.9062,7.057,-0.25782,0.24694,6.1326,1.9161,
-7.7903,-7.921,26.4043,8.3689,-14.4875,-18.1377,9.8576,6.8102,15.8913,16.9975,13.8576,14.3321,13.2365,2.0416,
-14.7945,-21.5457,38.92,13.4101,-27.7182,-31.1494,17.2201,15.3194,16.6253,15.7369,20.6189,26.3671,2.5601,-0.24981,
-24.2711,-27.3633,33.6925,18.1491,-40.1551,-36.0291,12.5715,14.6412,12.9767,8.2847,20.1047,27.4362,-3.619,-4.3322,
-36.9148,-28.6136,38.9016,18.0245,-51.8458,-41.5804,11.8172,9.9064,13.6439,3.4493,21.7905,33.9852,-1.9559,-7.4467,
-45.9075,-31.9583,42.1112,18.6301,-62.8351,-40.7724,12.7953,16.3017,15.4767,4.9295,20.2422,36.0433,-3.5254,-6.2766,
-38.8147,-35.8255,41.0307,20.4045,-73.165,-42.6648,13.9558,21.5903,16.4764,4.6338,20.4738,33.3989,-10.0627,-14.0951,
-32.8705,-25.7222,42.1842,24.724,-66.3646,-39.8638,14.3234,15.7157,14.7646,4.1145,20.9325,35.9744,-8.7359,-15.9006,
-28.9699,-17.4303,31.9402,18.9019,-48.2827,-29.7593,7.1976,8.5059,6.1661,3.3858,10.9996,28.0314,-2.4273,-5.7876,
-21.9293,-20.2408,32.9161,14.3933,-31.2858,-21.2251,13.0323,14.262,9.6525,6.5566,12.268,23.457,2.0567,2.2724,
-15.07,-19.7493,29.2539,16.1813,-25.5524,-15.854,10.5631,9.309,9.7962,4.9584,11.7729,22.2906,-0.7178,-0.99744,
-13.2014,-15.672,25.5707,15.2106,-21.6089,-12.4924,6.0732,1.5198,8.2444,4.6611,14.4407,20.4714,0.28936,-2.8656,
-23.0146,-18.1062,21.6259,9.4768,-24.6511,-12.2252,1.8519,1.4282,9.196,3.4171,14.5382,16.3506,-0.20993,-5.5861,
-20.4285,-14.8506,18.6416,11.5597,-27.7513,-5.4657,-0.42787,0.61957,7.9213,-0.4033,10.0509,9.826,-0.4383,-5.4919,
-8.3567,-10.3442,28.8513,16.8917,-33.5581,-8.7534,8.0335,-4.4788,6.2407,-0.13814,15.4734,11.8875,-0.6532,-3.9571,
0.33961,-5.8669,25.6739,16.8428,-24.3137,-18.3511,9.4794,-2.2821,3.4559,1.7986,15.0272,15.5128,-6.3986,-7.0939,
-3.7783,-9.6127,19.0718,14.6269,-21.6498,-23.7578,4.8133,5.8085,3.0076,1.4497,14.3665,15.3049,-10.5942,-13.1762,
-10.5412,-15.0614,29.2558,18.8106,-33.1252,-18.2348,7.1757,9.5577,6.4427,1.6038,20.4943,23.7868,-3.4507,-12.6265,
-20.2729,-19.2193,31.5979,17.9231,-45.2377,-19.31,6.5043,1.9945,1.9587,-3.5542,15.1671,25.0112,-7.3411,-11.6281,
-33.1565,-32.1661,34.7637,14.6788,-56.6234,-32.2514,10.2116,2.1158,4.0103,-2.1357,19.8007,27.1257,-17.7467,-14.5456,
-45.2671,-41.9259,31.7137,10.9054,-67.326,-44.4163,4.2962,1.5068,4.2517,-0.079464,17.6487,27.9087,-19.0921,-17.5293,
-47.8537,-36.5181,35.5955,13.6255,-56.1761,-39.3411,4.0384,-0.5118,5.9248,3.7817,18.0358,30.5725,-6.8596,-10.2111,
-32.2081,-33.604,37.075,19.3158,-49.1902,-39.6318,6.4475,-2.1682,7.2564,0.90358,19.6049,34.2816,-6.207,-7.4291,
-16.1756,-19.5364,22.7992,19.121,-32.1388,-24.7207,-2.1342,0.85418,3.9288,-5.8995,8.7876,23.5479,-12.1013,-8.4296,
-5.2027,-11.6155,22.3954,15.5631,-16.1105,-12.1502,1.8502,-0.64333,4.1752,-2.1709,7.7782,12.494,-6.5547,-5.0313,
-5.1315,-13.0878,26.5952,19.691,-9.3593,-11.6622,10.6573,-5.6662,0.7912,0.12853,8.0346,11.021,-0.13566,-0.14995,
-10.1261,-8.9282,18.7329,20.4379,-7.8335,-7.1062,5.1972,-2.916,-1.1843,-5.1819,5.1423,10.3599,-0.12764,-0.623,
-18.1954,-5.018,13.7525,14.3909,-13.1481,-4.2694,-1.3811,-0.81282,3.2253,-5.353,7.7261,10.7026,-2.5301,-3.9601,
-10.8372,-4.235,11.9633,11.1173,-11.8773,-2.0851,0.14754,-9.4409,3.5137,-1.6576,9.6726,9.5781,-3.3426,-1.3123,
-13.0791,-13.622,11.7275,2.7374,-17.4313,-2.9242,0.62097,-12.249,2.8208,-7.3428,8.1283,5.6293,-6.5164,-1.7156,
-6.7509,-2.4405,8.8546,5.7067,-2.2854,10.0258,-3.514,-1.1499,4.8208,-3.7686,6.9176,4.0863,-2.5099,2.0028,
7.7542,11.806,0.61045,12.1127,11.9517,23.5243,-7.1592,-3.0092,1.6392,3.6882,3.1282,-3.3898,1.015,7.6674,
21.3889,18.69,-2.3185,7.0478,20.3937,33.5616,-5.7655,-10.0593,1.5411,2.5028,2.9403,-5.5963,1.9185,11.5459,
23.9623,21.6662,-8.2047,-0.36516,25.1956,37.5732,-9.9991,-8.2506,1.6893,0.18326,-1.3333,-5.5017,7.8287,14.4683,
30.2371,18.9197,-8.1946,-1.7893,29.4684,30.9803,-7.9531,-5.3452,3.9983,0.1725,-0.28918,-9.5102,8.805,8.7797,
35.413,18.5077,-6.9798,-0.9588,35.1724,30.8089,-8.1991,-7.1939,2.5534,-2.9711,1.4152,-11.5909,8.0359,2.2272,
31.3596,22.6999,-10.4174,-7.6497,38.8466,33.2987,-17.3481,-16.8852,-3.8663,-9.5418,-4.4543,-17.6439,9.482,6.4323,
25.3806,18.2044,-0.39277,-7.9141,29.044,21.9008,-6.9072,-15.6311,1.9088,-5.3538,1.3565,-14.8985,11.0822,13.0358,
25.0629,13.015,-3.9844,-3.8241,21.7575,14.079,0.49685,-10.1137,3.9636,-0.93501,0.070091,-8.9427,7.284,7.1922,
16.3287,9.824,-6.1555,-2.6303,13.7036,7.4497,-0.014892,-9.025,1.7976,-2.3252,0.065886,-5.514,5.4007,-0.95212,
13.9025,11.1625,3.3731,3.3123,16.2559,7.003,-0.9781,-6.0731,2.6539,-1.2216,1.026,-1.3266,5.0769,1.0334,
24.1558,16.2776,2.2066,4.5596,29.2598,20.0804,-3.3293,-2.8164,-0.39765,3.1903,-3.856,-1.7292,3.3263,9.6483,
19.573,8.311,-4.9161,-0.29369,21.9606,13.8134,-4.8172,-10.6012,-3.9892,2.7574,-3.8656,-0.9025,4.8135,9.7923,
20.3268,10.2225,-7.5132,4.0627,27.3919,16.8414,-9.3485,-11.4114,-4.2318,-1.2639,-4.598,-5.1867,9.8273,10.651,
23.6865,17.081,-6.8214,1.6493,32.2558,27.6411,-13.3673,-3.2549,-6.6294,-4.3216,-7.4556,-12.3473,3.6941,13.145,
26.1217,15.5737,-9.3047,-5.1981,22.1253,24.0544,-12.0833,-4.5059,-8.1599,-1.6522,-6.044,-7.7501,-0.86637,7.5356,
31.5445,9.5783,-15.2536,-8.5014,25.8597,23.3343,-10.1528,-12.189,-5.5009,-4.2044,-8.8146,-8.0082,4.2475,4.4326,
20.4923,-1.1198,-11.9283,-10.8838,29.1284,19.0417,-10.026,-15.7965,-1.3144,-7.3265,-7.8038,-13.3123,7.3671,5.6129,
18.0577,4.4913,-9.5256,-6.6156,29.0681,16.2122,-14.004,-14.6075,1.8977,-1.8255,-5.1661,-14.2005,8.6121,7.445,
19.3848,9.524,-10.4003,-11.5209,17.6831,15.2395,-13.6457,-15.1773,1.3019,-2.6798,-6.3024,-16.723,8.0954,1.2138,
17.0169,2.4451,-6.1604,-14.445,12.0428,16.4943,-11.6216,-14.9895,0.01894,-9.0265,-7.1291,-14.9962,5.4405,-6.3304,
28.0465,8.5649,-4.8269,-4.9017,25.4202,15.5046,-11.4067,-11.1981,-2.3928,-11.3775,-5.738,-14.5788,3.1859,-0.64841,
29.2565,16.7283,1.2475,1.1772,23.2921,11.6821,-0.59874,-6.1877,0.16114,-5.3919,4.7299,-5.9911,6.3689,4.6934,
13.4011,7.2882,-3.4073,-0.098468,7.7946,6.4016,-4.6604,-7.5039,-2.4999,-6.2739,3.723,-2.4984,6.7099,0.79612,
6.4505,-0.13846,-1.5152,2.0766,-1.7116,-0.97236,-9.9244,-5.366,-1.1446,-4.6922,3.2586,0.30262,6.5483,1.9536,
0.037962,-5.6742,3.155,-3.5916,-1.8501,-8.8678,-8.606,-7.6955,-4.2094,-6.0979,1.3759,3.8999,-0.83447,-1.2971,
4.3742,3.3436,-0.89092,-0.48382,8.3843,5.7643,-8.0899,-4.3415,-3.957,-6.2142,-0.15316,4.148,2.5903,7.4576,
6.2807,5.7938,-0.11433,2.1965,5.2299,13.7339,-11.2197,-0.94778,-1.5502,-8.0107,1.5435,-2.6085,3.1575,9.6615,
14.8219,10.5079,5.4361,8.0903,14.3161,10.7407,-10.3055,1.2783,-0.25193,-4.3966,0.24558,1.6453,1.7632,2.5743,
12.4864,5.0571,-0.67461,5.1947,15.3853,8.65,-13.5436,-3.6187,-6.9857,-7.0253,-7.9639,2.9929,-1.717,-5.2934,
4.2658,-3.6824,7.802,5.124,0.3622,-0.3047,-7.1874,1.1777,-1.9868,-6.3624,0.46771,6.9106,1.5195,-1.3603,
-3.9443,-8.5227,8.5387,1.2012,-12.5545,-11.1329,-11.3354,-2.5084,-0.66278,-7.1859,2.1269,2.3987,2.1512,-3.9298,
-8.2872,-14.0371,6.8213,-1.0403,-3.3653,-4.9213,-11.3784,-5.4911,2.0283,-1.6933,8.025,1.5316,4.1916,-5.3815,
-9.9593,-16.3281,2.3145,-2.1829,6.7186,9.474,-11.9012,-2.5103,0.70154,-0.8686,6.338,3.1267,5.1451,2.8954,
-8.8794,-13.4203,-1.6808,-4.4621,2.9414,11.4366,-16.4893,-6.698,-3.6789,-5.6367,2.5837,-0.43489,4.8364,8.5062,
-4.4902,-12.615,5.6509,2.0721,-6.8762,-3.3496,-15.5,-5.8142,-1.048,-5.7809,10.6234,0.073134,2.1361,-2.609,
4.9382,-6.5555,1.9379,4.3584,1.2491,2.2743,-20.8365,1.7655,-2.9133,-9.7724,9.0222,1.9969,-3.7766,-8.7189,
-3.553,-10.0188,-0.58924,-1.206,-2.6825,7.9222,-22.961,-0.75081,-3.7026,-8.7039,5.1061,2.8412,-8.371,-0.96566,
-9.3656,-10.6227,5.4719,2.964,-12.4034,1.9035,-14.5932,-2.393,4.9554,1.7005,10.3436,7.2503,-7.6275,1.7441,
-8.5625,-6.8516,0.08259,-1.7934,-14.3103,0.10225,-14.9227,3.2947,1.5249,-0.088514,5.1435,5.6102,-8.3745,-4.8683,
-6.3615,-8.6102,6.1032,1.9296,-6.944,2.7477,-13.3044,10.0864,1.1924,0.15776,7.4864,11.2991,-1.8465,-1.4427,
-3.3287,-9.2988,2.6035,4.9473,-1.4659,-0.068743,-21.9062,-0.88288,-2.4946,-2.5033,0.047366,5.0776,-2.941,-1.5976,
-1.6825,-2.4742,2.9295,1.2758,-9.5729,-1.5106,-23.0022,-4.6863,1.5113,0.057298,-1.402,2.3625,-4.6929,-3.4297,
-4.2329,-6.4228,2.5125,-2.4159,-14.5421,-5.9995,-22.8271,-3.2001,3.59,3.1871,1.3335,4.8721,-6.0984,-4.9114,
-3.256,-9.171,-0.28981,1.8264,-7.1619,-5.881,-22.6628,-4.2133,2.1693,13.8417,4.8689,7.2309,-3.0814,-2.4475,
-15.8349,-10.7901,4.7895,1.4761,-20.8322,-10.1074,-19.1336,-4.2013,7.583,23.8577,10.1206,12.8228,-1.691,-3.9877,
-19.4643,-10.8658,1.3689,1.6282,-18.9796,-9.26,-25.4572,-1.2981,7.8511,15.9185,4.9338,9.8845,-5.2052,-3.9891,
-11.307,-10.4548,0.56337,2.7354,-3.7408,-3.6427,-23.2068,4.3232,7.621,8.9374,6.3246,4.2298,-4.1699,1.7934,
-8.218,-8.3813,6.3141,1.1255,-4.36,-3.4244,-19.8862,1.1717,5.7175,7.4373,7.3914,2.0478,-4.8836,-0.72436,
1.4341,-1.6119,10.2736,5.3962,-5.5444,-0.80857,-23.0314,-5.1653,0.55374,0.72453,-2.6931,-3.8597,-6.0369,-8.3937,
3.7584,-4.4075,13.5138,6.0366,-5.6939,-4.1343,-17.7933,-3.8913,-2.3718,-5.5857,-7.8339,-3.1459,-7.1207,-11.7467,
0.64039,-2.2148,10.7748,3.2642,5.2528,0.4521,-15.7619,1.1626,-3.1933,-1.8761,-7.8463,3.3093,-3.8014,-4.293,
-6.6289,-4.974,13.0208,-2.2343,5.4198,2.8356,-18.6721,-4.6915,-3.4837,1.6109,-2.5548,-0.7456,-0.68077,-2.1072,
-16.8362,-15.2809,19.9524,-4.5103,-7.4389,-3.6015,-16.5879,-7.7844,2.5099,1.5143,1.4549,0.263,5.1447,-3.909,
-18.7183,-15.8103,16.3449,-4.2399,-12.295,-9.17,-17.521,2.3236,5.2516,3.3514,-1.5247,3.6214,4.8357,-5.1204,
-13.7386,-15.3434,23.5591,0.35301,-15.8956,-19.7068,-12.1308,8.9331,6.3826,6.0426,7.7261,8.707,-1.7207,-11.08,
-4.4785,-8.8793,27.2071,9.7317,-11.3266,-13.945,-8.27,4.7816,5.2766,3.0288,9.4315,12.2819,-4.7508,-9.6922,
-7.5844,-2.0801,20.2717,8.666,-14.0215,-2.9855,-14.0407,1.6023,-1.3069,-5.348,-2.2215,6.2424,-7.8403,-7.6645,
-7.1291,-1.4731,25.3224,10.5562,-17.0364,-4.2524,-10.7876,12.1114,1.1819,-1.1702,2.2501,12.1348,-2.5492,-8.6506,
-5.2553,-7.1693,23.803,10.4047,-16.0144,-10.2638,-9.1761,10.9026,3.5213,5.6484,3.0792,13.8169,0.01388,-6.6856,
-19.04,-20.8392,22.3748,3.032,-29.1536,-23.6275,-12.9643,0.1253,1.8638,1.4531,0.96628,12.0235,-9.6279,-4.8382,
-31.9976,-25.2529,23.4425,5.7421,-35.4786,-22.692,-15.0785,3.9742,4.1623,2.33,7.175,19.0149,-11.4606,-6.9582,
-22.8471,-15.784,19.3846,11.4234,-26.3602,-11.9305,-14.415,10.7256,3.1895,7.7339,6.9855,15.7051,-9.0857,-5.8176,
-14.2453,-11.9445,17.7395,8.3277,-30.0811,-5.9121,-15.4784,7.6718,0.58785,4.3776,-0.66435,8.9781,-13.8431,-2.5764,
-6.6421,-1.587,10.8907,8.3101,-14.1763,8.5426,-18.8883,7.2114,1.9987,1.7045,-2.0706,8.9214,-6.7459,3.8448,
-3.1103,-1.7328,5.6575,5.6424,0.7743,10.0786,-17.996,3.1633,-0.29036,-0.084981,0.22277,4.7707,-0.31561,4.337,
8.1638,3.6738,6.2823,3.3756,9.4048,16.223,-15.9519,-1.3648,-2.6831,-0.079422,-4.1289,0.6281,-4.635,9.8619,
8.6381,2.4893,-3.2534,-5.9857,6.4302,21.034,-27.0461,-5.6213,-8.3069,-7.7877,-15.9325,-11.9428,-6.767,9.2699,
9.807,2.099,-4.2635,-4.4217,18.3369,24.3517,-21.8079,3.6341,-0.8186,-1.7768,-9.9149,-10.9853,7.739,10.8833,
16.6899,7.5167,-15.3359,-8.2538,31.3367,27.4699,-24.5968,-2.61,-6.3136,-2.8755,-18.2381,-18.7623,6.6716,5.6506,
20.9912,10.4397,-14.4157,-14.5075,35.8435,24.3754,-24.5673,-7.2741,-6.4167,-6.5593,-16.1799,-20.0467,5.3074,6.7578,
15.3934,8.3675,-14.5146,-12.6727,22.6056,17.6107,-26.4672,-3.4627,-4.103,-6.6477,-9.4241,-15.9514,6.9171,6.8343,
18.3264,15.096,-19.4286,-9.02,27.516,23.7847,-28.2539,-5.6653,-7.2315,-4.8028,-13.6796,-21.743,5.0561,4.0139,
18.1907,12.7445,-12.9602,-10.407,29.2395,22.8395,-21.256,-7.736,-2.9412,-4.0327,-10.4482,-22.849,3.7889,1.8448,
9.8686,5.7131,-15.5568,-10.7467,19.7722,16.6487,-23.8368,-2.9333,-0.35442,-2.8267,-7.411,-17.6214,-0.29509,4.1445,
-0.60541,3.6831,-11.4904,-7.4508,6.2938,13.9625,-19.7555,4.2326,5.6924,4.8148,2.9156,-9.5743,-0.036422,8.9575,
-8.2823,-6.1789,-0.19567,-6.0394,-2.761,6.3759,-16.642,-0.36014,6.3152,-0.77678,3.7046,-9.0003,-1.4805,0.70683,
-0.55431,-8.2185,8.4929,1.5535,-0.66711,3.5834,-14.1974,2.0718,9.7924,-2.6581,2.0363,-1.2292,-5.2478,0.66465,
-10.8854,-16.1615,7.7424,-1.6732,-14.7271,-9.8882,-14.0689,5.5629,4.6256,-1.2938,2.1551,5.352,-15.2973,-5.8832,
-12.1602,-14.2275,12.0983,3.7301,-18.3025,-7.8486,-10.332,14.8704,0.009507,1.6761,2.9898,7.9232,-7.1486,-3.6018,
-11.1895,-17.9533,18.8444,7.6038,-20.3375,-10.5109,-8.9891,12.773,-4.5705,-4.4499,4.0156,7.207,-6.4786,-1.2164,
-11.2413,-21.4556,25.185,10.763,-24.1789,-19.2804,-1.9423,9.8374,0.28328,-4.906,9.3183,17.1389,-10.6694,-5.7229,
-14.4232,-22.0967,19.8178,8.6707,-21.7641,-20.534,0.10268,13.5855,2.1945,-6.5399,5.8669,17.0746,-7.137,-9.7179,
-27.6578,-33.5452,23.2083,5.4992,-34.5582,-28.7018,-4.001,12.5293,3.7499,-9.7628,9.1302,17.2553,-8.878,-10.34,
-34.3138,-34.9066,27.1181,9.9901,-46.5847,-31.8001,-7.1352,5.9931,4.9711,-6.7668,12.9211,22.9686,-15.0939,-9.2375,
-32.9779,-28.715,26.2143,11.0778,-39.6922,-29.6512,-2.6099,8.7668,5.3958,-4.6736,12.3866,21.3494,-16.3575,-11.8166,
-34.3737,-32.7767,23.1954,7.5209,-38.2748,-35.103,-5.8275,10.651,2.6619,-7.7675,8.7512,16.694,-20.6787,-21.7127,
-19.7779,-27.4357,21.8033,14.3001,-24.8912,-30.5863,-4.9958,9.5299,2.9843,-1.0348,12.5645,19.0667,-16.5456,-17.0356,
-17.6272,-34.4664,25.7978,11.032,-27.2541,-34.0538,5.4268,6.0658,5.6975,-0.97269,15.667,18.8868,-11.6965,-12.1571,
-21.8721,-38.1832,27.6243,7.4776,-32.3674,-38.7594,6.5476,7.6301,4.3914,-6.699,9.4245,21.1281,-11.9587,-12.8738,
-25.8624,-31.0715,27.8952,8.4753,-31.8716,-37.3979,-2.04,7.6543,2.6819,-6.779,10.3053,23.2347,-18.472,-19.3322,
-29.6133,-29.6893,24.7753,7.9667,-35.262,-33.2258,-7.7026,7.6772,2.0389,-3.9621,9.2048,18.9483,-20.2562,-20.5824,
-22.2928,-21.4004,15.8168,6.2833,-24.7102,-20.8681,-10.8555,9.8677,-0.73469,-0.10888,-0.26544,13.2318,-16.8715,-7.0553,
-19.268,-18.4291,21.3758,6.1477,-22.9866,-29.016,-7.0712,5.6603,2.9248,5.4413,7.2223,16.5357,-16.5822,-3.9806,
-18.112,-19.7336,23.4675,11.0814,-25.9459,-34.9879,-8.5747,1.9463,6.1237,4.1506,12.5736,18.4359,-12.2129,-10.0084,
-19.9175,-22.888,13.8647,5.1138,-31.1379,-28.068,-11.9168,3.7578,3.8279,-0.91906,3.6244,10.0988,-4.2494,-10.8541,
-31.9789,-32.3609,11.3457,-3.6286,-42.5259,-34.82,-7.5862,5.2195,1.9111,-5.9252,2.2018,7.3236,-9.5379,-17.6745,
-23.7934,-24.6347,13.0748,4.7838,-25.8744,-27.4281,-6.6491,5.8704,3.7247,-7.016,6.8901,14.597,-8.0015,-15.168,
-12.4839,-15.6848,13.9778,8.5941,-10.2219,-11.6824,-8.4193,6.7232,2.2961,-7.8001,5.2714,14.9262,0.91422,-5.822,
-6.1914,-8.718,7.1132,5.9094,0.27346,-0.014871,-10.5656,6.0788,-0.010915,-5.645,-2.5165,9.9334,1.5826,0.55295,
0.92891,-1.9283,1.8658,7.0008,13.7545,7.6989,-12.8241,1.8578,-0.49231,-1.4498,-5.7399,4.5168,0.52344,8.2327,
3.5245,-3.9818,3.9231,5.8578,18.4726,11.8163,-10.8493,0.54124,-2.15,-1.1218,-2.7442,0.63038,-2.1593,6.0515,
13.1951,-0.6095,-2.8199,4.7834,24.3543,19.5433,-8.9932,5.0882,-1.2978,-2.2597,-0.41024,-3.5049,0.13977,2.555,
9.511,-0.57305,-5.5429,-2.7346,22.4107,8.7296,-12.3101,1.4085,2.1542,-6.4625,-0.38574,-7.1511,6.3978,3.8479,
9.4226,3.8,1.0565,-5.9446,32.1534,10.6163,-13.9817,-1.5681,2.0251,-6.5568,-3.7367,-6.2398,9.8706,8.9197,
22.9572,10.0796,-5.5145,-2.937,42.0345,24.0793,-12.4196,-3.6433,-0.74763,-3.5122,-4.2355,-11.891,9.0373,8.1435,
23.3874,5.8592,-10.7277,-4.9299,29.6302,19.1395,-12.3978,-7.5223,0.98445,-2.5786,-1.3303,-13.3472,8.7358,1.1469,
20.2972,10.0874,-10.3247,-8.7312,33.3963,18.2324,-19.6074,-6.3478,2.1305,-2.6646,-7.2763,-10.3765,10.8632,4.2118,
22.6947,14.5436,-9.4643,-9.8946,43.6845,23.6459,-17.2261,1.0229,2.7255,-0.81751,-7.5626,-11.4412,12.3806,8.5384,
25.9126,10.0555,-17.3323,-9.0602,38.4124,19.5758,-14.5051,-1.6898,-3.9457,-3.4198,-5.4218,-16.2985,9.4684,2.4827,
32.5525,16.2011,-18.2206,-6.5884,39.4816,28.5246,-16.0454,0.33978,-7.5654,-0.80447,-5.5785,-18.2131,13.721,5.7078,
20.9582,15.2288,-13.2712,-11.9779,30.8465,29.223,-19.9032,5.1399,-7.5936,-3.1666,-7.6541,-17.1201,10.4874,12.5959,
17.5315,17.9305,-18.5,-8.6077,31.6468,29.1573,-19.9138,8.4469,-9.7891,-7.0735,-10.8103,-13.9238,8.6533,20.2763,
21.0589,18.5419,-19.5596,-4.9577,27.5788,29.0947,-18.478,3.3603,-9.4427,-3.516,-8.4744,-13.3293,8.857,19.3007,
22.6879,13.573,-18.3861,-6.1065,23.5139,25.9027,-23.1539,-3.5897,-5.5017,0.069391,-9.4122,-14.4577,2.541,13.3224,
32.4136,23.8456,-18.247,-0.4377,36.2031,36.3999,-19.8367,3.3743,-0.83304,3.9214,-10.7755,-13.1081,5.2808,19.2717,
26.8536,23.138,-17.8753,-5.4729,37.5256,33.0108,-12.1388,3.895,-6.3269,-0.89341,-9.4058,-15.9373,8.5792,13.0535,
24.2783,22.2319,-24.5153,-11.4113,40.5765,34.4049,-17.1953,-0.67724,-10.2858,-4.214,-13.6619,-17.8733,13.8492,12.2705,
25.9549,21.6211,-27.142,-10.9678,48.0241,35.9558,-20.7431,-2.806,-9.9099,-4.6843,-16.4579,-20.4166,11.8127,18.5239,
29.9412,20.5648,-22.38,-7.6582,47.7942,29.7011,-16.8469,-3.8425,-9.0739,-4.6442,-12.8188,-20.8783,9.8991,14.7614,
40.196,33.3104,-31.6427,-10.091,59.0265,40.9342,-24.513,-3.6122,-12.386,-6.294,-18.3169,-25.4105,14.6076,15.3217,
39.9537,34.927,-33.3593,-14.065,54.1589,46.4321,-25.2116,-4.6005,-9.4735,-5.6752,-18.4225,-25.0909,15.9006,22.8383,
36.1104,29.4572,-31.3575,-14.1852,43.6788,39.79,-21.2886,-7.2167,-7.941,-4.3706,-17.7993,-23.1033,11.0904,20.022,
39.0048,36.6076,-32.1279,-14.0572,55.1581,46.8019,-20.7344,-0.27603,-7.2238,-3.3852,-18.4188,-23.4045,11.1476,17.6152,
36.6645,38.2675,-32.1279,-14.6601,57.7536,54.5991,-21.4185,5.0432,-4.3798,-4.1464,-13.9392,-22.0003,13.8532,22.3433,
33.9829,32.1153,-32.6106,-14.7446,48.5036,51.8053,-23.99,-3.4544,-4.5992,-2.4511,-12.6207,-21.6443,14.468,22.9307,
30.4975,21.9934,-26.7978,-19.6442,41.2553,34.7175,-21.5865,-11.924,-4.8054,-2.7862,-14.7558,-21.3098,14.0821,9.5035,
34.9346,25.9765,-22.2974,-16.5374,46.0104,33.1168,-21.2552,-10.2447,-5.9628,-6.4754,-16.2805,-20.0312,15.1654,1.7025,
36.2127,31.1666,-26.7444,-12.6533,34.5729,37.878,-20.944,-7.2196,-7.0516,-8.0153,-11.4476,-20.2754,15.2196,7.867,
26.5684,21.3426,-29.2369,-16.4732,20.2062,27.6519,-20.8924,-4.1351,-6.8692,-7.7752,-11.0014,-16.4075,15.5115,7.1543,
32.9278,18.857,-30.6164,-15.726,33.0938,23.3414,-24.7008,-2.2,-11.519,-8.0318,-18.2953,-17.5924,19.1603,2.1455,
37.4598,18.9306,-26.61,-14.0593,45.2082,19.2896,-21.5313,-8.0933,-8.6584,-8.7549,-10.6899,-20.634,20.662,5.632,
37.6228,21.6512,-22.6033,-13.2157,46.1111,21.0248,-21.6856,-10.9822,-4.2825,-7.2658,-5.2282,-20.8422,15.0839,13.0068,
40.9088,28.3061,-9.4367,-12.1816,51.2984,32.0556,-23.9997,-4.2975,-7.1588,-3.6966,-10.9399,-24.1712,11.0457,17.7703,
31.7056,21.3048,4.1447,-14.3434,44.8458,28.6857,-21.5956,-5.0042,-7.2115,-3.4745,-11.73,-23.685,10.3827,9.9549,
31.7315,21.9552,-0.92425,-10.5903,41.1912,26.4827,-19.8179,-6.6317,-4.8506,-2.7841,-13.9182,-22.2639,9.2778,9.3581,
39.7095,27.6273,-0.1459,-8.7496,36.5506,29.9554,-16.4597,-0.69061,-3.8362,-0.44793,-14.2884,-21.1691,6.552,12.8939,
37.3272,24.0417,3.2375,-11.1169,33.8759,31.0503,-16.4358,-0.16655,-3.6063,-0.42082,-9.5745,-17.9705,6.1586,8.7461,
29.0616,19.9476,-1.5365,-7.7988,34.9763,29.4283,-21.4756,-4.7363,-5.559,-1.6009,-8.7591,-18.0976,6.9944,5.0878,
22.0157,20.197,3.8584,-6.3666,23.7187,19.9498,-18.7408,-2.042,-7.6356,-0.058555,-9.1978,-12.6734,5.1285,2.8544,
22.6229,21.8777,5.0731,-13.2154,15.5471,16.3427,-15.2063,0.97304,-4.7674,-0.055041,-9.6098,-9.5024,4.8208,2.6831,
13.5528,7.5497,9.1071,-14.8326,1.117,6.2031,-9.4732,-0.53161,6.124,1.8765,0.60771,-7.9684,2.6033,0.11199,
0.4471,-7.0033,12.1761,-7.4352,-9.7963,-5.9792,-7.2175,-0.74067,7.9257,1.5229,3.2228,-0.98235,-2.6141,-8.8128,
0.1793,-3.5704,11.6865,-5.7838,-6.0755,-2.0055,-6.0616,4.3654,2.3885,1.1906,1.3422,6.5479,-2.2163,-8.0431,
-6.3389,-6.9715,20.3853,-6.1601,-19.811,-8.3926,-0.15428,8.6828,4.8967,0.87816,8.2511,11.6987,-4.2529,-2.9812,
-4.5126,-5.1072,23.0188,5.297,-22.1173,-13.6739,-1.5911,10.0898,7.0128,0.34331,5.8281,16.2996,-7.372,-3.284,
-6.6522,-7.6931,15.8528,1.1225,-18.3799,-17.6739,-10.1729,2.2538,-0.63857,-4.9802,-1.7527,14.8395,-9.8219,-13.6925,
-8.1812,-9.6416,13.4559,-2.8012,-13.9026,-16.1311,-10.5264,4.0468,-2.5284,-8.0554,-4.0577,10.0927,-11.6428,-14.7987,
-0.94168,-1.3501,4.9355,2.1873,-11.14,-8.4146,-12.7871,8.6244,-6.7153,-12.8744,-10.5629,-0.63596,-13.8365,-7.1621,
0.078914,0.65885,8.0136,2.5383,-15.7745,-6.4637,-10.0915,6.6609,-7.2765,-9.6921,-6.0725,1.3306,-11.0783,-3.8401,
3.2074,1.3424,11.6304,-1.2297,-0.72804,0.9138,-9.2452,0.23551,-6.5987,-5.013,-6.9137,3.9016,-5.8341,-4.8152,
7.5943,2.4667,9.2453,-1.3969,13.4156,4.4744,-5.5575,1.9086,-4.0336,-5.9175,-10.1143,-2.8399,-2.351,-2.3571,
3.5237,-1.2967,8.4496,0.85611,0.55938,-2.7839,-6.4289,2.0351,-4.0326,-6.2853,-7.3382,-0.50038,-4.3791,-5.3487,
10.5426,9.3864,8.4246,5.1435,9.2029,6.5421,-7.0075,1.431,-1.3805,-1.5699,-4.0054,7.7244,-10.3829,-3.582,
5.3308,3.7615,5.75,-3.1193,14.1939,2.0522,-5.8637,3.5143,-3.9492,-7.9836,-7.3805,-0.69285,-23.8599,-9.3926,
4.2883,-3.4533,2.7536,-6.0649,15.0302,0.24211,-9.127,5.9548,-7.8094,-8.7092,-10.071,-7.1585,-21.8255,-12.4443,
16.0823,2.0563,5.4807,-1.3625,12.6819,9.8688,-6.6515,2.7052,-2.5203,0.49019,-0.78936,-0.94467,-12.8029,-3.0203,
12.9477,-0.71865,10.2135,-2.0041,2.039,2.2863,-2.155,-3.0007,1.7282,-3.637,1.4267,2.245,-18.5427,-1.1523,
16.7506,6.7967,4.5391,4.1417,11.3167,3.3549,-5.1587,2.7229,3.7942,-0.28532,-5.6483,2.8337,-13.8147,1.0865,
24.6632,15.7885,-1.2769,10.4007,18.1095,12.5531,-7.9827,5.2107,2.3612,8.1679,-6.0328,3.869,-5.0321,1.7442,
26.799,20.385,-1.9234,7.6077,19.1923,20.2359,-11.1189,8.5137,-3.3243,3.0983,-4.9477,0.50358,-12.2017,1.8803,
15.5499,16.2696,-2.7721,-2.49,8.3996,18.0576,-18.6467,8.9669,-8.4272,-4.8006,-9.9532,-7.2396,-24.0033,-2.0887,
11.0015,14.5705,-1.4005,2.2392,-3.4326,12.3949,-14.3944,7.2236,-2.8599,0.54915,-8.6331,-1.2617,-20.3935,-3.1687,
22.8749,21.4091,-3.2447,10.2995,4.4861,19.3639,-8.7105,8.7184,-1.7245,0.5162,-7.6328,3.1524,-17.2417,4.7342,
15.4768,9.7602,0.56544,-0.68275,0.11962,12.6585,-11.8033,4.5799,-3.3082,-9.3967,-7.8982,-2.5804,-23.1971,0.83475,
12.1379,4.836,0.049354,-4.4979,5.8968,7.0785,-13.9874,4.7873,-0.69938,-9.797,-6.4602,-5.3179,-16.5029,-5.964,
25.5096,15.6333,-4.2922,0.59241,19.643,20.7538,-9.292,8.8386,-1.1396,-5.835,-8.0005,-6.4448,-2.0151,0.17863,
25.5455,10.5978,1.9911,-3.0588,20.9952,23.0033,-6.5651,2.2825,-0.34807,-4.7617,-4.8696,-3.4068,-4.0636,6.1932,
25.7,11.6491,1.6307,2.6688,21.4228,21.8645,-5.9302,2.3865,7.1446,4.924,1.4486,3.3051,-2.1325,9.9195,
17.4091,6.1295,-1.8416,2.5082,23.0295,15.2495,-4.1281,5.6178,8.1622,3.6642,3.2898,-0.26767,2.3337,2.5754,
6.0009,-6.0482,0.92024,-0.77506,11.284,4.4529,-6.0494,2.6294,3.093,-7.4017,0.92306,-3.3849,-6.7241,-3.6045,
5.8816,-3.0345,3.9983,5.7787,7.4733,2.0163,-8.3382,-0.66165,4.1124,-2.3781,0.14454,-0.048518,-11.3821,-0.2554,
0.46728,-3.5755,0.62512,5.6732,2.9273,0.20786,-7.1148,2.5113,4.1064,1.8618,2.7872,0.19559,-8.5303,-0.48081,
-5.5865,-5.048,-3.51,1.7171,2.5109,3.811,-8.3749,6.4582,-1.6833,-2.3471,-0.51329,-3.9137,-11.1517,4.1276,
-18.5077,-12.2169,-0.16588,-2.0009,-11.7397,-3.8894,-7.1495,2.9372,-3.2696,-7.2679,0.2404,-4.4018,-18.4363,0.26448,
-16.6741,-11.2427,1.5311,-0.19381,-17.1814,-4.3792,-8.4075,1.074,-1.8683,-9.9651,1.431,0.92375,-14.6788,-9.1516,
-4.8277,-3.5785,1.6804,-1.8692,-9.6428,-0.018864,-11.0363,0.76837,-5.3714,-10.5723,-3.2339,0.1452,-11.6287,-5.4688,
-17.7944,-17.4638,9.5333,-8.7469,-23.1642,-14.1177,-4.8305,-0.96496,-2.3976,-7.2868,3.9496,4.7162,-9.7262,-8.7561,
-14.0754,-22.0801,13.0589,-3.6426,-14.423,-22.3092,-0.92552,1.7443,8.5923,-1.7882,11.6666,15.2793,4.9574,-10.8821,
-18.2923,-23.4066,12.0342,-3.1833,-20.0658,-25.0682,-3.0394,0.91647,8.3175,-0.95776,11.6897,15.0857,3.5754,-9.9884,
-21.5333,-23.4482,12.2762,-1.0639,-24.6462,-26.9384,-3.8206,1.3436,9.2649,1.0281,12.9163,16.5909,1.9148,-7.4607,
-22.4105,-21.8003,14.1912,2.1335,-26.7829,-26.5274,-2.8685,2.9503,11.3601,4.5819,15.7567,19.6928,2.0409,-3.88,
-25.8863,-23.3851,13.3395,2.4872,-31.9246,-28.7919,-4.1429,2.2911,11.1607,5.2706,16.2574,19.9572,-0.49191,-3.165,
-28.9129,-24.1511,12.7801,3.0613,-36.0346,-30.6798,-5.5815,1.4307,11.214,6.1596,16.4872,19.9646,-2.6316,-2.2522,
-31.0345,-23.6659,13.4595,5.2877,-38.6933,-31.7315,-5.2462,2.3087,12.4693,8.2007,18.3905,21.6593,-3.4375,0.29349,
-40.0185,-26.3436,11.9288,3.2835,-46.2534,-35.8529,-6.6189,5.3035,14.8544,8.9137,15.1177,23.9754,-9.2571,3.4091,
-29.9048,-23.3169,5.4283,5.4964,-34.8018,-26.4712,-7.1858,3.5392,8.1788,9.343,6.4976,18.1978,-9.1838,4.6506,
-30.5204,-25.7741,11.3693,5.1668,-30.3033,-23.9188,-1.4518,5.7372,5.7596,7.8183,12.3745,15.178,-0.43783,-4.3053,
-36.6427,-23.9864,14.3028,10.8826,-28.7259,-27.5451,-0.15964,11.4188,7.5835,8.5542,17.6578,21.2574,5.1323,-10.5542,
-30.1063,-17.245,7.1777,11.6754,-30.8591,-26.8567,-1.5963,9.2874,7.1284,8.041,13.2239,18.0533,5.3058,-8.4752,
-19.1407,-7.0511,13.9781,10.9751,-22.2585,-18.9786,2.838,9.6942,7.1829,3.22,13.8769,16.9704,5.952,-2.1819,
-21.6076,-4.4589,7.1139,4.2911,-9.5948,-16.6346,-8.6605,1.6408,-6.0225,-9.2653,0.7518,10.4085,-0.43064,-6.6307,
-21.757,-6.1195,8.6152,8.8543,-9.501,-13.7083,-5.7307,2.5067,-1.3224,0.44967,5.5274,15.0867,7.7899,-1.8941,
-17.8007,-8.8856,1.1087,6.6356,-16.403,-9.7526,-8.0382,4.5252,-1.4842,-0.78237,2.5444,11.5301,5.6355,4.2454,
-6.6098,-3.0498,-8.5993,-0.99337,-10.5981,-0.0083698,-13.3405,3.7717,-6.6978,-7.4843,-2.9109,5.5357,1.4405,5.9184,
-7.659,-2.8668,-8.0833,-4.3082,-9.4803,-0.4898,-11.0938,0.17099,-5.3321,-6.0714,1.6021,5.6859,5.6929,-2.1495,
-4.0659,1.4025,-11.2137,-0.91624,-5.778,2.6731,-14.5255,-0.080238,-7.1813,-5.9481,-4.0376,0.2831,7.5205,-3.7078,
2.6853,7.8261,-7.8896,0.82573,-3.2624,6.6098,-11.967,2.5759,-4.0991,-3.9037,-5.4824,-2.3852,12.1307,4.9506,
5.6576,10.4896,-12.9598,-1.8749,4.8871,9.8286,-11.9719,-2.1584,-5.5404,-3.4286,-5.8768,-2.4831,15.9821,3.4487,
16.6466,18.7785,-20.6177,-1.5212,18.6939,23.3389,-15.3511,0.14049,-7.8589,-2.9816,-8.6574,-7.8779,18.6389,6.3751,
24.5654,18.3747,-22.0322,-3.5996,23.2364,26.1564,-19.4918,2.3012,-8.1107,-7.3825,-12.7177,-16.3233,15.3514,9.1256,
26.7071,19.9235,-24.3254,-3.6243,26.4222,28.2027,-20.4912,-2.8983,-4.9727,-5.2521,-15.5694,-16.5485,19.4917,9.3016,
17.6327,16.0768,-25.0353,-7.0225,25.0776,26.7513,-16.6104,-8.7502,-2.023,0.60642,-11.9844,-13.3867,24.348,7.538,
20.6721,15.8351,-28.5949,-6.3602,30.5623,32.1361,-15.8552,-5.0917,-5.5175,-3.0454,-12.4706,-16.6813,19.7536,10.7012,
24.7346,22.116,-34.1098,-7.4246,34.5134,38.8848,-20.6882,-1.8939,-12.4171,-12.5039,-20.8812,-23.393,15.6761,13.4333,
11.6811,19.825,-28.689,-12.7635,19.4274,31.7312,-20.893,-5.6369,-11.6718,-14.164,-18.1818,-20.061,18.5922,12.1456,
17.9699,23.215,-26.2445,-8.8644,26.6977,37.7813,-19.3986,-10.3601,-10.7308,-9.6985,-15.4039,-20.0628,24.9482,12.6219,
22.1944,20.3758,-25.1518,-10.2608,36.183,39.3708,-17.2704,-7.8103,-10.0865,-10.0805,-14.4797,-24.1612,22.0051,6.562,
10.9808,16.5022,-21.4735,-16.153,27.5041,28.5724,-18.4033,-0.83375,-6.8302,-9.7171,-10.4774,-19.5785,17.0693,3.9991,
10.5631,22.9836,-18.98,-13.0145,22.7206,27.5812,-16.576,-2.9531,-3.7691,-4.0726,-3.8234,-13.3419,21.1071,12.1951,
7.5188,10.9998,-10.6104,-8.3772,7.86,14.3572,-8.833,-6.6323,-3.061,-1.8996,1.7086,-8.2031,21.2865,6.6426,
1.283,-3.158,-12.3839,-10.2847,-4.1808,-0.48354,-14.0876,-3.8243,-6.7337,-7.0882,-6.5886,-8.1928,12.7784,-7.8559,
-6.7477,2.5751,-12.8461,-12.8011,-6.0995,-0.21356,-16.3758,-0.46131,-5.1244,-10.2784,-8.3629,-7.4603,12.7351,-9.9154,
-15.0197,4.349,-4.3624,-9.1408,-10.5536,-0.68291,-10.5723,-3.3259,0.48549,-7.2513,-0.14768,0.70033,14.3813,-1.1251,
-10.2621,-0.73266,2.1659,-1.3615,-16.1873,-3.0521,-3.1896,0.24809,3.3489,-0.067784,6.1277,9.3349,11.5903,6.6547,
-16.6363,-12.4988,2.2769,-3.9313,-29.3161,-16.9689,-2.7572,-0.0077646,-1.4318,-5.6073,4.5547,12.3903,4.8689,-4.1084,
-20.9407,-9.3388,1.176,-0.80294,-31.5338,-20.4098,-7.4125,-2.4179,-0.86396,-9.1273,0.907,13.0931,7.9512,-11.5747,
-18.72,-2.9939,6.8904,4.5479,-30.6061,-17.739,-4.0752,1.5836,5.4549,-5.2052,6.1552,8.4511,9.4023,-7.5058,
-21.9351,-10.527,6.9589,2.8288,-36.4825,-21.4954,0.50761,4.3811,6.5738,-4.8929,8.196,7.9441,3.5355,-9.9479,
-21.8245,-12.5467,-2.8588,1.9359,-20.1935,-16.1085,-5.0662,-0.4613,2.5637,-4.8405,0.71463,9.1544,7.9029,-8.6279,
-22.684,-11.0708,-1.9642,2.5429,-16.692,-16.3466,-7.8955,-1.1568,1.6868,-0.45249,3.805,9.3283,13.4545,-1.1206,
-20.841,-4.14,-3.2926,0.94404,-18.1011,-13.92,-7.9042,2.769,-2.2708,-1.8716,5.5049,4.9122,9.2728,2.3211,
-18.8674,-0.7579,-1.8895,-1.7635,-11.4712,-6.0947,-7.1887,5.2542,0.034829,-3.4463,4.9339,1.9662,8.9576,2.905,
-19.4226,-6.7384,6.6595,0.51104,-14.3983,-8.3806,-3.142,-0.60465,8.4684,3.268,7.2889,7.3918,13.4814,0.079104,
-5.7242,0.41478,1.9212,6.7474,-6.3041,-0.16497,-2.4715,-1.0503,6.514,10.3027,5.4053,7.4302,18.4571,4.4127,
-4.6574,-2.2612,3.0112,0.7989,-6.6487,1.0502,-0.63601,3.592,0.097659,5.5872,5.322,2.4051,15.6629,1.4968,
-7.27,-10.8026,9.0975,-4.0693,-8.6599,-7.6894,-2.526,1.9307,-0.39013,-4.8709,5.4851,4.6709,12.7949,-7.7516,
-2.0133,-7.2622,5.1774,-6.2355,-4.2837,-11.5666,-5.7487,-2.0418,1.0798,-5.5428,5.1557,7.283,14.4376,-8.2506,
-2.1335,1.6097,7.5179,-19.9614,-6.1959,-4.8471,-3.2346,2.1781,1.2559,3.2255,3.6415,7.5694,14.2942,-3.1762,
-3.2108,4.6461,2.9695,-4.6637,-10.4038,1.4693,-6.656,3.7346,-4.8454,3.2729,-5.0131,0.60725,4.5185,-4.191,
-7.1155,-4.0683,3.9961,9.7161,-14.8408,-8.5008,-2.1593,2.7876,-1.4212,1.8717,2.7595,1.2937,1.5963,-4.1805,
-13.1965,-8.8859,8.3361,-4.9668,-12.2636,-16.9088,-2.2707,1.4151,-1.5769,-1.3741,4.2812,4.8315,3.1877,-6.5807,
-13.369,-6.9065,7.8359,9.4312,-14.4199,-18.7868,-6.4727,-0.11607,-7.7493,-4.1842,-8.0273,3.0954,-2.7886,-12.9348,
-14.2537,-10.1075,10.4993,22.9653,-24.4009,-26.5772,-1.0227,0.61426,-0.77636,-0.31769,-0.55575,6.5255,-4.7899,-13.8459,
-17.7368,-9.5011,7.4587,35.6874,-25.8289,-24.9826,-4.3358,1.5413,0.71648,-0.78056,4.2983,7.5798,1.282,-8.6764,
-21.7345,-6.2797,14.9652,19.4462,-27.4129,-17.4583,-1.9065,5.5464,5.7349,1.9176,8.1375,12.6688,7.2304,-5.9869,
-19.9482,-6.3851,15.5138,4.1794,-23.8397,-14.4824,3.5105,8.5883,10.2113,7.5873,12.9522,21.0675,8.2431,-3.6993,
-19.4745,-10.5815,7.5928,18.0286,-21.6862,-15.3004,-3.2078,7.3494,1.1627,4.9627,6.1493,14.742,6.061,-0.82597,
-18.0648,-11.1516,19.9115,2.8469,-27.8568,-17.5161,0.60009,11.006,8.0826,6.352,13.7343,14.0987,8.3487,-0.053284,
-16.499,-10.9645,14.8604,-11.4239,-26.1857,-18.3933,0.56386,6.4893,13.8642,5.9708,16.7666,14.6986,6.4015,-6.3171,
-15.0271,-15.6093,6.256,3.3615,-18.3475,-16.3254,-2.3623,1.7616,8.694,3.2025,12.8681,11.4065,3.6073,-4.9737,
-8.3407,-17.0831,1.0602,-9.0122,-15.8007,-15.8281,-10.4155,-2.2007,1.9056,-3.7388,4.8654,2.0453,-1.912,-7.568,
4.934,-3.2839,0.75536,2.3746,-4.0066,-5.9605,-8.5852,0.10071,6.8527,3.4756,3.8503,-3.1389,2.7822,-4.9446,
-6.4488,-5.9789,2.6387,0.30435,-10.0327,-10.9051,-5.1776,-2.7979,4.0319,7.6058,2.1735,-2.4686,2.6158,-5.1298,
-5.5802,-1.2816,-1.8582,-4.0529,-7.5028,-8.8048,-9.2055,-4.076,-1.5129,2.3286,-2.2959,-0.87448,-0.43394,-2.4117,
2.7086,3.8567,-2.4698,-3.5685,-3.437,-5.1432,-9.3763,-0.21626,-0.69898,-3.3545,2.9038,-4.4372,0.79762,-2.0262,
-5.4081,-4.3284,2.7396,-2.1491,-9.7387,-11.3426,-6.6446,1.002,-3.3086,-2.9123,2.9705,-2.9661,-0.45553,-8.4121,
-8.9398,-4.0689,-3.2091,-1.538,-5.2978,-10.1794,-8.656,-1.9504,-7.4482,-1.2911,-6.3665,0.10458,-3.3205,-7.9072,
-10.0906,-2.6195,-1.3294,-5.5431,-13.4156,-13.1845,-4.5215,0.33578,-1.9396,2.4014,2.4511,3.7137,0.012227,-0.44334,
-6.5931,-4.3905,3.0887,0.09167,-18.3957,-12.8754,-3.7682,4.654,-1.8237,0.81101,8.0886,3.0085,5.7961,1.5115,
-6.438,-5.8143,1.2162,0.3276,-13.1941,-10.4156,-7.1573,2.6879,-5.8116,-3.8169,0.13152,2.587,5.6893,-4.6048,
-9.1855,-2.3322,-7.2927,-6.2002,-8.7873,-6.6574,-13.2356,-3.0172,-4.7398,-2.8648,-7.3484,3.6369,-1.1598,-6.0155,
5.4656,11.9077,-13.6036,-3.9,5.84,7.842,-13.8875,-0.90795,-1.0809,5.9837,-6.4251,-4.776,4.6944,8.4454,
13.6943,11.5547,-18.5722,-12.3429,19.5896,20.7484,-11.6082,-6.1559,-7.7648,-1.6059,-7.968,-18.5895,7.305,5.4076,
7.57,6.0412,-21.3142,-12.5662,24.44,13.237,-12.8399,-4.8227,-8.7451,-9.7043,-10.8639,-23.6201,2.0465,-3.1115,
6.152,10.9814,-22.4455,-10.8483,22.0092,18.7093,-17.8541,-5.4972,-5.3279,-8.1581,-11.1764,-24.1311,-3.8614,1.8959,
13.7366,15.8656,-15.5552,-9.4741,25.2684,27.951,-10.7573,-5.8907,-2.8391,0.2851,-6.8904,-18.5859,4.8064,11.1817,
18.6972,10.5756,-14.1397,-8.9059,25.1984,21.4535,-9.1478,-5.537,-7.0073,1.2325,-13.2257,-18.4348,6.9284,10.0291,
7.2108,-0.42349,-2.4453,-5.2383,9.5865,8.3559,-3.5375,3.2311,1.8491,3.8095,-2.5504,-9.8572,1.4508,7.7399,
-0.69365,-3.5311,3.727,-2.7548,1.419,5.203,-3.0842,5.2064,4.8711,4.3043,7.9669,2.0624,2.0871,5.1063,
4.6506,1.501,-0.83542,-3.5534,5.6722,5.3728,-4.8274,1.0376,2.1687,5.9737,3.6325,1.9387,4.8539,4.318,
4.6125,0.20612,-4.4007,-5.0274,5.0909,-0.010827,-3.3324,3.1445,2.2796,6.8206,0.28108,-0.34679,0.46535,0.92543,
7.469,0.91688,-14.9827,-11.7154,11.7751,5.0513,-11.5684,0.78646,-4.3649,0.38605,-4.3153,-5.8698,-4.1421,2.075,
16.1802,8.5744,-11.1914,-11.9766,23.6018,18.7277,-7.0181,-0.70676,1.6818,3.7371,2.6923,-5.0355,0.44499,14.4837,
21.958,15.291,-12.9299,-7.8838,33.7551,24.8347,-4.6686,-4.0386,4.4732,6.8871,-2.7717,-8.1076,-3.9203,15.0612,
25.461,18.2297,-18.9032,-5.9647,33.6577,26.7193,-10.6553,-2.3502,-2.0619,6.4741,-9.354,-13.8879,-8.9875,8.3727,
19.3539,17.3771,-14.6353,-7.2938,27.5412,24.393,-8.3285,2.8527,-1.697,9.2189,-2.767,-9.9209,-11.0995,7.6296,
21.5671,27.9037,-19.5418,-6.3743,39.9887,34.9805,-7.3468,2.6811,0.33298,10.112,-5.0116,-11.2543,-12.8437,13.4384,
21.4781,28.8808,-16.6823,-5.7506,37.7099,37.4612,-4.7366,3.7257,2.9643,9.2641,-3.9878,-13.2303,-10.3861,15.2834,
13.1998,16.7838,-8.2097,-6.6106,21.3473,27.7419,-5.1756,5.1892,4.4735,9.9133,-3.0254,-9.3033,-10.968,13.6432,
16.2642,18.1869,-13.5017,-7.1783,22.838,31.862,-9.6858,1.9853,0.34867,10.2829,-9.1104,-13.5653,-11.2742,14.7528,
27.0985,23.1212,-13.4145,-6.9886,35.206,36.9397,-7.8998,-1.7492,1.0506,9.9069,-6.8765,-16.8488,-7.9462,16.5188,
33.4265,22.4576,-16.2249,-5.8461,39.1199,34.965,-11.0405,-1.4031,1.7112,6.6611,-6.2227,-19.9349,-6.2644,17.2151,
28.7694,15.566,-15.0109,-7.6645,30.7467,25.8767,-7.2451,-1.0779,0.88517,5.0562,-3.1983,-21.3909,-0.82729,14.9769,
29.4538,14.1501,-8.8076,-6.7227,31.7944,24.8065,0.42048,-1.9771,2.2783,8.6092,2.2963,-11.9122,9.8276,14.0783,
32.0247,19.5679,-10.2071,-5.8372,40.4918,30.5487,-5.3896,-2.823,0.69513,8.5748,1.6763,-10.7153,8.2739,18.0541,
25.2827,15.0196,-7.1843,-6.933,33.2418,21.0028,-4.584,-0.24331,0.65365,5.65,2.5399,-14.8929,-1.3814,15.5248,
27.1402,17.4924,-11.0915,-6.9994,35.5856,19.2607,-5.2728,0.25368,-1.7957,1.4546,-3.879,-19.302,-2.2628,7.3625,
29.1274,29.2175,-13.5598,-4.892,38.9939,32.2051,-4.7157,-1.449,-0.00095679,0.64416,-4.8518,-19.3489,3.4168,9.572,
19.4258,29.1515,-12.0231,-5.3216,26.7726,33.0446,-4.1916,-0.63892,3.1324,-0.11716,-0.94507,-18.9111,0.56048,13.0953,
10.5473,28.8484,-15.6402,-7.8946,24.2021,27.6877,-8.7606,4.2199,-2.8399,-2.0386,-5.2269,-18.2586,-1.8835,11.8274,
2.9246,28.3228,-13.9789,-7.18,18.1702,24.8211,-9.9222,4.2077,-7.2493,-4.0854,-5.6367,-18.8503,-2.0115,5.0918,
3.9546,29.7567,-12.4166,-2.1696,14.9111,27.9114,-10.05,-3.0344,-4.6449,-5.0453,-4.5753,-19.8887,-1.1676,5.0275,
2.512,26.2841,-6.6104,-3.2448,11.3649,24.0675,-3.9034,-1.6471,1.6593,-1.6096,-0.203,-12.1874,3.9641,10.7514,
-7.2794,10.607,-6.2135,-7.8706,-2.8141,10.0902,-5.1152,3.2722,-3.2607,-3.9229,-0.67298,-10.0102,-0.13037,1.4299,
-4.4328,9.1275,-12.1074,-4.506,-0.71733,11.4132,-11.075,2.1118,-6.9212,-3.6878,-6.8993,-16.6402,-3.4968,-2.5125,
-7.5412,10.9895,-1.2581,-3.2713,-6.9408,9.7641,-0.76956,-0.90743,5.5451,2.3181,2.1917,-5.0369,2.9795,3.4228,
-17.4526,6.7151,2.9152,-4.2804,-19.7807,1.7065,5.3022,0.35231,8.8278,3.8662,8.5682,6.594,6.4162,4.4227,
-20.5028,2.2144,-6.1778,-2.8182,-23.1736,-2.9757,-1.5239,1.536,-1.5842,2.9109,2.0281,-1.274,0.96954,0.54147,
-16.8625,-0.32857,-5.3252,0.24292,-21.3008,-5.6892,-4.8065,-3.8583,-6.3094,-1.1197,-4.3601,-6.4997,-4.3908,-1.4187,
-5.9686,6.6812,-3.8006,2.8797,-13.0331,3.0881,-2.3487,-6.2782,-3.7615,-8.5245,-6.7499,-7.7967,0.93408,-0.12856,
-8.2618,4.111,0.043079,-0.42637,-22.1333,1.2158,0.44356,1.5706,3.4539,-5.3618,2.573,-4.6776,6.4219,-1.3259,
-9.6945,1.9359,3.4147,2.0096,-23.2157,-1.7499,1.863,5.8144,6.6208,4.6011,7.2391,3.7975,8.4465,0.68161,
-6.2204,0.37394,1.7636,1.889,-17.002,0.76566,4.1613,-3.6935,0.43902,1.4326,-1.39,-2.6968,5.5296,-0.80555,
-5.6062,0.59202,0.45247,0.57036,-17.1872,2.8889,6.5627,-2.2666,1.1356,-3.7151,1.3445,-2.7764,10.7409,-1.4801,
-3.8238,5.8594,-5.8414,-0.90989,-17.1201,5.1254,1.8304,2.2075,1.5496,-1.0818,1.746,-0.1995,13.4712,-1.3915,
-2.1481,1.6514,6.0787,0.59096,-18.021,-0.48427,7.0232,0.62926,7.7236,6.6959,4.5338,1.7411,11.699,-3.2358,
-6.8397,-4.7144,8.1243,-1.8549,-10.673,-6.24,4.6739,-1.8189,8.7062,4.3662,2.3333,2.1184,13.8889,-4.9701,
-10.0447,3.5227,-0.31688,-3.4308,-5.9353,0.16039,-0.66823,-0.022497,6.979,1.4531,-0.93971,0.30449,20.5278,1.8361,
-11.8522,0.90071,7.4144,0.63145,-17.1483,-1.7779,4.6745,0.46079,9.9343,0.40158,3.9369,-0.6781,18.8138,1.2435,
-1.741,0.6057,8.1749,5.6552,-16.3604,2.4266,3.1887,2.1204,6.2047,-2.756,0.56723,-1.3608,14.5515,-2.9284,
6.076,11.6564,3.3458,4.3518,-17.3072,6.1372,2.9977,8.2599,1.4939,-0.18028,-0.91284,1.1312,15.1249,1.1034,
4.9885,13.6085,-1.9161,2.4035,-14.5816,5.528,0.64863,7.0414,-1.2468,-1.8567,-3.0272,-0.14148,9.6376,7.5452,
4.2073,6.525,-3.7294,0.81302,-8.8859,3.2681,-4.6929,-3.5044,-1.654,-9.94,-6.22,-3.9894,5.203,2.2717,
0.33919,5.8928,10.5944,4.8618,-20.6451,-3.4357,6.4347,0.32147,7.845,-2.354,5.9635,2.7577,12.8448,-2.926,
-7.6347,3.8522,8.3918,5.2932,-22.5396,-8.7729,1.4691,1.9892,5.6873,-1.4896,2.9544,0.90478,10.869,-2.5093,
-9.587,-2.6461,4.514,5.9397,-12.0284,-9.2107,-2.9576,2.8339,4.382,-4.2925,1.3306,1.8146,11.181,1.9798,
-6.6016,-2.9693,8.5815,6.0653,-16.1275,-7.6942,1.5586,2.182,4.601,1.2677,4.1433,5.0802,17.741,-1.5134,
-3.5542,0.82454,4.9334,3.532,-18.775,-3.1349,-2.6325,0.84597,3.1199,5.2888,2.6896,-1.2504,18.3635,-1.6638,
-11.5361,-9.8302,9.4576,2.3562,-22.4692,-13.0702,-1.9926,1.2771,4.8609,-0.81315,5.4203,-0.21107,13.4053,-3.0102,
-8.9157,-9.7223,12.2646,7.517,-21.1211,-15.178,1.5014,1.2005,4.5692,-2.2106,3.6488,5.5862,10.6728,-11.0243,
-2.596,-6.7291,8.1545,5.62,-28.0487,-11.3751,2.8574,2.0926,3.331,-0.14956,1.9839,1.8763,4.2476,-12.2913,
-0.029643,-3.9148,6.7014,2.8726,-28.7759,-8.7644,1.722,5.8234,1.2029,-2.0688,-1.0272,3.6924,-2.2738,-5.2868,
6.7206,7.4073,6.2993,4.6285,-12.9494,3.3307,-1.2733,8.8485,-0.79743,-0.01646,-5.3039,3.4708,0.27326,4.1894,
-1.3957,-0.26817,8.8132,2.4223,-6.5083,-6.0284,0.24864,2.0508,2.1427,0.94862,3.6908,-1.0764,3.1487,1.5277,
-0.82952,-0.73401,7.8029,4.2057,-10.4561,-10.9689,4.0906,-1.9286,5.8705,0.89171,9.7363,4.2913,9.2267,-4.8305,
1.6301,4.1305,4.442,0.0967,-11.7572,-3.0802,6.255,0.59745,3.1079,-1.5722,3.8497,2.1054,11.083,-7.9153,
-3.7701,0.99039,7.0677,-0.8732,-3.3388,-4.3414,6.3619,4.8997,3.4036,-0.51373,4.5828,-1.3952,10.4183,-4.5481,
-7.4,0.4488,-0.10499,2.5534,0.23579,-6.9732,-3.1786,0.26762,1.271,-2.4109,-3.8871,-4.2037,4.4908,-4.275,
-3.8228,3.5556,1.1068,4.0877,-13.8784,-1.4934,-0.33659,-0.9535,3.8461,-2.9893,-3.8951,-1.3002,1.57,-3.7773,
5.8066,1.1731,-0.16488,3.6014,-13.4071,0.28346,1.3708,-0.17339,2.8924,-3.051,-1.4922,-3.3913,2.6811,-4.274,
6.4221,-3.2361,0.32695,3.3849,-6.3362,-6.9644,0.80619,-2.0912,4.647,0.024167,0.52552,-4.1522,5.8942,-2.5713,
-3.604,-4.006,-0.65676,-0.67436,-14.1505,-8.9564,0.75805,-2.9298,5.3323,-2.3872,-1.9159,-2.457,-0.72572,-4.8274,
0.22743,6.5985,-5.1969,0.089236,-4.8655,3.8733,2.4,4.718,0.43286,-7.3054,-7.8267,-4.4785,-2.3696,-5.2604,
0.21402,4.2746,-1.5108,2.4942,-0.23552,-4.0721,4.6659,5.881,-3.4493,-8.7955,-4.4648,-7.1021,4.5212,-10.7296,
1.165,0.16172,-3.3479,3.3085,6.0456,-6.7203,1.4939,-2.6671,-4.6886,-7.3039,-4.6789,-11.4967,10.0345,-7.6757,
-0.35112,0.63349,-7.0039,-0.74644,8.093,5.734,1.8857,-4.9172,-2.4795,-3.9736,-4.8805,-13.2175,10.3963,1.9434,
-10.4532,-6.1527,4.9857,0.26244,-5.4078,0.56992,7.0755,3.0909,0.56199,-1.8068,0.71517,-3.2652,4.9525,-3.4756,
-5.0053,-5.3016,5.1685,4.585,0.21886,-4.7669,7.1329,2.9054,-0.91799,-1.6984,-0.774,-2.1049,5.6192,-8.0873,
-7.1149,-5.9476,4.3767,1.4181,-2.6861,-8.3371,11.5259,-3.0537,5.4038,5.6346,5.0572,-1.0145,12.9951,-2.2992,
-20.788,-16.6782,5.5601,-3.4879,-16.6249,-21.3349,6.4953,-2.3883,4.5974,4.332,5.2355,4.3487,5.9486,-8.9104,
-21.5896,-16.4002,10.288,-0.14541,-22.4971,-26.0801,7.793,2.3345,1.6703,-0.025065,5.1626,6.2568,0.047878,-10.5452,
-20.0535,-21.9239,15.6965,-0.37742,-18.4959,-32.4693,14.797,-3.3494,5.1857,0.69957,8.468,9.0151,-0.67767,-12.5633,
-24.8756,-23.7417,11.139,-1.0779,-27.2683,-33.1724,9.8121,-0.015201,7.0435,-0.54747,7.2368,11.6074,-0.39627,-17.3534,
-25.0703,-18.2199,12.6399,1.1559,-33.104,-31.4231,8.5,7.4575,8.3081,-2.6842,9.4541,10.1876,0.35087,-15.5893,
-19.7099,-17.6088,13.328,3.9789,-24.851,-30.5018,7.9902,-0.22054,3.9535,-0.59476,4.5484,8.1303,-2.0805,-11.2792,
-18.2863,-13.4188,12.7692,8.3199,-19.7446,-23.61,3.8954,3.4081,3.4753,5.9489,4.0345,12.2223,-0.26848,-5.0589,
-31.2892,-18.6392,14.1722,2.2771,-32.6599,-30.6291,1.4925,9.2296,5.9179,2.9404,8.3722,13.6581,0.47053,-10.7809,
-26.6398,-13.6647,11.8759,6.9609,-27.9283,-30.2378,3.3309,6.7474,7.0088,0.3536,6.9053,13.3208,1.8883,-10.6162,
-13.4722,-15.255,11.1633,9.4353,-22.8786,-28.9055,6.9875,0.07561,2.25,-1.1139,5.5271,10.1109,-3.5276,-7.5691,
-14.3509,-18.4373,12.6625,7.6642,-26.5673,-25.4841,11.1477,2.7224,3.802,2.5686,7.8468,11.1917,-3.5567,-6.3918,
-15.6592,-15.1616,6.3593,6.4812,-17.9832,-17.9293,3.4892,6.6566,5.7432,2.1738,3.2784,6.4226,-1.6563,-5.2852,
-13.9965,-14.9751,6.7009,7.2978,-13.289,-20.4688,5.4493,6.0165,4.6755,-3.9824,6.215,6.7604,-0.83379,-5.2093,
-8.5772,-7.0869,0.755,4.6906,-3.0919,-19.4818,9.7018,-1.3346,-0.18453,-6.8772,4.1551,3.7035,2.8319,-2.7273,
-9.2677,-0.15399,-1.4592,-1.6166,5.5295,-14.2158,6.9503,-2.9415,1.0316,-5.2591,-0.19183,-3.0265,7.7234,1.5334,
-8.4709,-2.3141,1.7616,-0.79652,4.957,-7.3371,0.025585,4.7066,0.72898,-7.1129,0.060877,-4.5319,8.4651,0.71877,
1.9193,1.9221,-5.8159,-0.025826,7.7926,4.4314,-3.5914,5.6295,-6.7866,-5.4813,-2.1124,-6.4296,8.6801,1.8805,
0.59932,1.5658,-6.1903,-4.1216,5.1559,2.9602,4.0959,4.5683,-2.282,2.8018,0.6659,-2.4284,7.9183,2.491,
-4.9803,-1.6612,-8.9519,-5.0796,4.6056,-2.7606,-3.1397,1.1612,-0.93981,-0.49982,-5.3996,-2.5236,2.8639,-2.7201,
1.5851,-0.11573,-6.9686,-3.8105,5.2936,-1.1492,-1.987,-0.35473,-1.8477,0.4945,-1.7012,-2.8542,6.5485,1.7814,
5.1054,2.0608,0.43897,-4.3048,1.3606,1.5714,7.0503,1.8357,-1.014,5.5261,6.8366,0.45058,9.289,9.6287,
4.7991,6.7574,-7.7821,-3.5646,8.9917,9.6718,-0.12164,2.6899,-1.4351,2.3024,0.6418,-1.0227,7.7674,8.5686,
-0.79129,6.8342,-12.6176,-4.3148,8.452,6.6811,-3.971,2.5283,-0.38487,-1.6923,-3.2533,-5.7818,1.9989,0.34194,
8.174,11.9675,-8.7273,-2.3689,16.8631,10.3778,-1.0814,3.5816,-2.0488,1.5429,-0.40634,-8.0863,3.084,4.9009,
14.6732,9.0805,-6.5166,-3.9138,18.0203,15.299,-0.29336,1.1978,-4.0952,2.6554,-1.5875,-11.2163,8.4424,10.6322,
7.7673,3.474,-4.4384,-3.438,9.4673,11.2476,1.8934,3.2951,-0.23411,3.219,-5.1077,-8.3741,8.6592,10.2352,
5.3731,10.9783,-13.3311,-4.196,17.0944,8.1626,-6.8968,1.1692,-8.4148,-3.7231,-13.4778,-14.6206,1.3907,7.6929,
3.3634,8.6324,-12.7722,-8.5235,20.648,3.5755,-11.0623,-4.9265,-12.0072,-11.4534,-9.5357,-17.8407,1.5483,1.6882,
10.1515,4.4995,-12.2469,-8.2531,29.7735,6.9764,-7.2656,-7.2825,-5.2613,-9.079,-6.3124,-15.083,6.999,-1.0646,
16.0504,5.9163,-13.6812,-7.517,30.6381,5.8344,-3.6961,-7.0865,-4.2227,-3.4726,-7.139,-17.7935,7.7843,1.6508,
6.169,3.3924,-8.7628,-6.3428,15.0613,-1.5053,-3.2336,-4.9743,-6.6206,-3.9873,-4.5413,-14.5565,7.558,2.2744,
4.5936,6.8038,-13.7811,-5.7213,17.2911,5.0925,-9.5471,-7.3269,-9.3569,-8.8098,-12.223,-22.1192,4.9354,0.45072,
7.6929,12.1806,-11.0255,-3.4498,18.1818,6.7152,-3.1897,-8.8155,-5.903,-5.8706,-10.0429,-25.1304,2.7111,-2.4684,
6.026,7.8344,-10.123,-3.0018,15.4037,-0.19523,-3.2393,-8.5275,-8.6818,-3.3492,-7.7531,-14.7045,0.37924,-4.9714,
12.6541,10.0152,-13.1313,-5.955,22.9154,8.7343,-6.6606,-4.8826,-5.992,-1.4613,-8.4934,-11.1714,4.4541,6.6549,
18.6438,17.1275,-5.5945,-5.5977,25.3968,17.3693,0.0060408,-4.5897,4.0085,4.411,-4.1274,-12.4288,9.4895,12.5225,
21.3813,24.2943,-9.1155,-4.2977,29.6574,21.6296,-3.369,-5.2784,-0.08861,4.6285,-7.7364,-17.4679,9.4018,5.0221,
13.8317,21.8726,-12.9071,-6.9322,22.0936,22.2597,-7.9873,-2.0694,-6.35,-0.47016,-7.7544,-19.7945,5.4635,7.613,
10.8326,18.391,-8.9992,-6.2753,15.7063,23.0938,-7.7491,-2.1862,-4.7637,-1.1648,-8.012,-17.4015,0.55592,14.1461,
21.0289,23.3136,-13.5205,-6.1397,26.5745,25.3236,-5.1145,-1.8141,-2.3083,3.0029,-13.0745,-18.5266,1.2459,10.6463,
19.7667,19.0223,-15.6017,-7.6995,20.1593,18.0191,-2.8799,0.22297,-1.2059,5.7147,-10.8442,-14.041,3.0994,3.2586,
18.34,17.6397,-18.2808,-3.6224,14.3702,17.6616,-9.6968,-3.4056,-5.7131,0.79234,-15.255,-12.475,4.1185,4.7505,
20.855,21.643,-13.5686,-1.7178,21.9442,23.5917,-5.0171,-4.8885,-4.6469,-2.3882,-13.6163,-17.2701,6.5229,5.6703,
16.2295,23.7187,-9.8626,-3.5427,21.5912,16.8734,-0.37802,-2.6672,-2.9221,-5.6196,-7.015,-21.0544,0.82866,-1.9005,
16.2198,31.9367,-15.0552,-1.8841,15.9576,16.3431,-10.9604,-3.9532,-10.4598,-9.1386,-13.3428,-21.2371,-5.9697,-4.1968,
15.4878,33.1538,-10.5362,-1.0479,5.6004,21.3883,-11.9898,-4.4391,-12.4831,-13.1698,-15.1935,-20.686,-10.1906,-5.632,
18.174,34.78,-7.253,-1.226,9.8436,23.238,-8.1374,-3.9318,-13.9037,-18.8875,-14.041,-23.0603,-15.1232,-8.9095,
17.5655,34.6214,-1.5152,0.77574,9.253,13.6491,-4.2747,-5.6241,-13.0695,-14.8618,-8.8597,-17.8203,-12.7696,-11.7494,
14.1012,30.1337,0.021787,2.1752,-0.94336,3.6708,-4.0184,-6.7327,-6.9829,-6.7395,-5.9182,-10.9667,-8.6292,-15.383,
17.3522,31.9409,-6.9696,0.83965,1.2822,10.9226,-6.4286,-5.1237,-7.769,-8.9864,-13.0352,-15.3702,-9.7984,-11.3268,
8.8395,26.8917,-1.0076,-0.89773,1.9288,8.5798,-0.49907,-3.1293,-9.9542,-10.6162,-9.6013,-11.7966,-9.4517,-3.6575,
1.8012,21.1803,-0.70618,0.36097,1.5717,0.59322,-0.22816,-4.1463,-6.2234,-5.3999,-2.9997,-5.0633,-5.7511,-0.7865,
4.1037,13.1611,2.7106,1.7856,-5.753,-3.2988,3.6419,-1.0055,2.8271,1.1906,2.9649,-6.6877,0.37851,0.22456,
3.1346,-0.88498,8.0916,-0.008789,-6.6131,-5.7519,6.075,5.0808,4.3447,3.2888,4.9562,-4.5992,5.4175,-0.029883,
1.0181,-2.2779,-0.10642,-0.97236,-5.2522,-1.5502,-1.0382,2.3656,2.638,5.0199,0.80264,0.015305,4.6103,3.8285,
-0.72998,1.474,4.479,5.5937,-15.3012,-3.6266,3.1212,0.53624,11.3975,12.1903,12.0824,7.486,2.6467,9.6241,
1.0008,0.18045,4.9339,7.4275,-9.3212,-2.6858,3.1751,2.6735,8.5443,10.7357,8.7066,3.904,2.7291,5.9139,
1.4225,-4.1689,1.2632,2.6433,-7.7983,-3.0069,1.5381,6.3692,2.2468,6.235,-2.9032,-3.0794,-0.32744,-0.70815,
-3.001,-7.7754,10.8286,5.377,-21.4304,-12.4672,8.195,7.4335,4.5224,2.9686,4.0196,0.96201,-2.7182,-0.66543,
-7.1595,-7.3086,14.9993,9.3929,-20.5058,-13.1656,6.7392,3.6133,5.6971,0.3801,11.9734,2.3503,2.2654,3.2311,
-19.9863,-20.9701,13.376,1.3575,-28.1935,-20.8114,5.6115,0.26302,8.4887,2.5269,14.3885,1.9683,-1.4855,-0.57818,
-23.8486,-27.7866,9.4402,-0.89333,-32.0458,-21.7321,7.9261,1.9342,8.7025,7.4363,10.8734,6.9117,-5.012,-2.2309,
-18.3201,-21.0575,6.7049,3.2579,-16.023,-14.4024,6.2455,1.5774,6.011,6.7494,11.4265,5.2919,5.6528,1.5186,
-19.8726,-20.0352,5.097,2.3393,-9.8797,-17.1539,3.2194,-0.68659,7.8197,6.1032,12.4279,4.2513,11.8214,1.6682,
-18.6798,-19.3151,-2.4396,2.6808,-8.3226,-14.1965,-0.83013,0.80086,5.9043,7.6657,3.4875,2.5499,5.8094,3.0144,
-20.2106,-18.8795,2.2865,2.279,-9.0285,-9.7293,2.3532,3.4039,3.3809,7.9282,5.4474,0.70972,0.88159,2.1101,
-13.4541,-12.2029,6.7288,3.3473,-3.9073,-6.0122,2.9351,2.4765,3.4192,5.7655,7.7719,2.8365,1.0699,2.2247,
-4.211,-9.3013,-0.18261,1.9414,3.3172,-2.5178,-1.3386,-0.32337,0.080793,-0.60576,2.7261,-2.3951,-1.1637,5.2245,
-4.6817,-15.2512,0.06931,-1.3085,3.3592,-5.0183,0.42896,0.41939,-1.6113,-4.1848,2.8035,-6.3492,-1.3348,-0.63259,
-2.2314,-10.7205,-3.55,-4.3633,6.2909,-3.9941,-4.1763,-0.81084,-5.1303,-3.693,-0.97991,-7.6553,-2.4598,-6.6199,
-2.3387,-5.0163,1.724,0.47803,1.3339,-5.9238,0.1714,1.8887,-0.24292,-0.8201,6.0681,-4.0627,0.33864,1.2488,
-4.8495,-7.3659,2.8258,5.993,-4.2897,-10.6296,3.2951,3.945,1.9408,-2.4577,7.3917,-1.1674,3.4518,3.8254,
-1.425,-4.2729,-1.923,3.4642,-2.8271,-3.0019,2.374,5.3955,1.5834,0.34089,3.3328,1.0718,4.45,1.4268,
-3.7499,-7.3907,3.0128,1.3279,-9.8885,-8.1247,4.6419,7.4817,3.4168,5.6229,7.9533,3.8998,0.80831,1.3409,
-0.87354,-7.6704,-1.7474,2.4533,-0.3769,-11.2524,-1.1804,2.9356,1.0424,4.0804,1.9322,-2.36,0.51907,0.53734,
-1.5443,-6.9694,-6.2221,-0.34473,3.2609,-8.8903,-3.2785,-1.3381,1.703,5.0407,-0.83457,-4.8697,2.1749,-3.1101,
-5.067,-10.1667,-3.1977,-0.56547,-11.0347,-12.9361,-1.3946,1.8757,4.7343,5.4611,6.6869,-0.48015,-2.0529,-3.6468,
-2.835,-9.0745,-3.9699,-0.049381,-16.7601,-14.5703,-3.7213,2.2449,3.9681,0.31297,10.1423,0.030819,-3.8582,-1.0177,
-6.7623,-10.6992,-2.5264,-0.76932,-20.3338,-22.1322,-2.2932,1.3873,4.4529,1.0176,10.7386,3.1625,-3.8676,-3.6082,
-4.4279,-6.6828,-5.7489,1.205,-17.1856,-20.3219,-0.70932,3.2322,2.2575,1.9208,4.3101,0.56258,-7.4915,-2.4269,
0.41706,-7.0047,-3.2348,3.3019,-8.6826,-13.0771,2.9487,4.2436,-0.047077,-0.36404,4.7744,-4.0509,-4.3909,-0.59451,
0.633,-10.6823,2.9844,5.2729,3.1665,-10.1233,4.459,2.3017,-1.2495,1.827,8.1034,-0.67438,3.3443,-0.31787,
-2.2973,-10.0411,-7.7993,-1.7921,8.7613,-8.5518,-2.5573,-3.6212,-1.6563,2.6819,-1.0597,-7.3826,0.73332,2.5935,
-10.1134,-15.9464,-8.0544,-6.746,-3.5747,-12.6182,5.5502,-0.75258,9.7711,5.6542,5.9935,-3.8064,0.44858,2.6791,
-14.3273,-22.7028,-6.1254,-2.4849,-7.699,-17.1637,7.6273,0.73884,5.3284,0.97621,8.044,0.76032,1.8675,-2.3024,
-5.7547,-16.5197,0.026968,4.4129,0.47594,-9.3852,4.7593,4.0687,-1.74,-1.0103,7.0792,-2.1776,3.2014,0.24612,
-3.7219,-12.3953,-1.6616,-0.43141,-0.75768,-1.832,1.3405,1.6557,2.9439,-2.1548,5.9318,-0.35947,0.3585,-3.8658,
-1.0885,-7.3132,-8.7928,-2.8157,2.1803,3.5801,-0.66816,-0.85425,5.1774,-1.0616,3.6472,3.5185,0.81892,-2.67,
-3.1923,-11.4537,1.6167,0.0043821,-3.9761,-6.5167,4.4336,2.3305,2.2157,1.6536,7.5262,2.1021,2.457,3.0339,
-2.2781,-12.9359,5.6173,1.2092,-4.943,-15.0435,1.9982,0.02127,0.87769,1.7951,4.4233,-1.1573,-1.3061,-5.1022,
1.474,-7.098,2.6287,-0.068202,-1.9949,-17.2744,2.1193,-3.113,3.9581,1.9284,2.9526,-0.36496,-6.2894,-15.1599,
-1.5067,-9.5649,7.2915,1.3819,-11.0345,-21.0584,6.3307,1.4118,3.7208,1.8129,7.596,3.9955,-11.6964,-10.8761,
1.9579,-8.9908,19.3872,7.5657,-11.3365,-17.3845,2.0942,6.1476,1.0872,1.7039,7.6224,5.2018,-8.5847,-1.0647,
-4.1847,-17.3689,30.9985,3.0144,-15.2356,-27.6697,1.7276,-0.72872,2.2273,0.87879,6.9241,4.1668,-4.9357,-9.9184,
-5.1389,-18.4964,27.4513,2.5926,-5.8858,-25.2866,4.7574,-2.3722,3.7809,2.5133,5.7857,5.1221,-2.4704,-12.4568,
-2.6614,-13.2893,16.8866,3.16,-5.7736,-11.4769,0.85656,-0.060734,-1.9896,-1.7349,-1.5513,-0.72887,-4.9737,-5.6839,
-5.3938,-15.8659,18.7655,0.078301,-12.1756,-12.2345,-0.1587,-2.9492,-5.2447,-4.0409,-2.4221,-3.0953,-9.4955,-7.271,
2.6426,-10.5757,19.0858,2.0013,2.6549,-13.9106,2.261,-4.2185,-4.4481,-0.42445,-1.3129,0.46444,-6.9976,-7.7986,
0.073481,-9.4592,20.3508,3.3275,8.6419,-16.9323,5.4997,1.3373,-1.7706,2.0116,3.5866,5.2573,-5.1315,-3.4743,
-8.8485,-14.4348,18.4069,1.923,-3.6872,-15.1935,1.0724,2.4623,-3.8335,-0.27825,5.0586,1.8084,-6.9932,0.83149,
-6.3897,-14.0509,14.8921,0.36116,6.6571,-11.8715,0.043507,-0.57768,-2.6399,-1.2261,1.3804,-6.4951,-3.6813,2.2276,
-6.4884,-15.6182,21.7116,0.82165,4.8117,-19.8361,8.7182,-1.0252,2.339,-0.67038,2.7436,-2.2488,-1.532,-4.1728,
-3.2066,-12.7529,13.66,-0.19197,4.523,-10.9332,2.4101,-1.4461,-5.996,-2.0764,-0.79545,-2.5962,-3.3683,-9.707,
2.7704,-11.9877,10.4302,-2.5906,6.6617,1.7739,-1.5904,-0.87691,-6.6002,-0.98751,4.073,-6.2964,-2.2023,1.4807,
2.8451,-11.5099,11.9736,-2.6761,0.71841,-9.1788,-1.2545,-3.9578,-0.17906,-1.6516,3.1053,-3.7499,-4.7213,7.8994,
8.218,-1.9012,11.0142,2.0642,7.6652,-9.3509,1.9543,0.37704,4.8934,5.9193,2.6784,0.57292,-0.34066,4.7743,
3.8685,-9.018,8.9071,-4.8086,11.5436,-3.4872,0.87267,1.3183,3.6354,6.528,4.4455,0.056148,1.1256,-1.7791,
5.5646,-8.9588,3.07,-10.3046,18.0818,0.57838,-4.4819,-1.6529,0.043318,3.2443,-2.0878,-2.8393,-0.86969,0.73821,
5.4717,-1.9138,8.4294,-3.6608,9.5251,-6.4462,1.3302,0.61546,5.5843,8.1108,3.0987,-0.98216,2.3155,3.8269,
-5.944,-10.4759,12.2622,1.3793,-5.1464,-17.1464,4.6251,0.096368,6.2134,2.8041,4.3593,3.8977,5.0689,-7.0077,
-1.7306,-7.9187,9.5983,4.1891,-6.6453,-8.4049,5.3119,6.84,3.9124,0.22577,3.6158,8.4846,9.1035,-3.6947,
-4.0368,-6.9616,10.9506,-2.3288,-3.3541,-10.3107,4.5112,7.3934,5.6058,3.1047,10.1477,5.5654,6.1472,-2.9907,
-11.5079,-9.9184,9.8116,-1.2252,-0.74272,-14.9947,-2.0264,1.6472,5.7514,5.3281,8.0926,0.89266,3.8497,-3.7756,
-16.8429,-11.4924,11.3921,6.3201,-5.7598,-8.5514,3.1569,4.1994,3.7191,8.6239,7.848,6.8646,3.3778,5.3686,
-18.7247,-10.3207,9.7445,4.9768,-12.6449,-3.6998,2.9672,6.3578,-1.8065,4.2503,6.4131,5.9706,-7.43,2.6366,
-12.0576,-4.6403,3.6162,2.0267,-9.717,-0.82669,-3.7188,4.2891,-6.2778,-3.9589,-1.9259,-3.7876,-12.0459,-1.1375,
-14.9495,-10.3874,7.0146,4.5566,-11.7855,-6.3207,1.566,3.7908,-7.5884,-5.4086,-1.5694,-2.8375,-12.046,0.61798,
-13.3294,-9.5229,5.8706,6.4526,-4.0883,-4.7364,3.6415,4.2865,-7.8557,-3.8786,0.6946,-0.97977,-18.3129,-0.62371,
-11.0836,-6.0593,4.5543,0.76259,-5.2895,-3.97,1.4946,1.6189,-7.3846,-6.0562,-0.79356,-5.2595,-23.9632,-5.4072,
-10.4184,-5.2136,12.9579,6.9836,-8.3463,-8.0704,5.2615,2.4859,-3.0849,-2.8006,3.1107,3.251,-13.8481,-5.5645,
-7.6241,-4.1778,12.4214,12.1077,4.9289,-10.2377,5.1868,1.1315,-0.73068,0.98288,7.5033,9.5634,-3.6177,-6.9183,
-14.8792,-12.604,15.5327,6.5612,-2.1155,-17.336,9.2141,3.9563,6.0618,1.888,16.2124,11.8823,-0.98982,-9.877,
-15.192,-14.0172,16.7697,8.3365,-16.0886,-13.1626,9.8663,11.6725,7.8675,3.4617,12.5879,15.2665,-2.6179,-3.259,
-12.352,-9.3195,19.1382,13.1392,-15.244,-4.6598,8.3103,13.3825,6.9133,7.1106,9.9046,18.2072,-3.9068,5.1314,
-17.3955,-14.063,24.7383,11.8689,-16.7395,-13.0569,12.6324,12.5795,8.4267,8.6122,17.9874,23.8636,-3.6724,-1.9249,
-11.5313,-12.2551,19.3979,11.6389,-17.1811,-15.1658,10.9103,14.7175,6.957,7.6138,15.9441,22.4316,-1.0417,-6.148,
-14.696,-12.9663,19.1981,9.4941,-21.4531,-16.1842,5.9172,12.388,7.0217,8.1206,13.541,20.1216,-3.3896,-3.3692,
-26.1063,-19.1778,19.7335,8.2015,-22.8171,-20.2749,6.2855,7.5473,7.3233,6.9104,12.488,22.5297,-7.7655,-4.3719,
-31.0477,-22.6066,18.3082,9.8784,-28.9198,-25.5661,12.4156,9.7458,10.4996,5.7727,16.3178,23.8293,-4.1663,-8.2071,
-32.8002,-22.9374,25.1635,16.2756,-41.2846,-34.3962,15.7683,15.6685,16.3771,8.0774,22.3286,26.9788,-0.7833,-10.3658,
-27.6992,-17.4638,23.8947,20.8426,-33.3847,-32.5736,8.3142,15.9333,12.261,6.8699,14.9629,25.1191,-3.3874,-9.021,
-28.4471,-17.862,23.9075,19.1099,-28.4891,-33.0291,14.0823,12.5674,12.0075,7.4218,15.5116,29.3968,-3.1839,-9.4438,
-35.4174,-24.0209,23.919,16.5173,-36.9029,-35.8681,17.0938,11.3312,13.2155,7.4586,19.4014,33.4173,-2.5112,-11.7695,
-33.7745,-22.5799,25.8579,16.9721,-34.6887,-31.3059,10.7655,16.9178,12.4221,7.493,19.6835,30.4479,0.049614,-9.1351,
-34.3991,-24.3584,28.8864,13.7848,-31.8842,-36.4169,11.3249,14.2157,9.5078,4.8741,18.7433,31.2728,-5.4967,-11.2383,
-37.3966,-25.0658,24.9841,16.0912,-29.73,-35.9189,13.2967,9.2654,7.7325,3.8587,14.9676,30.1194,-15.0489,-10.805,
-46.7222,-28.8647,27.8233,19.946,-41.4438,-37.6206,15.8729,13.0478,12.0888,6.5193,17.9259,25.9021,-20.8949,-11.121,
-46.0881,-27.3738,24.4665,17.0622,-39.6803,-36.5684,10.8232,13.47,11.6047,5.8874,14.681,26.9993,-20.8462,-13.587,
-40.6717,-21.1519,18.4192,14.3513,-29.8276,-27.3845,7.0405,8.5645,5.8467,1.9187,10.1847,26.1022,-14.5338,-8.192,
-46.4263,-27.1136,23.5808,13.49,-36.7149,-32.9722,9.9923,5.6403,5.0138,-1.0887,12.4659,24.0539,-12.6976,-6.7364,
-34.9634,-19.2198,19.7558,12.1991,-22.4606,-32.9219,8.4289,5.7842,5.6773,2.833,6.8977,22.1288,-12.4177,-9.7067,
-28.5275,-15.6567,15.196,9.0566,-21.5952,-30.9468,8.887,7.3654,5.8186,4.1093,5.5195,19.3548,-16.0114,-12.4987,
-30.1902,-13.7531,26.3352,19.6003,-34.2789,-25.2337,16.0667,19.9387,13.1821,6.7549,18.2041,30.2449,-20.3533,-5,
-31.512,-10.2766,24.5142,18.1833,-33.4272,-21.0681,10.5234,17.5371,10.7039,4.1804,14.4603,29.1531,-33.2321,-2.5309,
-33.2367,-17.614,24.7308,12.0308,-29.7346,-28.7221,8.6867,9.4953,10.3029,6.0988,11.4233,24.2707,-43.1688,-4.5482,
-33.4118,-23.5469,22.0417,17.3347,-31.0839,-31.5784,6.4784,10.1305,11.3716,9.3484,11.4609,24.5018,-33.107,-7.8908,
-34.0582,-20.4468,22.8886,17.4996,-35.7263,-30.4066,10.1873,12.174,11.8948,10.4745,13.425,28.5751,-41.0025,-9.1044,
-31.5328,-16.3277,28.2638,15.0034,-28.7625,-29.0644,13.4322,11.4435,11.1812,6.9537,13.5834,30.235,-52.6423,-5.6658,
-18.3125,-12.6966,21.0244,18.2007,-12.9367,-20.3308,6.1187,10.0341,5.4487,2.9212,9.635,25.2875,-63.5838,-1.7106,
-9.0188,-14.8271,17.8345,15.6626,-13.486,-15.2545,6.2337,13.2883,8.496,3.71,12.9135,22.8062,-73.8688,-2.572,
-7.9959,-11.0453,12.4263,9.4203,-6.8923,-12.4109,5.3774,10.081,7.504,1.5591,6.3538,13.7252,-81.3675,-0.48939,
-12.0956,-9.6597,8.0653,7.6498,-3.8275,-15.2817,5.2957,1.5219,4.8846,1.7065,4.7677,6.3937,-74.7984,-0.70099,
-7.2723,-11.7312,11.6785,10.806,-7.6952,-14.606,9.0756,5.5282,11.5811,5.7017,14.3634,12.5178,-63.3206,-4.7565,
1.8411,-3.3146,7.1216,7.2658,5.782,0.37036,3.7106,12.4275,11.3689,2.4673,9.6454,8.3925,-52.2906,-1.5788,
-5.7414,-0.46438,6.935,5.6243,11.9425,5.7713,3.2467,9.0301,6.1068,2.0781,9.3074,4.2733,-50.8404,-1.2429,
-5.6379,1.7329,1.4577,12.2767,12.4313,1.3279,2.8112,4.3914,4.5355,4.605,12.8468,4.7403,-47.5487,-2.3736,
-1.6844,3.3157,-2.7273,5.0324,5.6596,-1.8855,-0.97313,4.3687,6.4323,0.23108,7.9784,1.8045,-43.491,0.90205,
-7.3677,-3.1496,3.7031,-1.0539,-1.4286,-7.5567,-1.8786,0.24992,5.0828,-1.2288,4.6074,4.5885,-39.4353,1.812,
4.4026,-2.2377,-1.0984,7.927,12.7571,-3.006,-2.489,-3.8624,0.67999,4.3885,2.1618,0.69781,-34.4178,0.9804,
16.6717,2.7171,0.41352,10.3436,15.9685,1.9949,1.5165,1.1898,5.9416,8.4633,7.8165,-2.2363,-26.0862,3.8139,
11.574,5.6873,-2.2628,1.7693,8.0208,2.5983,-2.6719,2.8056,4.3803,1.448,2.7682,-0.41494,-23.3158,4.3079,
7.9873,9.6846,-2.6088,2.6272,5.6113,3.8884,-4.4397,2.6375,2.6714,-1.5311,1.638,2.5022,-20.4708,4.5316,
3.1693,2.3546,3.3319,5.3617,-0.028001,-1.1654,-1.7632,-0.41324,4.4389,0.48892,6.36,3.316,-15.8683,-1.5249,
9.0051,4.383,-1.4473,2.3889,11.784,7.3405,-4.3085,-0.14748,0.55759,0.70055,1.881,1.4303,-5.0338,-0.71046,
12.0802,7.2532,-1.6012,-1.3697,11.8004,14.3721,-2.8447,2.9951,2.6935,-0.54655,4.4199,1.1032,0.81181,5.3584,
8.4631,5.3718,-0.05889,0.64071,5.7895,10.6175,-1.71,2.8154,5.424,-1.96,4.6367,2.4833,-2.6114,6.4827,
6.0269,4.5673,-1.5018,1.084,9.7806,8.052,-1.6076,2.6462,2.6882,0.086009,2.43,0.40589,2.8477,8.5041,
4.2193,-0.045038,-1.8934,-2.3553,6.3015,-0.62584,-0.5468,-0.88677,0.59892,1.5269,4.2127,-1.0645,12.8002,5.5835,
9.5097,5.0196,-7.8054,0.91952,14.8415,3.0271,-6.0576,-5.8952,-1.1242,3.1225,0.34449,-2.6879,16.1296,5.0075,
4.8418,5.9235,-4.6862,2.5518,18.5303,9.8351,-4.971,-1.9259,-0.81559,4.1402,3.4571,-3.7316,22.1514,5.9121,
-0.99233,4.3628,0.1745,2.1575,16.6956,10.9323,-0.093243,8.0714,0.92034,3.1687,6.3829,-2.7846,31.6686,5.3167,
-2.861,6.0294,-6.5844,1.0642,13.7656,7.8662,-5.3903,3.2488,-2.9913,-1.3598,-2.1948,-6.4739,36.035,4.9977,
-4.8587,5.9084,-8.3587,-0.68713,8.36,3.7786,-6.7541,-5.864,-7.3913,-5.3758,-4.7144,-9.2187,37.9705,3.9742,
5.3147,11.5794,-8.5806,-1.3693,13.8841,11.5056,-9.4823,-2.3791,-8.6351,-7.7043,-5.1549,-14.6916,41.2359,3.9767,
4.9959,10.4025,-8.0655,-3.697,6.3022,11.2974,-7.9493,2.5841,-4.2608,-6.7604,-1.9533,-14.2918,45.0285,1.3282,
-4.9449,3.0299,-7.5816,-6.3677,-8.0552,2.9068,-6.0261,-1.4273,-3.0408,-2.9803,-2.8,-8.6141,44.7369,-0.67966,
-5.8532,-1.7316,-9.7778,-11.5293,-7.8131,-0.88301,-12.1722,-9.2954,-5.9919,-4.0063,-5.7655,-8.3382,38.4373,0.56595,
-5.502,-4.52,-2.4427,-8.4274,-6.3802,-7.0968,-6.6214,-6.8095,1.5985,-2.8021,5.1857,-1.5714,37.5773,-0.43187,
0.3717,1.777,-2.0551,0.5144,0.51029,-3.5375,-0.19835,-2.3036,3.1898,0.017622,7.5257,1.1744,45.6865,-3.0575,
-0.13277,-0.74002,-2.414,-2.4087,-4.3408,-4.7715,-3.079,-2.6475,-0.85819,-0.4656,2.7356,-2.7526,43.9094,-2.3919,
-6.8735,-6.4802,-0.34073,-5.1565,-11.3112,-8.3418,-8.1969,-2.0065,0.15739,-0.91983,3.0536,1.2691,33.0799,-1.7662,
-2.1225,5.9599,-5.6225,-0.5088,-0.50917,-0.61024,-6.2586,1.0064,3.5229,-0.86464,0.94222,2.6393,33.0238,-1.6602,
0.17376,12.5918,-3.1164,-0.71924,-1.202,0.14927,-3.232,1.6689,4.9983,-1.0537,0.16233,2.7214,33.211,-1.3197,
5.9481,13.2827,-10.1601,-4.5327,0.79856,4.4789,-12.679,-4.2156,-7.353,-8.7035,-8.5238,-6.1183,23.9878,-2.2046,
16.9197,22.8499,-12.2018,-3.0552,12.561,13.1282,-10.2311,-3.7219,-12.4552,-13.2427,-12.11,-16.1153,21.8258,-2.7954,
20.7248,30.156,-2.7926,0.020155,17.1098,17.161,-2.8685,1.8041,-9.2977,-11.9658,-6.5627,-10.3281,24.8546,-5.0378,
28.1581,41.8437,-3.5896,1.9469,23.3138,28.6646,-4.1427,0.73172,-8.2577,-7.8741,-4.7233,-5.3699,22.8807,-5.2177,
28.1559,45.3587,-2.1689,-0.33906,20.228,25.2575,-0.27868,-4.3739,-6.075,-8.1245,-1.3064,-11.5554,15.0004,-12.8584,
28.3947,47.9398,-2.5207,-1.2826,23.8345,24.7059,-1.2261,-6.5216,-7.6387,-10.5291,-4.6025,-15.2006,9.762,-14.4975,
28.8602,46.2687,-9.8413,-6.7492,23.6098,32.624,-8.6243,-7.8175,-14.6522,-11.5846,-10.3519,-18.8681,6.0428,-6.1554,
27.6107,40.6003,-6.3585,-5.8626,19.7828,30.1844,-5.6967,-3.9742,-10.3988,-9.4435,-3.946,-16.29,11.947,-4.34,
21.8567,38.8876,-2.8435,-0.44869,18.3551,22.3478,-1.7393,-1.0842,-4.2313,-6.2253,-2.022,-10.2507,16.2919,-8.6589,
6.4453,23.0563,3.1115,-2.8326,3.1538,9.9195,3.1853,-1.9833,0.84307,-2.4776,2.9198,-5.2975,9.0476,-9.5859,
-6.3542,10.1042,1.9609,-4.1084,-7.0381,6.4322,0.58433,-1.8643,3.685,0.081195,2.2627,-4.4973,4.1664,-6.1182,
-10.0705,5.4,-4.6645,-6.0313,-1.0724,6.287,-7.8869,-3.9218,-2.5619,0.79945,-7.7552,-10.2535,5.6034,-9.3667,
-16.4559,-4.3236,0.67709,-4.9461,-7.5155,-3.4899,-4.2802,-4.8913,-4.0954,2.9206,-3.6745,-6.5048,9.847,-11.4558,
-12.8172,-6.2336,1.8415,-0.55173,-2.4851,-3.5215,0.074227,-1.4646,1.6942,4.9148,2.5717,-1.0528,11.4256,-0.88632,
-13.9764,-8.7518,4.6233,-1.0008,-6.1926,-1.382,4.89,1.5156,4.4848,5.1021,5.3097,1.4205,9.7755,3.5049,
-9.7636,-8.7089,6.7563,0.98722,-0.5184,5.9315,4.5966,3.835,1.8054,5.2777,5.4728,2.7815,12.5636,2.8129,
-14.2394,-11.3198,0.3249,-2.2055,0.71777,6.2985,-0.74085,1.4353,0.0098241,4.2381,2.9753,-3.4112,11.5684,3.3671,
-27.4851,-18.8354,1.7517,-1.5908,-13.4253,-3.2382,3.6421,-0.57903,3.8656,6.3939,4.725,-1.7602,5.5721,0.75492,
-24.2692,-17.2231,2.6109,5.2531,-10.5711,1.2946,5.834,0.90197,4.1156,6.0103,2.9952,0.27358,8.6118,0.70962,
-20.1618,-20.7692,3.1771,-2.5339,-0.53684,-1.4344,4.7608,-2.7676,3.1458,2.9986,4.5027,-2.3942,9.7823,3.3181,
-24.0137,-24.5847,-0.14675,-8.4076,-4.12,-13.1587,1.8238,-7.663,2.2339,4.0237,3.5094,-0.56351,6.0621,1.914,
-21.1264,-23.1094,-4.4765,-4.0465,-0.98032,-12.8511,-0.21379,-9.1311,1.1358,5.7107,-0.075342,-3.4215,11.9651,-0.12928,
-23.9564,-27.7484,-0.59225,-5.4908,-3.0907,-10.3928,2.4504,-8.8245,4.6828,7.0551,3.5448,-6.8319,15.3448,-1.8085,
-25.1703,-23.9143,-6.1006,-10.7051,-6.0387,-3.7437,-3.7222,-10.4644,0.78666,4.4624,-0.28351,-11.4834,7.4344,0.46939,
-23.178,-21.0334,-7.6627,-12.9549,-11.9429,-4.9651,-4.463,-6.944,-1.6707,2.2665,-1.7123,-11.7585,6.0241,2.3694,
-22.0285,-25.3151,-3.1054,-7.1162,-8.5752,-10.211,0.3841,-1.9479,2.0448,6.2281,1.0413,-3.0993,9.7597,-1.8703,
-23.84,-23.073,-4.6065,-5.9661,-2.5171,-5.5008,-1.3259,-6.8924,-0.24731,5.6132,0.25615,-3.154,7.9695,-1.5169,
-23.6147,-20.0014,-0.7147,-6.8134,-9.8379,-5.8939,2.369,-10.0943,-1.9192,1.661,4.3381,-2.7241,6.768,2.1895,
-8.7005,-14.463,-3.0819,-4.9583,-3.9452,-5.0583,-0.66563,-6.5966,-3.7327,2.5256,1.1853,-3.5247,6.8439,1.0938,
-3.3579,-10.2205,-3.379,-5.6251,-1.7801,-0.89818,-4.4821,-3.7907,-3.9907,3.8204,0.63227,-4.2771,7.3976,-0.41807,
-10.1461,-11.7767,2.8493,-5.5286,-15.7733,-4.9419,0.36636,-6.2143,-3.0284,1.9039,2.7635,2.487,5.7484,1.2942,
-10.2602,-13.2393,-0.45489,-2.0632,-18.0806,-8.2605,0.58558,-8.0104,-6.4619,-0.86165,-1.9818,2.579,2.2703,5.3142,
-14.9473,-16.3013,0.53627,-0.49358,-13.6215,-11.6213,-1.3778,-2.2276,-6.0741,-0.32802,0.54721,-0.46828,0.20584,3.0671,
-14.5326,-10.9849,-0.94217,-1.4278,-4.1274,-5.6216,-0.81315,-1.1296,-3.2996,0.17359,-2.3777,-1.404,3.0856,2.4012,
-11.2505,-10.808,-2.8138,-2.3065,-0.98745,-5.2845,3.574,-5.8825,0.27286,-0.31876,-8.502,-2.7663,5.3105,2.739,
-8.8883,-14.7388,0.48849,1.9293,2.6872,-2.7981,2.1545,-2.8785,3.39,-1.9869,-2.9302,-4.2873,4.7514,4.2619,
-4.7395,-8.3111,-5.5666,0.60843,10.48,8.698,-4.4825,-1.9827,-1.3929,-5.0009,-2.5132,-9.5737,3.2613,7.6214,
-7.8294,-7.3302,-4.2683,-4.7303,2.6203,3.3559,-1.8032,-6.6839,-4.6838,-1.3264,-4.2906,-8.5171,2.5837,5.2359,
-10.9751,-5.203,-7.1454,-4.2057,2.7041,1.9492,-5.7924,-5.5598,-7.536,1.8864,-10.5409,-8.7292,1.2231,-0.13969,
-7.4243,-1.5166,-5.7526,0.38518,7.8445,13.8836,-4.4807,2.0044,-2.2634,1.2911,-5.0879,-8.6876,3.0781,0.35085,
-7.7019,-8.8976,1.5822,-1.8073,2.7943,9.9171,1.8137,0.19716,0.52373,-0.47337,2.207,-3.1049,2.6523,2.0168,
-5.5526,-7.1585,-3.092,-7.2425,7.2061,5.7069,-1.9106,-5.8402,-4.5694,-0.68593,-4.9153,-1.7133,-0.64036,3.1011,
-5.9426,-9.8622,-2.6658,-8.9769,-2.6262,-2.1073,-2.0369,-8.1411,-3.0897,-0.40404,-4.8611,-5.7079,-3.7352,1.71,
-0.042401,-8.5476,-0.33644,-3.8587,-4.6378,-3.6681,0.25446,-6.4476,-1.2173,-0.1386,-0.47233,-5.6066,-0.37783,1.3662,
4.7806,2.0882,-1.7627,-3.1455,9.7405,1.3724,-0.24297,-1.7227,-3.5546,2.2801,0.52011,-5.2702,3.5015,-1.1262,
4.2528,5.5788,-0.45168,-3.1978,10.2406,2.4954,0.9769,1.5142,0.27407,3.8305,1.2123,-3.7487,4.4967,-2.7458,
10.9875,4.5209,-6.4499,-4.6929,7.9389,6.9252,-1.7328,-5.5663,0.016428,1.9132,-5.8501,-8.1033,3.9857,-0.89362,
7.6767,-3.2224,-5.8222,-9.9552,8.6677,0.48366,-0.424,-7.4017,-2.6359,2.5215,-3.3302,-9.3046,7.3617,-1.5631,
2.1549,-7.6083,-1.3753,-9.5986,11.7633,-8.463,-2.0856,0.51442,-0.30834,4.5396,1.4496,-6.0947,7.6436,-3.6387,
6.6049,-2.5725,-0.087905,-3.9614,4.0674,-3.8578,-3.6477,1.6884,-0.048872,1.1338,0.15688,-3.5599,2.6052,-0.28692,
8.1368,-3.8642,5.7022,-0.83101,-3.8892,1.1941,4.284,-1.3052,-2.4558,-0.86221,4.0041,1.4742,1.9668,1.6583,
9.0946,-7.0068,1.5034,-1.7457,10.3234,0.15838,0.17055,-1.7086,-5.6832,0.63555,2.3178,-0.54245,4.2591,0.11273,
7.5848,-9.4787,1.8954,-5.0152,5.3655,-8.5282,-5.6243,-0.64198,-1.4856,1.5615,3.1428,-3.4022,1.5932,-0.85813,
9.7813,-8.1866,6.3616,0.34763,-7.2485,-6.3291,-0.70706,-4.2187,1.2549,-1.1835,2.7135,-1.0287,-1.6356,1.8447,
12.8096,-5.0446,4.2923,6.3519,1.1401,3.4504,2.9503,-7.5814,-0.025693,-2.3178,-2.5114,-1.6903,4.97,2.9393,
9.3897,-4.0187,5.24,6.2117,4.205,2.0383,5.9066,-0.13665,1.1807,0.95477,0.77275,2.5085,9.2515,-0.37055,
15.0931,2.4893,0.10513,3.9111,4.4348,5.7724,2.6601,4.692,-1.782,0.41532,-0.23771,0.91192,3.394,0.13385,
14.9106,2.5807,3.2321,1.0251,-1.3749,2.7748,4.6697,0.79532,-0.9524,-0.33273,0.017745,-4.6864,1.021,0.84895,
13.2929,3.6309,10.51,5.5433,4.7332,1.4032,8.0049,-1.904,0.79197,1.3745,4.114,1.1384,8.4315,-0.88922,
19.003,12.8133,0.9613,6.4155,18.5492,15.419,0.53474,-1.0664,-4.3168,-0.39523,-1.6764,-0.61714,10.5767,4.2254,
18.1036,11.8033,-5.1222,-0.4771,19.2437,20.1577,-2.6308,-1.726,-2.3708,-2.0585,-3.7452,-2.2673,4.3983,8.5514,
23.7662,16.3975,-8.1891,-3.3408,23.392,24.7331,-2.9547,-6.4424,-3.1926,-0.97091,-7.8586,-3.5773,2.6884,8.0385,
26.6788,18.7884,-6.2512,-6.9965,24.8807,26.1414,-0.36705,-8.9482,-8.3035,-2.3587,-9.3155,-12.5215,2.5273,6.5921,
19.2933,10.43,0.87253,-7.5408,18.0855,17.3423,0.13691,-2.145,-2.5028,-0.77113,-3.4542,-8.396,2.3754,4.7501,
13.3152,3.0555,-6.8928,-8.5348,13.1437,9.5526,-5.174,-2.9804,-1.3886,-1.689,-3.7291,-5.9643,1.7507,2.5371,
7.937,-1.7069,-8.1663,-9.2273,-1.7449,0.062095,-1.73,-8.8269,-2.0284,-0.86449,-1.3355,-4.883,2.3693,1.6618,
5.0509,-3.0507,-6.23,-4.8173,-2.2426,-0.90596,-5.4826,-9.7435,-2.3886,-0.33069,-5.1117,-7,4.6372,3.4907,
3.3011,-3.3501,-6.3386,-5.0107,7.051,5.4149,-5.6358,-8.677,-0.31712,-2.239,-6.7337,-11.8831,4.359,6.1733,
5.2724,-3.3898,-7.1634,-8.3252,4.4585,8.2237,-1.2001,-7.9152,-1.5032,-0.89964,-5.6065,-7.0725,-3.3741,1.7053,
15.5614,5.4907,-10.1075,-1.0768,6.6016,13.9968,-4.5023,-6.9579,-4.7874,2.5288,-9.6085,-4.2376,-5.5818,0.15722,
15.1094,8.5355,-3.7167,3.3259,11.5079,15.085,-1.8223,-5.0948,-2.0898,-0.033289,-4.2115,-3.9838,1.5013,2.5577,
13.9619,11.1564,-7.5911,-3.8635,20.2174,20.6878,-4.364,-5.0301,-3.1697,-6.5388,-5.1641,-7.8421,2.1346,2.6452,
20.8372,16.2718,-12.4385,-7.4879,18.0403,18.9644,-7.9588,-7.6206,-4.4256,-6.1467,-11.6029,-15.0843,-4.7421,-1.3697,
30.4332,26.6237,-5.1843,-1.495,18.1627,17.1036,-3.8659,-5.9581,-1.5089,-6.0188,-9.2195,-16.8306,-5.181,-6.8316,
35.8378,39.1263,-15.9607,-5.7438,28.6423,30.1774,-14.2392,-6.5647,-12.0235,-19.7577,-19.2714,-25.9437,-10.6549,-10.2778,
37.3032,47.9862,-18.1363,-7.0862,29.5751,36.6822,-16.0359,-5.4477,-9.6146,-15.8004,-18.3563,-24.1461,-12.1846,-6.0455,
45.6698,54.266,-18.9763,-3.287,29.7288,32.5531,-12.6634,-9.4596,-5.1813,-7.6216,-18.2188,-21.2513,-11.9354,-8.0934,
52.5706,62.5792,-21.6941,-6.4643,34.2116,38.7946,-13.3499,-7.4457,-12.5837,-11.0207,-21.9464,-23.8326,-14.5937,-7.6078,
43.632,58.8247,-10.7513,-6.0762,28.7847,37.9129,-8.2106,-0.73226,-15.6848,-13.7341,-18.2192,-17.1002,-18.0567,-5.2229,
40.7729,49.2694,-11.3112,-3.0603,29.7089,25.756,-8.923,-7.678,-16.9131,-15.079,-23.6338,-15.3511,-19.6246,-11.4172,
39.0497,35.4672,-13.7658,-7.4562,27.2033,12.8827,-12.0028,-12.2787,-16.1391,-17.3075,-23.4208,-14.6708,-13.3857,-13.8654,
29.958,25.6262,-12.4582,-7.9729,18.8224,10.6637,-13.693,-5.2757,-12.7608,-14.3411,-19.6052,-10.4163,-9.2078,-7.7311,
24.0629,21.9197,-9.0594,-2.915,9.2571,9.3007,-4.9177,-0.37967,-5.4875,-5.5267,-15.7781,-8.1043,-8.4146,-3.1696,
15.8705,10.9633,-1.2847,2.5628,2.9169,1.5121,8.393,2.0535,3.0367,1.5536,-4.7078,1.059,-2.1249,1.841,
8.1696,4.5207,-3.1365,6.7471,11.9007,3.3493,4.9967,3.3763,0.44415,1.9421,-4.426,8.2259,5.7151,12.3352,
1.6541,-1.2939,3.5598,7.0654,7.0895,3.8715,5.4205,4.8612,2.5869,2.5492,-2.9549,7.974,5.6134,12.8006,
-2.7842,-7.483,8.1667,7.1236,-5.3872,-1.6632,12.8078,5.5336,6.7702,3.3603,-3.7417,5.5671,1.4204,6.7301,
-11.5352,-9.2032,6.4714,9.3473,-8.1974,-5.1793,13.2444,6.8883,9.0151,7.256,-2.3124,8.3661,5.9145,9.9413,
-24.9431,-22.751,10.4219,3.4838,-21.8056,-18.9685,6.6652,-2.2016,9.9205,5.3744,4.0933,10.7567,4.5953,2.1144,
-25.7359,-27.5322,11.7246,5.6851,-20.8587,-23.9762,4.8192,-0.62347,10.7713,6.9804,2.8836,13.4857,5.2837,0.059128,
-25.638,-23.9521,10.5389,7.7544,-15.7508,-20.1275,9.8325,6.1626,6.2688,9.9358,-2.1099,14.1226,4.9669,5.358,
-33.0173,-28.5403,8.2198,4.638,-22.2773,-23.9811,6.5914,-0.71462,1.7953,7.1705,0.18589,13.0345,-1.8386,3.3497,
-25.011,-26.5871,3.1471,3.6366,-12.9869,-16.9989,-0.31176,-4.2869,3.3746,4.0889,4.2723,10.0831,-1.4876,1.9437,
-22.5462,-26.9201,5.8501,5.8283,-15.5822,-16.943,6.9376,4.1648,3.6543,5.2896,3.0519,11.8882,-1.3981,-0.58328,
-19.2653,-21.9307,6.4634,8.3711,-16.5754,-15.9267,11.3418,9.6995,0.54253,6.4185,-0.50569,13.1031,-4.2067,0.89752,
-24.1349,-23.7478,7.7629,2.8072,-21.1243,-16.6581,7.528,2.1281,1.2333,4.8281,3.622,11.594,-4.6772,0.12077,
-29.6767,-28.8309,12.3585,6.254,-25.4007,-20.7203,7.3173,-0.169,7.6666,6.7078,8.9481,16.4418,-0.78139,-3.0197,
-24.5216,-29.9933,1.9761,3.4686,-23.8766,-20.4411,1.0937,-0.6408,3.8326,6.7873,0.69841,14.0092,-5.0728,-3.3205,
-23.7734,-29.3988,4.5088,5.4299,-24.6132,-22.3479,2.7153,0.12078,3.3614,6.6212,2.8259,14.8557,-5.0097,-3.3625,
-23.5521,-28.8399,7.3718,6.7913,-25.7875,-23.6581,4.2396,0.83644,2.9188,5.983,4.3436,16.1337,-4.95,-2.9197,
-23.344,-28.3146,9.5803,8.0708,-26.4096,-25.3721,6.1544,1.5094,2.5025,5.8647,6.2523,16.8529,-4.8942,-2.9853,
-23.1487,-27.3391,12.1388,9.2736,-27.4764,-26.5011,7.4721,2.1419,2.5935,5.2721,8.0461,18.0109,-4.8413,-2.5654,
-22.4827,-26.9036,14.062,10.8868,-27.997,-28.0443,8.7113,2.2544,2.1969,5.1968,9.733,18.6175,-4.7918,-2.6525,
-22.0979,-26.7355,16.1107,11.6797,-29.2096,-29.2541,10.1167,3.0833,1.5831,4.8848,11.0771,19.9107,-4.5044,-2.4932,
-29.4488,-28.9879,14.662,9.0506,-36.6159,-31.8373,10.4739,10.1291,-1.8862,3.1456,4.1456,24.0186,-9.0547,-5.236,
-33.4666,-30.6229,20.0489,10.9178,-35.8651,-24.1423,18.0403,15.306,-1.7732,4.4032,8.2355,21.6135,-7.0651,-0.58343,
-35.5559,-35.7752,25.3537,13.396,-37.3284,-32.5757,19.1272,12.2183,2.9127,1.0056,15.6951,22.0039,-8.8106,-4.6458,
-22.8175,-25.434,19.4941,15.9667,-22.5554,-23.8725,13.641,9.075,1.2919,-0.50103,11.379,23.0938,-4.9075,-5.8133,
-20.7253,-22.2207,20.0117,14.7677,-19.5149,-14.0043,19.8122,6.8433,0.0091188,0.73432,13.3476,21.4672,2.3766,-5.2233,
-23.0971,-27.8772,20.4981,13.1587,-25.8159,-22.0819,20.7928,3.7815,0.24965,0.44918,15.6801,21.3843,-1.3813,-8.0433,
-26.532,-32.4714,15.8936,8.0306,-31.4978,-31.3623,9.904,4.0363,1.1988,2.3504,12.8109,18.1729,-9.4934,-9.4891,
-37.7143,-35.5845,14.699,0.55888,-28.8848,-26.3471,9.551,4.0353,2.8141,4.3786,11.8015,20.216,-11.0929,-7.7145,
-28.7028,-25.2545,14.7814,3.4179,-13.6541,-11.7509,14.7625,1.865,4.5734,4.598,8.683,22.8594,-13.8018,-0.50291,
-16.6165,-21.5701,21.3663,12.6128,-23.199,-25.1458,19.9025,3.4404,9.3607,6.4913,12.7416,24.1392,-19.9633,-2.6419,
-14.8963,-21.963,20.3252,12.5793,-19.6377,-30.2654,18.9494,5.4032,8.558,9.2352,14.1463,24.8601,-14.1861,-8.509,
-16.8949,-19.1991,11.3928,1.701,-6.8904,-14.3494,13.956,-0.22352,2.742,5.3067,7.995,15.1737,-9.9606,-6.5524,
-18.2916,-15.1548,16.4938,5.9378,-13.7079,-6.3782,17.4569,4.1282,6.9158,2.578,11.3717,13.2989,-11.2912,1.0716,
-13.5786,-10.148,13.3352,9.1967,-15.5365,-12.9852,13.2763,9.4241,4.8138,1.2182,6.5921,14.1884,-11.8188,2.2124,
-8.1845,-12.6727,14.2222,4.5474,-13.8813,-12.4472,18.0232,7.1716,5.2478,3.7963,9.8118,18.8806,-8.9404,-0.57156,
-6.9704,-14.5635,17.9481,6.926,-6.0589,-3.7467,19.1111,4.572,5.174,4.7737,11.3922,21.3631,-7.6809,-2.7068,
-8.2393,-6.2178,13.2561,11.0896,-4.9721,3.4681,12.4209,13.2159,0.28415,3.2821,7.0933,18.8761,-6.979,-0.37486,
-11.8423,-8.4961,10.7733,11.1474,-18.7738,-9.0323,11.9166,17.4844,1.9543,1.8801,11.7294,17.5026,-9.2116,0.85269,
-6.3114,-9.9146,8.6807,13.3712,-14.3935,-9.9367,10.2374,9.2043,7.1394,3.2135,11.9896,14.0422,-10.5872,-0.64461,
-4.4865,-11.2479,13.9449,7.7482,0.57013,3.193,13.4798,3.8316,8.1575,2.0566,11.2703,11.2715,-8.0235,0.35816,
2.0495,-7.1986,14.5543,9.6936,1.3795,3.9655,16.0452,6.0121,5.2577,0.96909,10.594,12.0414,-4.1679,1.3008,
3.6137,-6.0435,0.90679,7.907,2.0199,-10.3724,8.0929,-1.3385,-2.0474,1.1519,1.5225,4.8112,-2.2306,-8.1773,
2.9147,-12.9118,4.7088,-2.6908,12.9859,-21.9219,6.161,-6.0787,1.4497,3.9753,1.9133,2.1122,-3.543,-16.8457,
16.8399,-3.4601,7.8006,-2.529,17.0271,-6.5066,8.2016,1.9991,4.737,3.7367,4.6907,1.5034,-2.8484,-7.6399,
15.9501,3.2552,4.1991,3.1663,1.9055,7.9838,11.8071,8.8686,2.2836,5.1997,3.2042,1.6542,-2.9185,-2.12,
0.89306,-2.7248,0.090612,2.4938,-9.4166,-5.0287,6.2781,2.0699,1.1824,7.298,-3.7369,8.7857,-7.0818,-13.5621,
6.5035,0.57197,2.2546,2.1035,5.2484,-5.4501,6.1424,0.25844,0.87049,5.6548,-5.6818,11.3918,-6.4159,-12.9896,
15.5132,0.77862,10.555,2.2182,12.0438,0.42051,14.2097,5.7865,-2.7972,2.6642,1.1668,8.0572,-2.4155,-14.8613,
8.5568,0.0088872,1.968,1.3619,6.2596,-6.5943,7.3315,0.37779,-4.7986,3.7095,-2.0366,5.8866,-0.10133,-21.4413,
-0.63349,-2.4018,-7.791,-3.5401,16.4893,-10.055,-0.82119,-8.3218,-1.6182,1.0768,-4.3245,5.5334,-2.5056,-16.2985,
2.056,0.39354,-0.33402,-3.5685,15.2589,2.8407,5.7359,3.0237,-2.2443,0.77112,0.51437,10.263,-2.1142,-6.4026,
7.476,5.4314,-1.519,-1.1855,13.1383,9.6599,6.5968,12.7242,-5.2429,5.3044,-0.72156,8.9241,1.1459,-6.2596,
-5.5059,-8.392,-5.2842,-3.5244,2.2267,-5.0197,2.3445,0.39171,-3.9644,2.0937,-0.67838,2.604,0.11318,-17.9353,
-3.2474,-9.3345,-2.5572,0.061325,4.5035,-13.275,2.2038,-3.4882,-3.2443,-2.8524,-1.6018,0.51952,1.0705,-16.8591,
6.8296,0.62559,-0.2344,0.78078,13.1514,1.6215,2.7947,9.9775,-3.7728,-1.9581,-4.6389,1.2115,0.28313,-7.4117,
-1.2931,-6.6427,-0.22022,-1.6765,7.5417,-0.28338,4.5554,12.271,-3.0644,-1.3586,-1.4682,4.5131,-0.21591,-8.8951,
-2.6616,-6.2442,-3.5813,3.7268,17.6941,0.6976,5.7282,2.8578,-5.2908,-2.7232,0.54799,1.8321,4.6174,-7.8795,
-2.7429,-4.1823,-4.0898,0.85165,17.8378,2.8251,4.1792,-0.44694,-3.7683,-1.3548,0.27414,2.4453,0.72518,-5.2374,
1.7601,-1.039,-4.8082,-2.0914,8.5727,3.1377,0.072175,6.8106,0.31434,2.1011,2.1858,5.1908,-3.1748,-5.8874,
4.788,-1.2176,-5.7248,-2.689,9.7455,-1.1479,2.2372,8.0894,-4.284,-2.6045,3.7419,-3.5564,1.5952,-9.1493,
-3.9354,-10.0626,-2.7304,-2.7689,13.7401,-8.0689,7.6464,5.9166,-3.786,-3.1714,4.7224,-1.174,3.6686,-9.8056,
-2.7351,-7.5308,-8.8332,-1.1566,13.3977,-1.3182,0.43881,3.1514,-2.5947,-1.053,-3.7558,2.7529,0.074169,-8.7353,
7.07,0.63405,-3.9647,-0.12312,1.5069,5.5096,0.89464,4.4088,-2.9211,-0.025716,-1.1201,0.1776,0.55188,-3.8726,
9.2972,4.6935,-1.5575,-0.83852,6.96,4.456,3.4922,9.6875,-1.5407,-0.26503,3.5265,0.40802,-0.68641,0.45724,
3.6778,4.1708,-5.5615,-1.5117,16.4244,3.9476,3.5237,10.7934,1.6851,2.8842,3.5563,3.9988,-3.7786,3.081,
-1.6045,-4.0334,-4.9866,-2.626,4.5927,-5.2071,4.9995,-3.5923,2.7891,3.9163,2.6195,5.4459,-4.7569,1.6911,
6.6866,-2.3453,-8.5442,-1.9864,1.9069,-5.8589,2.2893,-9.1617,2.6218,4.6453,-2.8402,4.6371,-4.4716,2.5536,
6.2855,0.20568,-5.6211,-5.7238,-2.0638,-1.1689,2.1518,3.9214,3.9107,4.3667,0.70457,4.8409,-5.6495,1.4364,
5.6673,0.91658,-0.70416,-4.6571,3.6035,3.9628,2.7457,12.1221,1.0246,2.8995,4.7598,5.2737,-2.6591,1.5911,
13.0401,-0.10262,-7.4107,-3.4137,13.5103,1.3148,-1.7574,5.6099,-2.8931,1.2794,-1.7927,-3.2378,1.3567,5.834,
10.5704,-4.6759,-7.6893,-4.414,3.2998,-8.1642,3.8917,1.176,1.3779,-1.4486,-1.444,-6.1766,1.0342,2.3509,
10.9003,-1.5033,-8.6742,-3.1849,6.4761,1.0025,4.6221,-1.3047,-1.1151,-2.8079,-0.87546,-5.3241,1.4544,0.76355,
12.8977,-2.618,-8.8768,-4.1987,19.344,5.522,-1.1987,-3.8776,-4.6635,-2.8805,-1.0636,-6.2098,7.8747,3.8511,
14.5339,0.43136,-8.8263,-2.9827,30.7166,6.6369,-2.5728,5.0319,-1.9736,-4.6359,-4.3744,-5.3551,8.8485,3.62,
19.2056,12.6977,-9.0198,0.81157,37.3094,19.9769,1.1968,11.2374,2.7242,-4.1167,-1.9425,-5.2749,9.5225,10.3926,
15.1609,7.5974,-5.1042,-3.0936,24.9478,15.8861,4.0172,2.8507,0.15054,-5.3158,1.5484,-3.5122,7.0231,7.8407,
28.3512,15.0955,-6.0028,-0.25692,31.4049,21.4406,6.9097,0.99244,-2.9917,-3.3096,-2.1599,0.79587,10.6991,2.3088,
33.5196,21.9025,-10.9453,0.24089,37.2334,34.1337,5.0491,1.8968,-0.88405,-5.0393,-2.0303,-2.1442,15.3598,4.0985,
27.4108,18.4192,-9.0835,-0.97909,30.902,33.7729,0.64853,2.988,1.3382,-5.46,0.74284,-2.2565,10.823,7.9499,
31.0687,16.832,-9.9844,-1.4024,24.7095,20.1773,1.0917,-1.5297,-2.5984,-2.7222,-4.6045,-4.5313,0.53252,1.6885,
27.9995,10.7606,-7.6981,-2.5231,20.5756,7.1565,9.4621,-7.4635,-0.27334,-0.87163,-1.1947,-5.9467,1.2235,-3.9564,
27.7657,15.8995,-12.5388,-1.4077,32.3564,20.8271,4.5559,0.2153,-1.7031,-2.7476,-2.0873,-3.6616,12.2374,3.9938,
28.992,25.5508,-13.2329,-1.8054,31.8612,33.6775,-1.502,10.8074,-4.9751,-1.6187,-3.89,-0.5496,12.4673,7.1284,
22.9141,20.1612,-8.5822,-2.1791,21.7547,22.2568,-1.894,-1.4103,-4.1946,-0.075419,-3.1748,-0.034342,3.5244,0.91626,
24.9134,15.5771,-8.5499,0.8439,27.6801,13.6904,-0.81645,-10.4849,-3.461,0.41104,-6.8409,-3.8889,3.7946,3.7533,
21.2497,8.6169,-3.9391,1.5166,19.9937,3.9513,-0.044102,3.883,-2.5302,0.14564,-2.8146,-4.3787,7.1828,1.3592,
19.0106,13.4026,-8.0411,1.9076,32.8941,12.3911,-6.3082,15.7015,-1.4143,-2.2735,-0.23557,-5.0801,10.6083,3.6878,
24.1365,21.2753,-9.9692,-1.099,45.0205,25.7477,-6.8938,6.5643,-1.3294,-2.619,-3.5959,-9.5957,6.5973,10.2154,
21.9652,13.0089,-6.2378,-3.2024,28.2192,16.1283,-9.1315,-5.6399,-1.9728,-1.2568,-6.9958,-13.1176,-2.7168,0.6842,
22.8167,12.9515,-14.299,-1.3233,35.5644,19.258,-18.9477,-3.6141,-5.9515,-1.4226,-10.6732,-14.9816,-0.38443,-0.07952,
20.7243,15.3079,-19.467,-8.2333,47.5305,28.4668,-16.1236,2.1464,-11.1381,-7.3628,-12.2019,-17.6981,-2.0486,3.5402,
27.1936,21.6198,-20.2272,-10.1499,49.1377,31.5791,-11.2998,4.9096,-10.9522,-9.8135,-13.398,-16.6363,-5.3001,2.3639,
24.1162,20.3226,-23.8338,-9.5409,36.0666,30.6487,-14.4782,-3.0977,-11.2589,-8.7423,-14.0404,-18.0482,-3.5359,4.1503,
15.4384,12.8367,-19.0298,-8.9684,30.5281,23.989,-9.2712,-11.107,-9.6195,-5.8076,-10.3059,-15.5195,1.0146,5.829,
21.2605,16.8873,-19.3338,-7.466,29.6603,23.514,-9.1969,-10.9225,-12.4168,-6.9054,-13.5439,-20.3729,1.9181,-1.2692,
19.7442,14.669,-20.3432,-11.1156,18.4809,22.8263,-15.1525,-1.8308,-13.8407,-6.7319,-12.4901,-19.8732,-2.7765,-6.2545,
14.9439,7.763,-21.7739,-13.1,21.4692,24.5895,-18.3412,-1.4802,-9.877,-5.1229,-11.0176,-15.0656,-3.3331,1.5924,
19.3501,9.7076,-21.4316,-12.7957,34.281,24.0787,-13.866,-8.1401,-2.0533,-2.4052,-9.3924,-15.6077,6.0262,10.6561,
12.6453,5.0276,-20.8688,-19.5,28.4885,16.1263,-8.4546,-9.8211,-4.5814,-5.8765,-8.1057,-15.8763,3.9771,3.509,
25.9865,18.8259,-18.6524,-11.5816,40.8792,29.2587,-0.23497,0.89109,-3.3427,2.1889,-10.03,-10.1035,2.2923,8.1187,
38.5274,25.0475,-23.5592,-14.984,45.7775,38.2287,-7.2103,-10.0082,-9.1677,-2.5217,-22.6846,-23.5973,-2.4246,6.9087,
35.7338,20.6525,-19.7351,-18.4233,50.2617,34.9707,-4.3675,-12.7821,-6.2075,-4.2986,-16.0209,-28.0867,11.8209,8.4224,
42.0257,21.1004,-30.3613,-23.8256,52.3079,39.8625,-5.3106,-11.774,-11.3784,-11.0304,-21.0849,-34.837,15.5705,6.23,
53.2424,30.1987,-39.3859,-24.5652,55.195,47.8347,-10.0536,-13.7191,-15.7574,-12.5382,-33.0767,-42.1472,7.1644,6.5791,
55.5915,36.3405,-49.3148,-26.7067,65.9833,53.4007,-20.2962,-22.7779,-19.8736,-11.0625,-39.0458,-48.536,3.1191,11.728,
63.8252,42.8367,-45.874,-23.1761,76.1243,61.2834,-10.8837,-23.3394,-14.3429,-6.5424,-26.0978,-44.178,14.5011,16.327,
73.493,52.3181,-46.0141,-23.2318,77.8234,71.7064,-11.195,-20.4928,-16.8563,-8.5604,-30.7989,-44.9018,18.9337,15.3473,
63.5398,54.7226,-49.7607,-26.4172,75.805,76.6838,-20.4052,-14.6839,-18.9784,-11.6622,-37.3866,-49.1971,17.0748,23.3441,
45.6274,37.3392,-35.929,-26.5196,57.1567,57.9828,-8.3344,-12.1155,-12.2963,-9.757,-21.0434,-38.7737,11.4708,20.7389,
28.7898,23.8912,-31.3632,-20.5897,39.6273,40.4038,-2.5322,-14.763,-18.7889,-10.6178,-18.2141,-30.1803,5.4799,5.9967,
26.8219,26.5553,-27.3115,-18.1492,29.2964,34.3641,-1.6567,-11.7078,-22.2411,-13.5959,-17.362,-27.1644,4.9104,4.4319,
