"AF3","AF4","F3","F4","F7","F8","FC5","FC6","O1","O2","P7","P8","T7","T8",
9.1588,-4.8205,20.7284,19.2822,-26.9949,35.672,-11.5694,21.2104,-5.3024,-8.6769,-12.0513,4.3385,-4.3385,10.6051,
7.6454,-6.9414,11.7719,20.0534,-23.4466,32.0855,-12.321,20.9021,-7.3944,-8.6382,-10.8459,4.5602,-4.5602,14.3075,
1.1609,-9.6586,15.6447,20.5372,-29.5121,16.9037,-2.182,9.2834,-1.8897,-6.4329,-8.5081,7.4198,-1.6352,5.4951,
0.36858,-4.9815,13.9833,22.4387,-35.2129,11.31,-6.6306,9.4495,1.8393,-6.2877,-10.167,4.8057,-4.6704,-2.7886,
1.7925,-6.6106,8.8058,14.8256,-31.6541,13.0417,-12.9814,12.7392,-0.68142,-7.3569,-9.5568,4.5171,-9.6926,-0.21089,
7.9515,-9.5884,7.7955,8.1515,-23.006,13.2236,-12.6845,7.1541,-6.4251,-7.8793,-10.9115,6.6567,-7.1828,5.5863,
8.4385,-4.1926,4.917,8.1441,-19.2157,12.9118,-9.0311,6.2427,-7.0037,-10.2993,-10.739,1.4363,-1.4494,5.7329,
-1.709,0.87942,6.5504,8.6196,-18.0628,14.5475,-4.6331,12.1349,-2.2449,-8.7173,-5.7566,-0.5778,1.5298,7.3173,
-0.6424,0.82643,9.5316,15.333,-7.8197,21.3872,-3.8729,18.6374,0.30012,-2.4094,-7.3392,7.1694,-3.3829,15.5551,
3.4937,-6.6947,4.8625,11.7617,-9.038,18.8989,-8.702,12.9396,-3.8155,-5.3981,-10.9964,6.0161,-16.4361,13.4168,
9.3099,0.21466,4.8115,13.2254,0.90451,21.3806,-8.903,4.6917,-3.3453,-4.8335,-4.7928,0.11176,-7.496,9.9604,
2.9663,2.6119,5.0048,18.6984,5.6705,23.9542,-5.9587,4.8921,-2.6627,-5.9893,-4.0233,-3.2694,4.041,6.4703,
-4.4421,-9.5959,10.0076,16.6126,-8.7697,14.8041,-0.78049,12.3118,3.7636,-7.0762,1.5208,4.1576,1.8704,4.1543,
0.64491,-13.3587,1.6941,3.0826,-4.2662,2.3465,-7.9643,3.8601,-1.2827,-10.0258,-2.4271,0.53393,-4.0267,0.5304,
4.2214,-5.5675,1.8332,-4.5744,7.3177,-4.302,-5.7994,-1.9154,-8.1954,-10.1474,-3.0046,-2.1494,2.7226,-1.1884,
4.6915,-5.9564,12.0876,3.6543,3.7452,-8.6232,3.4666,3.7432,-1.6781,-5.4412,-1.1371,3.0412,-6.3588,-2.3224,
12.6047,-10.4197,4.6134,8.7372,7.3768,-13.8904,0.84804,1.5904,5.6534,4.5262,-2.5151,-0.033777,-15.6182,-6.0394,
10.4019,-12.2049,-0.48389,2.4286,7.8983,-17.8779,0.79738,-2.8436,6.7602,7.1469,1.4924,1.4143,-0.58113,-10.4976,
6.4036,-8.0979,1.9555,0.35448,7.9066,-11.5023,-1.6608,-2.6727,1.0522,0.45137,-5.3458,6.1499,7.0463,-6.9754,
6.5015,-5.2017,0.39214,-1.5948,12.2527,-8.4018,-7.8279,-4.4408,-5.7596,-1.0217,-10.3275,-3.8598,-7.4765,-1.2545,
6.3529,0.65404,0.12764,3.0807,15.1329,-7.1748,-2.7785,0.4054,-3.2449,2.1731,-2.236,-7.2437,-11.9691,2.4367,
4.5254,4.9531,-4.7007,6.7522,8.4404,-2.888,-2.6118,6.1657,-4.014,-3.7419,-2.5838,-1.0245,-4.984,0.36228,
2.5665,3.4509,0.64277,12.3724,0.46238,-0.54528,0.19625,10.3752,-3.0505,-2.3123,-2.188,8.4368,-1.0698,-0.86498,
-3.6131,0.59272,9.0403,14.2816,2.6038,-3.6456,1.8717,4.2091,-1.1798,3.852,-1.8153,6.7257,-0.28222,-0.57166,
-4.6014,-5.4686,5.8466,3.0606,9.9191,-7.0425,-2.3382,-8.3357,-0.38636,1.4519,-5.3221,-4.0419,-2.9171,2.5959,
5.3157,-8.515,3.0857,0.94879,15.591,-6.138,-2.1979,-7.8356,1.0831,-3.4559,-5.4847,-6.6919,-2.2597,3.404,
2.8276,-6.7992,-1.6792,4.0249,15.3784,-3.6006,-1.8251,1.5526,2.2234,-3.0076,-5.397,-8.9415,-0.91924,-3.7901,
-8.1881,1.0808,-1.3373,4.5065,11.3225,3.1232,2.864,4.1108,11.0078,5.6088,6.2552,-3.8255,2.7516,-3.3215,
-17.579,-1.6354,-7.2828,-4.1998,2.6891,-2.6076,-4.2975,-7.9462,4.804,4.5491,2.2647,-0.46269,-2.9569,-2.3991,
-16.7654,-10.4551,-7.569,-8.0454,0.35886,-6.5487,-2.3527,-8.1926,0.90008,8.8557,-5.8251,2.6983,-3.0207,0.39619,
-16.4826,-13.9254,-3.4992,-6.3571,-5.6885,-6.8789,0.92175,-4.0854,0.12295,7.1193,-6.1987,-0.1149,-3.0807,0.13122,
-5.3705,1.0101,-1.8432,2.7007,2.3654,0.7644,1.3486,4.8362,2.5259,4.2818,-2.9345,5.6763,0.47841,7.8359,
-9.1457,-0.37625,-4.3842,-2.5225,-2.8382,-3.3788,-0.90193,0.44864,0.68715,5.7121,-2.5175,4.6129,-6.5402,3.7503,
-6.6685,-3.246,-0.2645,0.5211,-5.5597,-4.1402,-4.2216,1.8682,-0.80011,8.7436,-2.3662,-0.48439,-10.0039,4.0079,
4.0955,7.795,0.95667,6.0334,-0.64687,0.68798,-6.1374,6.3354,-6.7777,-0.69864,-4.3934,-1.1782,-4.8239,-1.7762,
10.5984,11.6659,6.2017,8.0818,2.2842,0.16453,3.8715,4.0269,-7.8175,-7.8878,-3.1662,2.7486,5.1062,-10.8289,
15.7471,7.1096,6.7939,7.115,13.7163,0.15466,0.74719,-3.4451,-7.3484,-7.4145,-10.2066,-3.6828,0.46155,-3.4302,
18.4177,4.9958,0.84266,0.18012,13.1343,-3.47,-9.662,-6.3719,-10.0406,-7.6926,-13.6915,-8.5231,-13.3045,2.3192,
17.3129,7.5883,2.2381,0.65147,5.598,-8.0823,-7.1538,-3.5792,-8.956,-3.8568,-9.9778,-5.1194,-10.5782,-3.1224,
11.4536,5.687,8.3706,5.9148,12.4928,-6.1513,0.024079,-3.8467,-4.5624,-2.1789,-7.4511,-4.3305,0.17959,-1.9709,
6.1869,2.2125,10.5197,4.8368,14.3945,-3.6129,2.674,-6.2672,-2.6017,-4.6995,-6.7629,-3.8295,0.89194,2.2445,
8.7077,3.526,9.8885,5.029,10.1564,1.9065,0.10339,-6.3731,0.44692,0.40275,-5.8752,-3.1178,-2.536,1.6279,
3.3648,0.90409,14.1157,3.2807,3.7622,1.7919,2.5071,-5.5085,2.8305,1.3427,1.226,-2.4486,0.99036,2.4943,
3.4041,5.4289,14.4738,1.3969,1.8495,-0.48453,2.5979,-2.5267,2.9014,-0.42488,1.3937,-0.61465,-1.238,4.0316,
9.4661,6.5497,8.3029,0.34899,-0.18991,-2.8658,-0.4503,-6.7136,3.6914,4.4211,-4.9567,-3.4701,-3.5741,-0.54837,
7.6931,-4.2074,15.7583,1.0512,-0.41925,-6.7914,8.4946,-12.3366,6.1212,5.3609,1.8484,0.83573,8.4507,-3.6492,
7.9546,-0.82218,17.4641,1.7108,5.6312,-5.1789,5.8155,-10.3913,2.6207,-1.9509,1.0139,2.4726,3.3637,-3.189,
12.0569,12.0018,7.4984,3.2956,0.71383,-2.6988,-1.5231,-2.7782,-1.6341,-4.9671,-6.0366,-4.6654,-8.648,-2.7565,
13.0209,15.8612,14.5206,7.1954,-3.9081,-2.2957,7.0042,6.7887,2.0796,-0.57146,-0.13052,-4.1443,-3.0677,-2.8323,
3.3214,4.5455,21.1209,1.7018,-7.2892,-12.5225,11.1635,2.2838,5.0881,-0.77837,6.867,-0.76238,3.6241,-5.7961,
-0.25214,-3.4398,18.8895,2.0819,-10.2261,-18.5193,6.1551,-5.0838,3.8187,1.6792,12.2397,4.1038,7.2633,-2.0736,
10.85,4.4791,8.5969,9.1876,-2.3819,-4.393,-1.4448,0.041675,-0.749,4.4702,0.9003,7.2318,1.5246,0.46114,
9.958,5.8976,6.3939,3.5751,-2.48,1.4142,-2.0815,4.1365,0.018841,2.0329,-9.518,2.7006,-4.5924,-5.1101,
-1.4853,4.3389,13.0006,2.6377,-0.16201,-3.7323,2.6232,5.0936,4.1155,-5.0785,-6.7773,-1.5588,-1.6653,-5.5264,
-1.8783,2.6321,4.0256,4.8898,4.1863,-0.61564,-6.2111,3.8239,-3.8444,-12.9688,-7.8172,-6.7677,-5.422,3.0001,
11.4908,2.7151,7.8814,7.247,-1.1266,9.3028,1.151,7.2099,-0.96265,-0.86243,5.4263,-0.33609,-0.035028,16.5584,
3.8112,-2.5092,10.0594,2.7151,-9.013,2.2369,6.6258,-2.6229,0.78256,0.87631,3.8952,-0.55712,1.6541,7.6109,
0.69049,2.944,9.9382,4.4804,3.0974,0.65688,4.782,-1.0193,3.1457,-1.1045,-0.19445,-1.4876,5.4112,-3.451,
0.4081,6.3828,3.7983,0.11419,5.0807,-0.58782,-4.4226,1.211,-5.4787,-5.1355,-4.2801,-7.9062,-2.3853,-5.4131,
-3.473,6.482,-0.76813,-2.785,-0.52698,3.3041,-5.1218,3.5487,-8.5246,-3.8633,-5.9517,-6.4678,-3.6882,5.5167,
-4.4697,2.4774,3.3751,-0.44893,-4.1106,5.2748,1.6932,5.0228,1.869,0.948,-1.4975,-0.053934,4.0047,6.8732,
4.4754,3.7748,5.5829,3.9166,1.4385,1.1016,-0.33631,-0.58099,4.6491,5.2292,-2.3718,-1.0148,-0.091751,-5.5905,
2.761,5.9589,1.3916,2.2353,1.8346,-2.8204,-2.2443,-4.4025,0.99575,5.8798,-3.1933,0.0099601,-4.425,-3.8088,
-7.7692,0.057501,-1.3432,-1.0321,-5.7475,-4.3386,-0.9046,2.3693,2.6235,2.3937,1.5778,6.5171,0.90239,10.1578,
-3.4464,-0.91005,-4.6369,-2.8986,-3.9566,0.26026,-5.6708,5.6014,0.055694,-0.64218,-1.4092,2.2699,-3.0084,10.9943,
0.61699,1.5549,-3.8765,-4.1702,-3.719,0.24487,0.93618,-1.4829,-2.8399,2.2886,0.12187,-0.27666,-3.7915,-3.6444,
-3.9993,-1.1895,-5.8131,-1.2689,-0.36239,-0.97511,3.0492,0.29285,0.94588,6.2487,-0.6088,6.7298,1.4972,-5.1129,
-9.0625,-11.2415,-17.0334,-6.0135,5.4439,-1.8809,-9.6673,-1.6529,-2.0034,-0.39276,-14.552,-1.8691,-10.6442,3.3885,
-2.4927,-4.541,-7.5758,-3.9655,5.8402,1.3654,-2.5793,-1.7947,1.2503,-0.12822,-6.2066,-2.4799,-8.3178,9.2112,
-0.41518,3.926,-0.85448,3.5031,0.6693,0.80132,0.46776,0.24094,-1.2351,-0.12076,-1.9781,-2.3313,6.2812,1.4275,
-8.585,3.2085,-5.142,4.2572,0.14675,5.0916,-4.863,-1.2198,-8.3918,-3.0056,-9.5722,-4.1196,9.1579,-0.58635,
-9.0342,4.9442,-10.6176,0.62733,2.0666,16.3557,-6.9813,-2.1105,-8.8522,-3.3072,-8.5159,-6.2826,-4.407,6.1977,
-0.056022,3.9246,-6.3656,-0.13321,0.73731,16.0972,3.3195,5.006,2.0428,1.9525,5.2514,-4.7003,-0.52719,11.8514,
-8.4886,-10.4109,0.042138,-8.5611,-4.8508,1.0314,7.6999,-2.7664,4.5716,1.1122,6.1414,-3.2133,2.6377,1.7401,
-8.4612,-6.0503,-0.92426,-7.0831,7.4918,2.2953,3.8634,-7.4206,4.2973,4.4199,1.4346,-0.61034,1.5156,0.67183,
-6.7487,-1.5899,-7.3767,-4.4894,5.3551,9.6294,2.4263,1.4603,0.42403,3.4318,2.5538,-2.7429,0.70128,-2.02,
3.056,1.6387,-0.90836,1.3238,4.7926,9.2924,5.8959,10.7724,2.568,3.9486,5.5334,2.0012,2.8286,-7.4422,
7.2112,3.9507,-4.2281,-4.0581,4.0233,1.5042,-2.1704,-3.853,-4.3348,-1.5907,-6.3675,-0.52922,-5.5361,-8.4417,
1.4763,13.8366,-4.4568,-2.3688,-2.485,0.45009,1.3343,-5.55,-8.8954,-3.9054,-7.9137,-0.49746,-6.6502,1.2238,
9.8237,26.263,-7.8046,4.7634,4.6542,5.9665,-2.3609,1.2907,-8.6024,-7.2863,-8.6439,-7.4573,-11.3126,-7.7679,
23.3342,38.7872,-10.9515,6.6466,18.4749,13.0805,-5.8349,3.8646,-10.2557,-11.9106,-10.2947,-13.0356,-8.9464,-11.8813,
36.0342,50.56,-11.4997,6.0068,31.4664,10.1261,-2.8333,-1.429,-23.7403,-23.4885,-22.451,-17.3147,-12.9893,-9.9632,
47.9721,61.6264,-5.0251,18.1799,43.6784,16.2674,1.675,-0.86128,-23.8824,-20.6329,-19.6581,-12.4194,-17.0307,-15.15,
59.1938,66.9669,-4.0007,17.812,45.7575,16.9786,2.2974,-1.5325,-14.9777,-13.8513,-4.3786,-11.9157,-10.4652,-23.641,
45.0369,53.0672,-6.4115,8.7898,36.9867,9.9341,2.4008,-1.6817,-17.6947,-16.1535,-7.6104,-14.3335,-3.8116,-16.1967,
34.3807,36.6265,-3.376,5.6106,27.7774,1.8665,3.9437,-3.2678,-12.0535,-13.4973,-12.6976,-5.52,-6.7161,-8.7177,
25.5694,23.8241,-1.7272,6.7202,20.8081,1.2721,1.7789,-4.518,0.7213,1.4126,-1.3305,3.9702,-5.3488,-5.784,
9.9353,9.6204,-11.0233,1.7379,13.0524,-0.49123,-6.7637,-5.452,-4.8658,0.0020347,-2.9376,-10.368,-4.7872,-0.37553,
-2.5919,-4.2136,-8.1927,-4.3923,-0.5052,-7.9336,-3.7068,-4.402,-7.7074,-9.88,-3.9667,-19.7483,1.5256,-1.0759,
-4.8463,-5.8888,-5.7732,-3.1647,-5.2954,-4.5653,-2.0379,-5.102,-1.4601,-3.5024,-1.8007,-5.0663,10.5933,-0.047251,
-10.8223,-7.4639,-13.1394,-5.3852,-6.9061,-1.3991,-5.7723,-5.7599,-1.8547,4.4203,-6.9951,-4.2802,0.31655,5.258,
-14.2708,-12.5596,-8.7356,-2.8924,-13.9635,-6.8587,-1.3286,0.12926,4.7646,7.7705,-0.067898,-7.1568,-9.5844,2.7734,
-10.0403,-11.8063,-5.8016,3.5474,-14.0898,-6.9294,0.67957,1.5675,11.2274,8.7503,6.6849,0.98557,0.14949,0.1966,
-16.6682,-10.6155,-6.8997,-2.932,-15.655,-7.4775,2.567,-0.93664,6.2149,6.2971,4.8375,4.7828,11.2277,4.0412,
-21.453,-9.0145,-2.6291,-2.7558,-15.1974,-11.3674,4.3414,2.0118,9.6987,7.3657,7.44,3.5318,14.8926,12.958,
-15.1041,-14.0172,-4.1586,-0.42131,-14.5265,-11.4082,0.94742,1.6502,11.2859,8.6106,9.6447,3.0789,11.3475,13.8673,
-8.1721,-19.2015,-2.2216,0.80903,-11.0036,-1.8059,4.5062,1.7924,8.4398,10.2633,7.8609,7.4737,6.5695,6.0461,
-15.1538,-17.3268,0.080598,2.9294,-10.1027,-1.9387,8.333,5.3,7.6922,7.4781,6.6662,5.3378,3.524,4.9597,
-23.6443,-13.6358,5.6196,0.58472,-23.5965,-7.3658,10.4843,7.6333,3.6155,-0.44214,12.7739,6.705,5.9639,11.1698,
-12.8259,-12.0946,2.6311,1.2728,-23.0243,-0.41614,1.9013,4.524,-5.0373,-4.9951,5.0178,5.5796,2.4728,6.4025,
-6.9944,-11.1277,-4.5164,5.7759,-7.5429,5.1522,-0.38171,4.0118,6.5929,7.1149,1.1016,1.1472,2.0833,4.8133,
-20.6748,-12.8704,-9.5483,0.60888,-7.4515,-3.8338,1.0872,-0.085499,14.8742,10.0623,4.4097,-1.3315,3.8867,10.3089,
-17.8678,-4.8675,-5.1188,1.5364,-3.6302,3.6268,3.9143,2.8119,8.6793,1.2636,0.2885,-1.7338,6.0634,15.4747,
-4.9856,-10.601,-0.7143,-0.7249,-1.7252,2.6863,4.8847,1.4384,1.6511,-5.8016,0.03022,-5.7271,5.4586,4.1823,
-6.8556,-11.6522,-0.91241,-4.2968,-12.4679,-7.3568,2.4225,-0.33516,9.0238,3.9465,7.5002,-1.2861,5.3725,-0.6479,
-10.5416,-9.7478,-5.437,-9.1007,-21.6018,-11.4947,0.1075,-2.4847,11.6154,8.7709,4.881,0.47825,4.8088,3.4883,
-13.2836,-15.4294,1.1558,-9.0366,-22.2339,-13.6975,8.7782,-3.2995,7.0621,4.8706,6.0344,3.824,9.8229,4.2434,
-13.6916,-14.2629,3.7378,-4.8792,-11.0177,-10.2243,8.4927,1.478,5.9152,4.8191,10.2519,8.1741,5.6183,-2.037,
-8.773,-16.0585,-1.548,-5.3096,-6.7414,-10.334,3.8855,-1.7444,7.7297,6.6994,9.3956,6.4781,2.6299,-4.5661,
-5.3539,-22.3256,-2.9011,-1.1344,-16.4596,-17.4265,6.0627,-7.4241,5.338,5.8153,4.9757,1.7513,9.7027,2.9389,
-10.3353,-16.1658,-3.6914,-0.10246,-17.8826,-14.9351,3.2884,-4.0866,4.5353,3.5382,-1.1079,0.2,10.0844,-2.0586,
-8.5103,-4.8315,-2.747,-1.7835,-3.0713,0.060998,1.8863,2.6666,10.2887,5.977,4.5022,3.8034,6.3463,-5.55,
-8.2407,-7.6751,-7.6438,0.49263,-0.23596,2.8291,-1.3604,2.2656,6.056,4.4135,3.0268,-1.4865,4.2783,3.7006,
-21.8462,-12.758,-7.426,-0.26005,-14.3218,-11.4406,3.3007,-0.039708,3.5232,8.7278,1.1582,1.254,7.1549,3.2378,
-29.3326,-11.0286,-3.124,-1.6903,-27.5623,-16.6592,2.6208,-5.34,5.7224,10.6147,4.4631,7.4453,-0.98719,-2.7411,
-13.4726,-1.4489,-8.4802,2.0261,-11.8085,-1.5597,-6.455,-1.4042,4.1738,5.398,-0.38441,0.0087231,-5.0258,11.5234,
-6.0363,-0.63879,-7.7302,-0.74631,3,12.6339,-1.4877,6.6341,4.6465,2.9052,-0.60208,-8.9096,3.7121,16.0137,
-15.0741,-7.5903,-2.2051,-4.7989,-2.9648,0.30648,2.6989,-2.2001,5.0906,4.9001,4.9777,-2.3495,3.7304,0.95289,
-10.5543,-8.3398,-3.2777,-3.788,-5.438,-0.91674,2.296,-6.1655,1.1702,6.2933,7.8125,6.2276,0.85546,-0.42983,
-7.2697,-5.1885,-3.8041,-2.3557,-2.4604,8.538,3.3633,2.1584,0.8588,6.6388,1.7999,2.7207,2.4911,8.5138,
-15.7516,-7.5283,-3.8173,-3.9016,-7.3745,1.0359,1.4743,-0.62262,2.4945,5.9991,-0.95965,-0.094115,3.5465,0.53116,
-19.386,-14.0662,-0.45456,-7.2827,-19.2241,-10.8362,4.5191,-3.2361,3.5499,1.0601,5.6061,8.8298,1.6467,-1.1877,
-10.751,-10.0888,-1.6326,-7.5686,-13.0092,-3.6785,3.525,2.5017,6.9523,1.7194,-1.7201,11.4331,-1.1032,10.6937,
-8.9007,-5.868,-7.5602,-10.7299,-4.7568,3.0501,-1.7482,-2.2277,8.2224,3.7858,-7.1605,4.7215,-2.7242,9.3292,
-8.3669,-4.5523,-1.3222,-4.7837,-8.328,4.3132,2.2133,1.2797,7.2469,0.66593,6.7667,3.9561,4.6698,-5.2101,
-3.5265,-1.869,-4.1349,4.6619,-5.9002,8.3927,0.63428,10.8439,2.9557,-0.82029,5.3963,0.8262,8.728,-0.55918,
-5.0017,-1.0335,-5.5741,4.1417,-1.4483,7.1662,2.2835,5.132,2.0555,5.7369,-0.47105,2.4643,5.0713,13.5744,
-10.2452,-4.5869,-4.9987,2.2059,-8.3513,-3.1457,-1.469,-6.986,-0.71943,3.7054,-1.1657,5.9319,-1.2586,6.8551,
-8.9074,-7.445,-3.9756,4.7249,-8.0914,-2.2343,-1.622,1.869,6.3138,0.34985,6.3758,5.3348,2.4321,2.3462,
-13.4344,-12.0597,-1.0858,-1.5844,1.7943,2.4798,2.5729,5.8545,10.9965,0.08812,6.7169,2.3634,2.5274,13.5338,
-11.9054,-11.0952,-3.1898,-7.0329,8.1941,4.9821,3.6238,-3.4149,5.275,-1.6049,0.76978,-0.42954,3.5806,8.1421,
-11.4321,-15.4912,-4.6856,-7.3338,-5.072,-1.8248,2.2011,-5.8615,0.86114,-3.6777,2.8928,-0.1628,10.8376,-6.4465,
-12.6746,-15.0434,0.41601,-0.62707,-2.8392,1.177,-1.7871,1.7212,4.1837,-1.5286,4.6476,1.293,4.8849,-0.87751,
-2.0317,-2.3307,5.9347,3.5079,11.4311,14.8451,0.0073063,6.1973,4.1741,0.73224,2.1996,-0.47181,-4.8082,13.2751,
0.7413,0.46027,9.194,-2.2462,9.1787,6.9646,5.0681,-0.68252,-2.1024,-0.51698,0.3804,0.76179,2.9521,9.4659,
-4.6058,-7.2801,8.6424,-5.0039,-4.8693,-7.5533,0.42568,-4.0156,-1.4943,-1.4498,-4.4631,4.5725,8.0776,-4.5994,
-4.0883,-10.9404,13.6677,-1.57,-3.3721,-7.7025,2.0871,0.32296,3.1749,-7.8706,1.3485,2.6111,3.0135,-3.6003,
2.1828,-4.7406,15.9809,-1.235,8.1582,3.6057,5.5776,0.54432,-1.5951,-17.7624,3.437,-1.6431,1.6276,1.6771,
3.0155,0.3643,13.5755,-2.607,5.2583,2.4252,1.3863,-0.93437,-2.9454,-18.6251,-3.036,0.86536,2.976,4.9507,
-4.6373,-4.2373,16.8583,0.20054,-9.1572,-6.1564,2.5084,-1.6017,1.3286,-16.7842,3.6536,4.9113,1.1102,2.4845,
-11.5894,-7.8395,14.401,0.67044,-8.728,-3.3765,2.8398,-1.5056,-2.6075,-20.116,4.3988,1.2421,-2.8128,-4.4135,
-15.2328,-6.8872,12.0907,-1.7799,-6.2761,-0.28181,1.2232,-3.3434,-2.9329,-12.6425,-1.1678,2.6134,1.6943,-5.5949,
-9.7391,-4.3043,14.9807,0.49605,-5.6586,-8.2186,0.42689,-5.312,3.7505,-8.2681,-1.3387,5.1081,3.2798,-2.6077,
-0.47813,-4.046,16.492,0.94868,3.84,-10.1357,1.8475,-4.9933,2.0797,-14.5209,-1.2584,1.4272,2.1192,-3.8975,
2.4431,-5.7315,16.9487,-1.0369,4.5734,-1.8147,2.2186,-5.6575,-2.3839,-15.0959,0.74485,-2.9967,3.4378,-8.4843,
9.5276,4.7355,13.0395,5.7745,10.0838,5.5252,-0.32485,-3.8721,2.5801,-9.3692,3.111,-4.7449,-1.5885,-2.6724,
5.8222,9.0309,5.7494,1.3304,13.094,2.5419,-1.0285,-2.9166,0.2559,-10.4945,2.2012,-10.486,-4.6269,2.0675,
4.0268,7.0426,9.2606,0.76841,7.9703,6.728,3.3718,1.1146,-2.6517,-11.3109,3.5151,-7.9289,2.3994,4.3538,
9.0879,5.1738,6.7768,5.543,4.5995,8.2525,-0.20499,-3.7726,-1.5288,-14.0067,-1.0345,-5.5249,1.2916,0.2357,
6.8551,8.479,8.5396,3.523,0.22597,-0.19665,0.53044,-6.1975,-0.71392,-13.4075,0.23259,-1.5783,0.97289,-6.7681,
7.8901,9.8984,7.5453,2.3477,1.6591,0.77948,-1.4296,-0.04065,-5.0094,-11.1567,-2.673,-2.9294,-3.9057,-4.9153,
15.6114,6.412,6.1282,2.2064,8.79,10.3737,0.58439,4.7816,-2.2987,-7.1133,-1.5492,-4.6818,-8.4921,5.0201,
5.7569,-2.4081,4.5555,-5.8795,-4.5117,-1.0948,-0.65574,-2.9769,1.4549,-13.1938,-3.6252,-8.0161,-9.6696,-0.82445,
6.8577,4.9672,5.2465,0.74026,-10.9899,-3.9216,-0.6164,0.094244,3.2958,-11.4378,-2.9257,-3.1968,0.55157,-5.1133,
6.9284,6.5971,4.4495,4.552,-15.151,-1.276,2.3129,0.57075,-3.1687,-7.8593,-1.3037,3.2618,1.4826,-10.1094,
3.8612,-2.2348,2.9772,5.4842,-12.0727,1.4517,1.4507,-2.115,-10.4504,-11.4855,-8.6977,3.307,-3.6681,-9.2618,
10.8601,-6.4393,4.727,7.565,-0.74331,6.1851,1.3639,-2.4703,-8.3774,-11.7605,-6.7298,2.6264,2.3364,3.3452,
15.5114,-3.1602,6.8538,6.6294,1.7116,2.4397,1.2823,-4.2501,-3.0542,-5.2701,-1.0232,2.951,4.1246,3.6266,
16.9908,10.5268,4.5139,4.7854,7.3935,6.6317,-4.5797,2.2715,-4.3172,-3.0261,-8.1926,-3.975,-4.3176,5.3372,
8.4996,8.2079,1.592,-1.5273,7.6733,10.8135,-1.1714,6.7149,-8.6375,-12.2441,-5.5319,-10.2439,-1.4074,11.5249,
-1.8923,-6.3845,-3.0828,-6.9793,4.0794,2.6929,2.5143,-2.1241,-7.3963,-14.161,-3.0304,-10.8346,7.1132,-0.97715,
4.0058,-3.2297,1.9224,1.1523,10.1011,4.4595,4.2916,-3.9249,3.6527,0.78865,-1.4027,-2.9537,2.83,-10.5595,
3.2833,-3.0357,4.2174,1.5653,9.9772,3.7098,2.1062,-3.2072,-0.42305,-3.2355,-1.8003,-1.3304,-9.3911,-6.5517,
0.91711,-5.5051,-0.133,-6.0004,11.0658,2.7643,-0.67174,0.11872,-8.3514,-11.959,-6.7539,-1.4916,-1.3559,2.2775,
2.3083,-5.1748,-1.5713,-9.0149,6.5455,5.9729,-1.1134,1.5574,-4.9578,-5.4569,-7.313,-0.43775,4.992,5.033,
9.8828,2.3663,2.3796,1.1668,9.0451,11.3989,0.39947,-3.8385,4.0165,2.1011,-1.0894,2.9627,-0.12801,6.1775,
9.2896,2.2241,-0.17352,-3.7237,9.4664,4.9301,-0.5886,-11.8031,5.2216,-0.43529,-1.5062,0.37462,-0.12056,0.022007,
6.8043,-6.1038,-0.16334,-15.0692,0.22159,-0.1857,0.89275,-3.3819,-0.39414,2.0012,-0.9337,0.35237,6.6358,-3.3535,
6.8782,-4.7735,0.81102,-7.8983,-4.1303,6.0922,1.3213,4.0516,-4.709,4.7734,0.086415,3.2235,1.8991,6.0065,
2.1267,-1.1126,2.2082,-0.19359,-7.2569,5.2443,2.6883,-1.9761,-2.9802,0.14868,2.9737,3.994,-2.0712,9.0205,
-2.0985,-2.7329,2.3169,-2.8333,-5.134,-3.0239,-0.60623,-4.0269,-3.0426,-4.4398,-0.82032,5.4418,3.5964,1.0077,
-3.4186,-7.8718,-3.1246,-6.5199,1.4408,-5.7348,-2.4978,0.071347,-1.896,-5.1375,-2.6991,5.1151,7.7197,1.9114,
-7.3106,-11.979,-3.6602,-5.8875,-1.7794,-7.5601,0.30291,1.2721,0.86912,-8.9268,3.4882,-3.6278,5.569,4.9299,
-2.2927,-4.7523,-1.7538,0.49128,8.6917,2.7755,-1.8844,1.4368,1.5399,-6.222,4.0023,-7.0255,3.5477,2.4645,
-4.5652,-9.2879,-0.20235,-1.9483,8.6521,5.9834,-1.7714,-2.5058,3.3761,1.8641,3.2802,-1.7833,2.3705,-1.0573,
-13.933,-18.3718,1.7378,-2.796,-2.4725,-1.6067,2.1911,-3.3196,7.5117,6.0908,6.4571,5.5543,-0.18211,2.3803,
-15.0247,-10.0386,-3.1868,1.2282,-2.3237,-1.0283,1.5777,-3.6023,7.5429,6.6892,5.5878,4.7391,1.2751,3.2014,
-11.7129,-6.0616,-4.9235,-2.2197,-8.451,-4.8228,0.036991,-7.7247,6.6086,6.77,3.3246,4.937,1.6807,-1.8107,
3.0899,-5.9391,-7.2794,-0.39957,-1.9182,-4.2922,-1.6527,-2.1998,4.0427,9.0151,-4.8289,4.3995,-9.2661,2.395,
11.2195,-5.1006,-9.735,2.9991,2.0531,-0.17854,-0.10703,4.6809,-0.53841,5.5819,-7.4314,-3.0955,-9.6743,-1.1229,
5.967,-1.1796,-3.6072,4.5064,-6.0239,-2.8189,3.0324,3.1947,-1.7114,0.18533,0.48625,-6.0428,2.2344,-11.4198,
8.5015,5.1581,-2.9089,6.1642,0.60453,-1.6859,-0.04159,2.0392,-1.1263,3.0667,2.3853,-1.3419,2.5822,-3.9857,
12.8117,6.2949,-2.2524,9.1688,0.5678,-0.13851,-0.039095,7.2195,-1.0587,3.3647,1.2778,4.0413,2.4273,3.9662,
12.7661,7.6042,-0.91175,10.3057,-9.348,-1.3353,-1.2418,7.9914,-4.1285,-1.8987,-2.896,3.0757,3.0048,-6.154,
10.3131,11.2455,-0.13437,9.4461,-6.1362,-0.050079,-0.44417,8.7169,-2.1938,1.3485,-1.5171,4.0962,-5.6114,-7.4717,
2.9457,7.6785,-3.9825,8.3976,-1.9114,-2.9394,-2.3459,6.7479,0.83015,4.1599,-1.9083,2.4044,-7.6851,-2.2029,
0.35857,2.3973,-9.0464,5.0015,-8.5454,-3.7271,-4.1332,2.0045,-1.63,3.9105,-4.6861,-1.1141,4.3454,0.82153,
-3.2784,-0.39762,-2.9595,1.086,-15.0221,-3.2625,-0.26974,0.19697,-1.2908,8.2556,3.0669,3.532,3.8437,2.9414,
-3.5636,1.072,0.59203,7.7693,-2.5521,-3.0668,-2.1818,3.0777,0.71439,8.2422,2.8829,5.7302,-5.5459,2.7649,
1.4705,1.4896,-4.2642,8.267,4.8319,-1.9189,-3.0152,2.4106,1.6359,6.7834,-3.5571,1.0481,-3.7674,2.599,
-3.4382,0.91811,-2.5619,1.5047,-6.545,-3.7317,1.5043,-2.5545,2.0194,7.8224,-0.45089,0.021112,-0.64903,4.371,
-7.0886,-0.10108,-0.48019,2.3785,-8.0808,-8.3283,1.4138,-4.3292,3.8267,9.7634,3.9143,2.9121,3.2465,9.4117,
-6.1811,-4.9155,-0.45115,3.1999,1.5629,-8.7927,2.2931,-5.0335,6.0074,9.1774,5.6078,3.7015,9.3185,8.8467,
-6.5331,-1.4871,-5.9677,-1.5714,6.5313,-3.2035,-0.49561,0.33015,3.9597,5.9756,-2.2005,-1.0999,3.2158,0.84458,
-0.83849,5.3511,-6.0916,-1.4771,11.4416,4.7015,-1.4302,6.0949,2.7583,5.6171,-4.9605,-2.9621,0.61269,3.686,
-2.7168,1.1731,-3.3159,1.9855,6.4168,5.3833,1.5481,-1.5021,-2.2279,4.7981,-1.2889,-2.3024,2.9861,4.4287,
-6.169,7.6109,-2.3939,6.4459,-2.8861,6.7478,2.1784,3.65,-1.3711,8.1254,0.95786,2.8972,1.1199,9.2249,
-11.8244,4.9846,-3.4555,-1.4127,-15.0054,-4.0214,-1.5677,9.4565,0.88032,8.3613,0.65942,4.4106,-4.4909,11.3225,
-6.7764,1.3113,0.12604,1.5644,-9.7666,-7.6368,1.4186,4.0686,6.1299,13.162,2.5478,8.484,1.081,6.3046,
-6.8518,2.6789,-6.148,1.4705,-3.8779,-5.2499,-0.5947,-2.9244,6.7264,12.8542,-0.015179,3.1547,1.0161,-0.34022,
-5.4765,-0.85603,-3.8507,-4.884,-5.5737,-5.899,0.88701,4.9641,6.805,10.6369,2.8785,2.0014,-0.97283,5.9469,
1.1186,-5.6254,-1.6915,-3.6271,-3.793,-5.0631,0.35186,4.6662,2.0579,5.1785,-2.1149,2.8456,0.53134,9.9284,
-5.2153,-2.8775,-4.0004,-1.9634,-9.3502,-2.8314,1.7768,0.5301,-3.8499,1.4931,-4.8803,-0.69982,4.838,2.1021,
-10.4458,3.3209,-6.4117,-0.6401,-10.9581,-0.49165,-0.016829,-1.6711,-0.0037012,5.983,1.4383,-3.3087,1.8964,-5.0136,
-0.66022,3.1214,-3.1347,2.7725,0.30441,-0.94477,0.94828,-14.586,7.7095,10.4445,7.6183,-0.21788,4.193,-0.85667,
-1.1025,-2.3685,5.2481,-0.28634,0.28615,-7.1546,6.1936,-26.2443,3.8725,2.587,7.1612,4.1335,9.2436,1.6049,
2.579,6.6917,5.1747,1.9,8.7051,3.1566,2.207,-20.0904,0.98906,2.1908,1.6703,0.27008,0.2533,3.1958,
8.6908,10.1466,-3.8129,1.786,13.0031,7.7879,-4.6743,-20.8132,-0.034614,7.362,-2.7687,-6.977,-7.9566,3.9684,
9.6158,4.7173,-4.0663,0.7152,9.8125,-0.39189,0.42661,-21.0104,-1.4786,4.5099,2.2183,0.19033,0.71573,2.7662,
8.3158,2.2649,-4.0631,-0.53323,9.9469,-2.0558,-0.80405,-17.5804,-3.0773,1.1061,2.8079,1.8664,3.3241,-3.9075,
4.9241,3.575,-3.3376,1.4272,1.6371,0.9598,-0.27364,-19.4183,-2.4105,4.4139,-0.25286,-4.5124,3.1244,0.1831,
3.4238,6.494,-7.2347,-0.82807,-4.0048,3.5533,-0.016258,-16.566,-2.5068,2.9438,-8.1914,-8.8214,1.2497,9.5721,
3.4596,5.8636,-5.1131,-4.8755,-2.077,2.6174,1.6717,-5.2075,5.1156,5.419,-3.6024,-1.302,-1.9585,1.5262,
-1.0866,2.1371,-0.46827,-3.6189,-3.3984,-4.7707,1.5716,-7.7878,4.3265,8.4681,3.8444,4.5605,-4.7333,-4.3502,
-0.057499,5.3833,-4.2966,1.4185,6.9284,-2.0743,0.031083,-11.1769,-0.7538,7.4776,-0.72459,1.3943,0.85336,8.4443,
-3.9104,1.6859,-6.4489,0.36953,10.3691,-2.4318,0.029218,-7.1318,3.6302,7.0294,-0.68111,1.7931,8.033,3.1169,
-3.1936,-2.2714,-6.0617,0.34759,5.8908,-5.6601,-2.3824,-9.1138,4.3765,8.5356,3.2164,5.5421,6.105,-4.7826,
3.9876,-2.3763,-6.9031,-0.87833,7.2243,-3.1511,-0.070556,-12.1826,-0.94755,2.4801,3.2641,-0.33426,0.19485,9.6043,
-1.0721,-5.126,-8.4173,-5.6466,10.1651,-3.4442,1.8616,-9.0413,0.072943,-2.9716,-2.2346,-8.0272,1.1473,7.7021,
-5.3463,0.96587,-8.8764,-3.3794,13.8937,-1.7915,-3.0705,-8.981,2.4789,5.4016,-5.4747,-6.0995,2.0425,-6.86,
-0.92798,3.0773,-6.6568,0.92053,9.9268,0.48536,-0.71692,-13.986,3.5353,10.6214,3.2896,-4.5281,-0.73136,-2.7123,
0.091792,-6.2661,-7.2215,-1.5446,3.0645,-2.436,0.29019,-15.5567,0.91324,-0.13905,1.6462,-8.113,0.75855,-1.5855,
-1.8421,-2.5159,-6.306,-4.3447,5.291,5.4227,2.2012,-6.9108,-0.10611,-2.0591,-2.3092,-4.252,6.4978,-5.347,
-0.28512,5.348,-5.4455,-2.1556,9.3121,14.7385,4.479,-4.0858,-2.992,4.8131,0.23975,-2.5504,-3.0508,3.1688,
8.4086,6.4729,-8.0113,1.3482,10.1991,12.4079,-0.60997,-5.2869,-1.3663,5.0062,-2.6672,-6.2542,-2.3858,9.2452,
5.494,1.2643,-5.6024,-2.5891,-1.982,-1.8339,-2.5016,-4.9697,0.16198,0.84948,-1.5428,-2.9864,10.2903,-1.4324,
2.0311,1.9116,-1.6506,-0.74672,-4.032,-5.8215,0.29986,-1.0558,-2.0171,-0.88848,-0.24517,0.80841,4.6115,-7.3718,
1.1861,1.5557,1.5817,0.50315,1.2714,-1.3746,1.9689,0.21257,4.1297,3.7443,2.9028,2.4469,-4.1011,1.9883,
-4.9106,-4.5632,7.9942,-8.4447,-5.7948,-3.9432,2.5741,-2.9337,8.4616,4.243,2.4881,3.9873,-0.72157,4.5201,
2.1329,-0.43302,9.9252,-6.9741,0.3375,-4.6709,-0.47288,-0.829,3.1332,-1.3142,-2.4819,-0.59025,-0.19635,-1.5357,
11.4047,-1.1302,10.0523,-1.9761,6.825,-7.042,0.27863,-0.53852,-3.5625,-5.3329,0.80029,-5.6167,1.5029,-7.4693,
9.5154,-2.7494,17.4032,2.24,7.1386,-4.9325,9.1797,-2.1937,-4.0719,-0.43343,7.26,4.1205,10.8125,-1.4773,
-4.5531,-5.9591,17.3231,0.65912,5.2642,-2.2262,7.6649,-3.0261,-5.2736,-1.3715,2.4858,7.7294,5.3433,3.9138,
-8.8592,-7.2883,13.6326,-0.58526,5.6713,-5.2256,5.0358,-2.6031,-1.8241,-2.0121,3.06,6.0608,-1.0029,0.54591,
1.0719,-6.61,6.3067,2.1009,7.5002,-7.5637,-1.2919,-4.6166,0.93687,1.2416,3.1169,1.1174,-2.148,-4.5485,
2.2131,-5.9722,9.062,-0.67597,5.8451,-4.9404,-1.9375,-0.72393,-1.2883,2.8546,2.2073,-1.6005,1.1146,-4.9987,
-4.6684,-1.7577,14.3026,-7.8665,8.3871,-3.6799,0.58911,0.2836,-2.1755,1.7192,-1.7813,-7.7712,3.94,-6.1448,
-0.29093,-3.3395,7.4189,-9.0817,10.5346,-5.6287,0.31233,-6.2414,-0.35777,1.3746,-3.8441,-12.8485,-2.3224,-6.0176,
11.0545,-2.8979,14.4454,-0.10092,3.8772,-1.6754,3.9092,1.6052,2.315,4.9078,2.4123,2.0224,-5.3163,3.2618,
7.9811,2.5786,13.0967,-0.57679,-5.5145,-2.0568,-4.52,3.437,-3.1265,6.5415,-5.4452,6.3603,-7.8894,-2.7185,
1.2357,4.834,6.0444,-1.5065,-3.7374,-4.8259,-1.3568,-1.5894,1.8818,11.4517,-2.2264,-0.2883,-1.1495,-10.7501,
-1.49,-0.99966,2.5483,-0.69276,-1.344,-7.6694,1.3762,-1.735,3.938,6.6672,2.4869,2.3801,-1.3215,-3.1157,
7.5173,5.0861,1.1903,-2.8206,3.3162,-1.6658,0.5705,4.3944,0.56849,2.6515,-4.17,4.4067,-3.8935,11.1712,
4.1742,5.7448,1.6008,-5.0615,-1.7035,-3.976,1.9821,-0.2076,0.53438,5.385,-4.4022,-4.5348,-2.6961,-1.912,
-3.0662,5.1591,4.1559,7.0523,-2.3242,-3.4965,1.6222,2.456,8.938,9.1592,4.78,0.79895,0.11725,-10.233,
-11.8,1.2344,1.2556,3.4959,-5.7999,-1.5992,-0.16215,4.9599,2.3764,2.102,-0.085844,3.8843,0.35141,-0.70071,
-9.405,1.4011,2.3849,1.1168,-2.8011,1.6295,1.0526,5.385,-2.8281,1.2527,-2.7325,-0.44637,0.57106,4.8843,
-2.574,5.6556,5.1346,9.7267,3.6337,4.9064,-0.45655,5.0621,-0.72999,5.998,-1.1225,-0.90175,-5.248,3.1452,
-6.035,5.5572,9.8877,7.9382,-5.9843,2.4424,6.5603,7.4099,1.483,1.5408,4.9709,3.7321,-0.35338,2.2336,
-3.9856,2.0903,3.7513,1.4359,-6.3481,3.0192,3.9975,5.7601,2.1169,-7.9516,2.0211,-2.5174,3.2832,0.41232,
5.6535,2.6882,2.8029,5.4476,1.5046,9.346,-2.7498,3.2453,4.1595,-3.8591,2.1412,-3.0892,-0.04724,1.5929,
6.5198,5.1783,7.6966,8.254,-5.5754,8.0621,-1.8617,2.3274,-1.152,-0.012388,2.2535,3.1214,-5.1059,0.29224,
6.3696,7.5186,-2.1652,3.1795,-1.6254,7.8194,1.3835,1.9468,-5.6622,-2.6627,-6.7993,-1.1632,-5.0405,-2.3768,
0.92573,3.4521,-9.9895,-2.5554,1.1232,7.1092,0.5771,-1.3035,-1.707,-5.6365,-7.1147,-8.0833,-2.5689,-8.2598,
1.3521,8.0657,-5.5337,-1.9197,-0.39044,6.6827,-4.7602,-0.26093,-0.15832,-5.2983,-4.7597,-5.6696,-6.2711,-7.2823,
6.8146,9.7509,-3.9964,-5.4199,-0.12605,1.702,-5.6794,1.442,-0.39025,-2.3288,-6.1613,-1.2321,-9.0284,-6.122,
7.1289,4.5863,-6.408,-3.8896,0.6051,-1.051,-1.7234,-2.2598,3.7307,-0.019705,-4.1042,-2.8456,-4.871,-2.6214,
5.9778,6.9623,-8.1926,4.2975,0.8093,3.109,-4.2711,-2.3656,2.784,-4.1163,-4.0993,-8.2185,-0.96332,4.5258,
-2.8166,5.8221,6.0377,1.3885,-10.0851,-4.067,4.9032,0.42789,1.4121,-7.0024,3.1369,-1.6994,1.7456,-5.1458,
-1.4425,7.1593,6.3981,0.58209,-2.9727,-3.0998,2.9216,2.5712,-2.2882,-3.9314,-2.1132,3.946,-4.8669,-13.7553,
5.1517,14.6837,-3.386,6.0905,8.5341,9.378,-4.7258,6.5145,-6.2485,-2.9724,-6.5659,0.57548,-9.1544,1.17,
-2.8701,5.608,2.1203,1.8692,-5.9572,3.9955,5.1992,3.2315,-6.8375,-7.6143,2.9871,1.9877,2.4821,11.3436,
-4.3851,-0.27257,1.7516,-0.89498,-2.9487,-0.34204,5.1278,0.38609,-1.848,-2.0962,-0.32563,1.1451,6.4305,4.1551,
2.6266,3.1185,1.6463,2.0515,1.5668,2.0888,-3.3744,1.327,3.5653,3.8144,1.1399,-2.2979,-3.5965,0.53155,
11.1459,2.9316,4.4403,1.9286,0.99058,1.9633,-3.1722,-1.6449,-2.4329,-5.0913,5.4101,-3.606,-1.9342,-3.8389,
8.0673,-0.1366,-5.4673,-7.3464,7.6798,-1.0468,-2.0177,-11.6693,-11.9282,-17.3191,-6.4834,-12.067,2.5204,-12.7674,
0.11118,1.5586,-5.3805,-7.1468,6.014,-3.1534,0.27272,-9.2822,-7.5973,-14.593,-6.3356,-12.0661,-0.28216,-11.2782,
9.5047,2.6701,-4.3345,1.7184,6.3763,0.65146,-3.3588,0.67499,-3.0439,-6.2454,-2.3398,-6.7622,-3.8809,-4.0938,
12.7908,0.099804,-2.1463,4.5073,1.6554,4.4688,0.69909,6.901,-0.93303,1.3597,0.69261,-1.0542,0.69075,-2.8843,
2.6232,0.81695,-1.2944,2.0675,-5.916,2.0312,-1.0303,3.3537,-0.15392,-0.40884,-1.0359,0.21407,-2.9663,-6.3264,
6.3222,6.0706,-1.6986,-2.3949,1.1879,1.9098,-1.4504,0.74234,-2.0729,-0.86625,-1.4557,5.0219,-0.37777,-0.6442,
8.5942,-0.31989,-2.3199,-6.3487,-0.57085,-1.8204,4.18,2.3848,-7.4923,-4.9119,-0.64571,7.3719,1.8138,-2.7749,
4.9452,1.3868,-7.2421,0.057952,-4.1518,-0.98805,-1.6142,2.001,-1.499,-5.3403,-2.7759,2.3501,-4.8027,-5.2598,
-5.2336,5.8831,-7.0488,1.2595,-7.0359,0.27629,-4.1687,-2.2167,7.5088,3.898,3.8979,4.8604,-0.89936,-3.2572,
-12.6322,3.1202,1.0871,-1.7083,-12.8805,-4.5608,2.8301,1.291,-2.1005,2.7005,8.003,7.943,3.0112,-7.3998,
-1.5104,0.28142,2.7087,1.5272,-9.4566,-4.0462,6.2757,7.7206,-5.108,-2.5237,3.907,5.7792,2.1072,-7.6792,
1.7135,-7.6894,-5.4073,-2.1796,-6.7198,-5.0084,3.2479,-2.1424,6.5269,3.6535,4.3957,6.1556,-0.67011,-1.6746,
-1.5225,-6.5049,-6.288,-4.2178,-5.1116,-2.0566,-2.0085,-8.5216,3.484,7.5319,2.445,4.0993,-1.353,2.0411,
2.6662,1.8391,2.043,0.61458,-6.4921,2.6461,-0.68265,-0.53849,-6.607,-3.7663,2.5392,1.2018,1.8616,-2.1788,
3.9522,3.1752,-0.97182,2.9881,-5.1385,-2.3332,1.2863,0.45791,-3.8007,-9.8071,1.9047,3.0581,-1.6247,-8.3148,
0.82325,1.0563,-11.0366,1.8447,0.95464,-3.6392,1.2093,-5.8358,3.6584,3.797,-3.0301,1.4286,-4.4196,-2.0311,
-3.8057,-1.1765,-6.7588,-1.3993,-3.2002,-4.6259,4.27,-7.6551,2.7158,9.1126,-1.1608,-0.34461,-1.5031,4.5985,
-5.5057,0.82255,-4.9077,0.13073,-5.9005,-5.3129,1.1211,0.034831,0.62443,4.7092,0.35442,4.0146,-0.93117,0.9479,
-6.3805,0.050065,-7.746,-0.60024,-5.3053,-1.8604,-0.1508,4.6123,4.2026,5.6322,2.9849,4.9788,-0.15171,-2.2422,
-4.0694,-2.3631,-4.8711,-5.8664,-7.3971,-3.1951,1.3045,-1.931,4.4324,8.1868,4.734,2.2699,1.3037,1.2668,
1.2362,-0.53428,-6.7483,-2.8636,-1.8923,-6.1366,-0.94315,-3.5026,-0.41307,7.4544,-2.0577,0.92869,-3.3545,3.8421,
3.0904,5.7645,-8.2713,1.6468,4.488,-0.94794,0.55947,4.9025,-3.7625,4.5967,-1.9345,1.8371,-5.5632,0.71926,
6.2792,11.2035,-6.329,1.5482,7.5934,6.34,-2.3664,7.0187,-4.5009,3.3568,-0.85386,3.1729,-4.7472,2.1221,
3.9741,0.40812,-4.9852,0.49077,-4.4316,-1.7534,-3.6709,2.741,-4.231,4.6015,0.64294,3.4647,-0.12429,7.7792,
-6.8695,-12.1496,-6.6145,-0.020381,-14.2888,-11.7713,1.8522,-0.79771,-4.4593,6.7357,4.9429,5.6667,5.186,5.8664,
-6.6983,-10.2154,-6.4581,-1.2245,-12.7081,-10.8241,1.0182,-1.4727,-2.9865,7.5369,4.8878,5.0862,5.1158,5.7558,
-7.0193,-9.3619,-7.2759,-2.8382,-11.7047,-10.4156,-0.73012,-2.1077,-2.5663,7.8076,4.3531,4.0576,5.0499,4.6871,
-7.321,-7.5949,-7.0804,-3.8728,-10.7614,-10.0316,-1.8916,-2.2218,-1.2071,8.0625,4.3333,3.5732,4.9878,4.1649,
-6.882,-5.6932,-7.1377,-4.6045,-9.1516,-8.9476,-2.7422,-2.0887,-0.17053,9.0248,4.555,3.3586,5.6527,3.9153,
-6.7103,-4.1465,-6.9506,-5.5337,-7.8794,-8.17,-3.3008,-2.6865,1.0448,9.6883,4.5229,2.9163,5.5547,3.9211,
-5.3433,-1.9696,-6.0512,-6.1656,-5.4785,-6.2335,-4.0666,-1.5615,3.3922,11.5172,5.6978,3.7052,6.6677,4.1677,
-5.5051,-6.1897,-4.7243,-6.76,-9.4885,-14.0547,1.9615,-8.6986,5.5988,13.2363,4.8735,1.0728,1.4469,-5.7233,
-5.6567,-12.5672,-4.9227,-2.0156,-8.4368,-17.0678,1.8443,-4.8022,9.1197,13.4064,6.0274,5.3467,-3.4606,-6.3438,
3.6007,-8.1973,-7.7609,-2.1356,-0.94074,-10.4996,-2.3637,-0.41629,4.4752,11.8791,3.4966,6.2312,1.3268,1.0267,
4.349,-4.3315,-7.7771,-10.2027,-7.1513,-13.2441,-3.1862,-9.0684,1.7961,8.7558,0.39473,0.55471,4.6216,-2.8913,
3.8464,-2.3846,-8.0336,-11.7599,-7.9277,-15.1013,-6.6107,-6.8373,3.8572,10.8818,-2.2807,1.2446,2.1749,-6.3334,
7.2315,1.8563,-5.3825,-6.4745,-1.426,-2.8665,-3.5625,7.3117,2.421,14.3267,3.8821,6.7135,-0.12473,0.072127,
2.2181,3.4319,-3.8545,-1.0246,-4.4737,2.8488,-3.108,9.0419,0.10633,10.3334,6.3001,1.2492,-2.2866,-0.1734,
-0.084366,-0.38919,-5.3102,1.2062,-7.8205,-4.7937,-1.2341,0.54591,3.2337,10.4365,0.86106,-0.030783,0.98382,-5.7064,
-0.80198,-9.2837,-7.6429,-8.7483,-14.3409,-18.2446,1.4913,-5.9946,0.87026,7.159,-2.3239,2.1405,-1.2441,-7.051,
5.2715,-8.4859,-5.9793,-6.5364,-14.2041,-18.355,0.67867,-0.57343,2.9874,5.0424,2.8766,0.32457,-6.2314,2.7718,
-1.3116,-15.2074,-5.1383,-4.2158,-13.3516,-16.7715,0.63818,-1.0212,1.8441,4.2577,6.5606,-0.17707,-4.411,-0.28676,
-10.3919,-16.2231,-2.9018,-3.4809,-6.284,-9.4987,1.5638,-4.8163,-5.0155,5.4485,3.2749,3.6899,6.4585,-7.9823,
-5.671,-1.1497,-2.0048,1.7896,-3.2558,-1.457,-0.69923,-1.3943,-3.0273,7.7727,1.3907,0.33506,5.3481,-4.3699,
-2.1973,4.5836,-0.19732,1.9232,-11.014,-7.3951,1.0299,-1.0692,2.6979,5.6196,3.4769,-0.88988,-5.3367,-6.7588,
4.6835,3.3442,-1.6313,3.736,0.2519,-5.5051,1.9325,-1.487,0.12594,4.8,-2.0344,1.5736,-5.9808,-11.174,
8.0176,2.9024,-4.6671,4.235,8.1908,5.6707,1.0929,-0.19317,-2.5329,10.0554,-5.528,-0.20777,1.3677,-5.4421,
5.6086,-0.16405,-3.9049,-0.35767,1.4326,6.777,-0.9006,-0.66329,2.9215,13.7906,0.58852,1.7327,-0.16042,-1.259,
9.1283,-3.0465,-2.2246,-5.1567,5.6852,3.4781,-2.2926,-2.07,8.531,7.1788,1.0354,3.5571,-2.0792,-3.1118,
11.9548,-0.45335,0.80116,-4.8471,8.2363,3.2692,0.73725,-0.98122,4.1625,-1.4468,-0.47278,-1.4768,0.93783,-7.2637,
14.371,11.8659,-2.3799,5.8076,7.9831,9.099,0.93398,5.1032,-3.0771,-1.1191,-3.096,-6.4499,-1.7695,-8.997,
14.2321,12.8412,-3.4424,10.5209,10.6376,4.9377,3.0471,4.556,0.24099,1.1172,-0.25865,-1.4836,0.5058,-6.77,
3.2548,-1.9086,-1.3077,-1.1976,8.5531,-8.856,0.45415,-7.7689,0.70893,-2.3238,-3.1357,1.498,0.47545,-12.1484,
4.0234,4.4725,1.6628,-0.1619,9.0038,1.7983,-0.53743,0.89196,1.1479,0.22531,-5.3576,0.44375,1.4112,-8.045,
4.7465,10.4708,-0.3649,2.2582,3.1611,5.0646,-0.50495,9.5158,-4.2234,-6.0545,-6.0003,-7.2954,-3.4939,-2.7418,
5.1846,6.2272,4.7187,6.22,13.8177,2.5916,0.24825,5.3294,-4.6929,-5.9322,-7.8094,-7.0987,-2.5614,2.002,
-2.3573,-6.1975,8.7739,0.54464,17.327,-2.8666,1.1977,-1.7393,-6.3395,-6.5406,-5.8951,-6.1908,0.96676,-2.9384,
-6.7949,-3.1744,14.7551,-1.6574,9.2977,-1.971,11.008,6.3191,-1.3796,-7.3532,3.8589,0.20642,5.0063,-4.9315,
-6.8696,5.2108,13.3874,1.816,6.8117,2.4851,7.9369,5.9399,-1.7793,-5.9482,-4.0859,-0.28836,-1.0791,-1.7435,
-7.1806,3.2107,19.5743,5.3227,9.5362,4.5054,6.2556,4.3785,-1.4313,-0.52935,-1.6713,-0.029864,2.6013,6.3151,
-10.8468,-4.4535,15.2666,-2.4682,13.0616,-2.7545,2.747,0.9825,-2.0686,-6.0414,3.0089,-3.6433,6.0609,1.839,
-5.617,-0.57112,6.8786,-7.382,18.3033,-2.3485,0.41283,-4.1384,-0.25699,-5.9197,-0.78727,-7.5222,2.5635,-6.7072,
4.6024,2.1147,12.9738,-3.3237,16.9641,4.3003,1.5934,-4.131,-0.00060553,-1.9491,-2.9092,-7.7938,-1.2057,-10.4026,
10.1104,1.5054,13.6412,1.214,17.3925,6.4524,0.051493,4.3115,-1.4468,-0.38634,-5.1452,-8.2905,0.31289,-5.4401,
-2.0651,-3.8869,5.5925,-4.1608,11.5285,0.28093,-0.91569,3.5711,-2.3241,-3.255,-6.2821,-9.2391,-1.1519,-3.6672,
-1.9412,3.0948,5.2565,-1.0191,14.6932,4.6024,-2.307,2.3925,-2.6666,-4.024,-3.9774,-1.9359,-6.8674,0.40919,
5.4063,9.6578,6.3876,2.8987,15.2581,9.1467,-4.5785,3.2136,-6.8452,-6.1929,-7.113,-0.85561,-12.7221,4.7232,
3.6354,4.2578,10.8244,1.2783,7.1115,7.1514,2.9264,3.02,-4.0245,-2.4471,-1.3838,0.6413,-0.87176,4.4396,
1.2482,2.3151,6.0776,-0.96757,12.2284,5.9995,-1.3461,1.1521,-5.9518,-3.9875,-4.9162,-2.5302,1.8321,-0.40609,
5.2708,10.6126,3.544,4.1524,19.9306,9.7371,-5.3629,6.1449,-8.7279,-8.3273,-8.7184,-5.0293,-5.2675,-0.62246,
13.6312,13.8318,6.2234,13.0618,17.2885,12.0449,-4.5592,7.222,-4.8303,-8.792,-5.3032,-7.6205,-6.8801,-1.5494,
15.4649,8.9045,8.0192,9.627,15.5283,10.5993,-3.0804,0.28071,-4.2995,-5.6134,-5.7079,-8.3681,-4.78,-2.6618,
1.5214,4.0317,5.6101,-3.0019,5.4374,5.1429,-2.8958,-0.21829,-12.2364,-3.3482,-6.8119,-2.0817,-7.8675,1.3541,
0.94816,11.0206,5.2734,3.4447,2.701,10.1369,-3.6859,8.4719,-12.9481,-3.1473,-6.8851,-1.4744,-8.8417,8.5041,
6.4346,13.4926,8.0903,8.7814,3.744,9.2875,-2.7416,5.3123,-5.1815,-4.1635,-3.3388,-8.376,-3.7317,4.8602,
5.5669,8.8265,5.6765,2.4702,4.4834,1.9816,-4.5055,-4.6472,-2.9427,-1.0214,-5.0664,-10.2833,-6.882,-1.2158,
10.2943,8.0561,-1.1718,-0.81129,10.2402,3.5502,-8.8147,-5.0915,-8.3095,-2.6476,-11.2701,-13.282,-14.905,-1.866,
9.1947,6.6089,5.1654,-2.2089,3.3593,3.8191,-1.055,0.51663,-6.3647,-7.309,-3.845,-10.0745,-2.9234,-2.7179,
1.6529,5.4892,11.8452,0.57498,-5.7606,-1.4715,4.5521,1.6907,2.4531,-3.2553,0.9652,-1.5165,6.6517,-3.7603,
1.5542,3.7136,5.8323,1.9867,-6.3788,-3.3114,3.3147,1.1073,7.1266,4.1709,1.8712,0.98507,-1.4601,-7.873,
6.0402,4.2137,3.7946,1.6266,-3.8269,3.3948,4.803,5.1382,2.1193,3.1977,4.41,1.1669,-3.0598,-6.6777,
-0.34795,-0.61863,0.43371,-2.5686,-10.5869,4.3961,-0.064665,4.5887,-6.4438,-3.0199,-1.8799,-0.59054,-0.70679,3.1232,
-8.0401,-5.402,2.818,-3.3786,-15.2546,4.1326,-0.54295,3.3493,2.1378,1.4998,-0.32111,5.7116,0.78165,7.7562,
-9.2447,-2.9085,2.4078,-3.4171,-5.4215,8.9461,-3.6436,2.4252,4.1785,-0.75953,-2.9532,1.7538,0.011622,-0.6631,
-4.5929,6.6658,-0.38803,-1.0427,3.8221,17.8091,-2.2199,8.3055,-3.5438,-5.7754,-3.981,-6.7878,0.73406,2.9919,
-0.46021,7.2304,0.59981,-0.97987,1.1829,21.0796,0.32361,6.8431,-6.7054,-3.9824,-1.3318,-6.3799,-7.0225,5.7051,
-2.3613,2.4578,-0.8829,-0.4396,-1.7811,20.2963,-3.5522,0.64791,-4.3754,1.5587,-1.2524,-1.6592,-9.0118,3.4342,
-12.8246,-2.9921,1.5804,-1.3773,-8.4229,15.7043,1.9634,3.0189,-2.1844,3.8756,3.6437,1.3326,5.6289,9.4949,
-17.1166,-5.9463,-0.20139,-4.4279,-7.1944,14.5208,2.5687,4.5253,-1.8122,1.9556,2.22,-1.3982,9.2683,8.202,
-11.2691,-7.9994,0.77525,-6.5722,-1.4598,14.6141,2.8967,-2.9769,7.4558,7.6231,1.6047,-0.83215,-2.3748,-0.48457,
-8.9058,-8.2428,4.8256,-4.973,-0.64935,11.0857,9.2304,-4.0036,10.6234,10.2987,5.6057,3.3147,-1.5094,-3.589,
-12.4688,-3.6509,2.8489,-5.8795,-0.36943,15.4823,5.0612,2.2622,2.5142,3.6552,5.0284,-1.9454,6.053,1.2056,
-17.2643,-4.1547,4.8471,-8.1782,-10.2292,19.6145,2.5883,2.3674,0.67615,1.7487,10.7523,-1.5877,7.377,6.195,
-9.7207,-4.1462,3.8336,-3.108,-16.6051,17.715,7.0125,1.5027,5.2151,7.6695,11.7946,4.5333,-1.5015,-0.20249,
-1.4247,-2.9335,-0.7352,-0.029024,-9.8242,17.616,5.6279,1.4121,6.8304,10.1019,6.2662,4.7432,-5.2678,-8.867,
-8.8108,-7.819,-1.4138,-6.535,-7.5473,19.2103,0.2288,-1.3235,5.2155,6.8445,3.7213,5.6637,-1.8185,-3.7554,
-9.9698,-5.6626,-0.60603,-7.3482,-8.2997,23.1194,-3.8827,-2.9313,5.1435,7.6386,2.2927,7.9754,-1.4684,6.8337,
-7.6842,-4.1178,-0.32847,-9.5582,-8.043,20.0452,-0.99845,-1.0684,4.5942,4.0475,6.7347,4.8456,1.753,-1.5298,
-5.5357,-4.1115,-0.068029,-9.2259,3.2861,20.0476,2.1952,3.5752,2.1491,0.6714,4.1612,2.3855,5.7454,-5.0536,
-2.0705,-6.0344,-5.1256,-2.6468,8.1502,22.4601,-0.10616,1.6735,-3.5234,1.354,-6.4523,1.5194,-3.5174,2.7214,
-0.25904,-5.9133,-6.0229,0.16313,3.5638,20.3892,1.1055,-1.5604,-1.1428,-0.41445,-1.9678,0.22298,-5.4755,0.87087,
-1.2074,0.22608,-3.7334,-0.32859,7.6883,25.4328,0.075305,-0.98442,-0.59189,-5.6922,-0.40351,-4.6107,0.63757,-2.5554,
-5.7149,2.8638,2.034,4.2706,4.0937,31.8603,3.686,4.1361,-1.28,-2.2174,1.3077,-3.129,5.1788,4.5876,
-8.987,-0.92341,2.6353,9.558,-2.1774,26.8157,3.7058,5.5752,-3.8543,-0.8791,2.4345,-0.29012,7.0373,4.5533,
-1.2171,2.0243,-3.7895,7.5385,8.0763,26.1708,0.59115,-1.0261,-4.5871,-9.5032,-1.5682,-0.75488,1.7945,-1.0223,
0.060957,0.69777,-6.6959,-1.8321,7.8325,25.3233,0.79642,-9.8824,-1.1786,-12.5487,-2.6791,-4.3248,-7.7134,-2.1665,
-1.8709,-1.7547,-5.8122,-0.75831,7.3625,22.8395,-2.1434,-9.2899,3.2304,-7.4574,-0.59065,-8.4041,-3.3942,-0.59025,
-1.7586,0.27925,-3.0529,4.1084,10.2952,24.8441,-0.08663,-7.2858,2.0727,-6.0457,2.3378,-3.561,5.0046,0.89142,
-3.5811,1.7085,0.50499,3.8616,-2.8557,17.0867,4.2571,-7.3308,0.020401,-4.2369,7.4999,7.7396,5.6685,4.6946,
-8.4281,-1.0453,-4.1048,0.014743,-13.0485,8.1075,-1.5422,-3.7577,2.1881,-3.7415,6.3268,8.9627,2.677,6.5818,
-10.3323,2.3916,-1.4486,0.49556,-5.035,20.1543,-3.8595,-0.63993,3.9852,-7.8555,4.9831,6.9784,-2.786,4.7409,
-0.5536,8.9973,-0.87955,5.7687,1.0519,33.0451,-2.1819,-4.4577,4.2283,-9.3122,1.3099,5.1137,-6.4755,6.8668,
-0.27941,3.3958,-11.1911,2.2891,-8.4112,34.0754,-1.81,-7.3237,1.805,-7.5486,-2.3846,-0.25479,-1.0253,6.6953,
-0.98555,9.2176,-4.4936,8.6597,1.9754,38.5383,2.8783,7.2157,0.97378,-2.9983,0.41004,4.8222,2.6517,10.3914,
-3.5777,13.244,-1.0908,9.8271,8.8466,39.3593,-2.8382,9.0724,-4.1461,-5.9517,-3.7121,-0.046674,-8.8358,10.0086,
-8.9067,4.9776,-3.6769,7.5503,-3.0124,28.0801,-1.4626,-1.3539,0.68195,-0.53292,0.60793,-0.76677,-1.7978,13.0235,
-8.8547,5.1608,-9.2408,10.9536,-0.90349,26.8772,-4.2674,-0.30877,3.0512,1.4272,-2.8025,1.6894,3.1304,15.6166,
-12.9027,8.949,-6.0348,7.1634,8.0688,29.8444,-7.6263,7.664,0.217,-0.34561,0.01671,1.347,-1.1548,15.4029,
-18.3953,3.5911,0.11161,1.4307,1.3179,23.7147,-0.90246,3.8294,3.0963,-1.289,9.1745,2.7122,2.7706,10.1402,
-13.4349,-1.4448,-9.5358,1.827,1.2386,19.3995,1.0797,-3.149,2.9103,-5.0682,1.8754,-0.34279,5.4971,3.2651,
-10.2189,-2.8042,-8.482,2.681,6.4672,18.2358,1.979,0.89609,1.7716,-3.8001,1.2807,-2.2506,2.2746,5.479,
-12.0162,-0.70795,-2.6706,1.5561,-5.9722,16.1775,-1.9959,-0.12178,3.1113,0.28456,2.6499,-3.5616,-6.5388,5.6325,
-11.5359,3.4321,-3.2331,0.25765,-17.4242,12.5556,-2.5993,-3.7297,7.5046,0.99062,1.7682,-1.6605,-2.0489,-2.659,
-15.4231,-0.87117,-6.1726,-4.819,-13.2453,5.7767,-0.27418,-4.2288,3.4389,-0.75605,-0.025113,-1.8023,4.582,-6.5973,
-14.4979,-1.783,-9.1764,-1.6376,-6.1838,3.984,-1.7038,-5.4211,1.7865,5.5561,-2.9159,-1.6939,-2.4416,7.7785,
-12.9049,-0.95289,-4.5283,0.63005,-19.5513,3.0219,-2.3247,-2.9269,7.2227,12.2123,-0.08962,4.9154,-2.5363,10.927,
-11.8894,-3.547,-0.15945,-0.61328,-23.4397,1.6355,-6.2828,3.7564,7.9944,8.8283,-0.32544,7.2718,2.1954,2.7994,
-5.3917,-2.3701,-0.63159,2.7982,-9.982,6.3579,-4.4593,6.4233,5.1044,4.4424,1.6225,5.8714,-4.2031,4.5598,
-8.6836,-0.54068,0.12921,4.3171,-14.4448,5.253,-2.505,0.97626,2.147,3.4525,6.1044,3.8319,-10.4588,3.0809,
-15.3932,3.3479,-1.3246,4.0583,-16.9523,-0.36458,-8.621,-0.52835,1.5361,4.6914,-0.046171,0.22778,-4.5284,4.8245,
-17.6031,3.8699,-3.8967,3.5738,-11.3559,-0.58413,-2.5606,4.5646,-0.72527,5.6152,-2.695,2.3833,3.697,12.9707,
-21.8493,-5.5211,-8.4833,1.9134,-13.5668,-4.4052,1.4497,3.3271,-2.1278,1.4221,0.84143,3.6863,3.9574,4.9619,
-19.3333,-9.7693,-3.3948,5.4137,-10.5834,-6.7922,2.0858,-0.97014,2.5794,2.5419,2.4779,1.7781,1.0686,0.084634,
-10.9425,-2.9162,2.5934,5.0889,-5.1282,-5.4204,9.1915,-3.3221,-0.46788,3.3532,3.2931,-1.2211,-1.888,10.6848,
-2.3324,9.5511,-0.69541,4.0605,7.9538,4.3046,7.9169,2.4206,-6.9475,1.465,4.3006,-1.8709,-0.087292,15.1052,
-11.351,2.2296,-0.65369,1.8886,-1.682,3.0825,0.21105,2.7578,-4.6025,1.8591,3.0787,2.5801,2.8105,1.6654,
-18.3828,-4.1712,0.34986,5.1502,-15.0785,-5.2972,-0.28354,-2.2279,-2.8801,1.2656,0.96625,7.246,-0.73262,-5.6649,
-11.9774,3.7916,-4.974,4.3586,-5.015,-2.5695,-0.74869,-0.64868,-9.4559,-1.2207,-2.9488,2.9546,-5.5096,-0.023044,
-8.366,-0.29202,-2.7471,0.24092,-2.3037,-0.48687,1.2247,6.1394,-4.55,3.1911,2.0491,2.2952,-4.2145,4.3173,
-5.2129,-2.4437,-3.3052,0.94983,-6.7448,-3.5907,-0.53605,-0.25453,-1.6259,3.2406,0.2389,4.809,-4.6845,-0.52144,
-2.4903,3.0054,-3.1071,-0.071718,-2.002,-7.7143,-0.98605,-8.4347,-6.3489,-1.2924,-1.7039,2.5921,2.8267,-3.8644,
-4.0278,1.62,2.6227,1.1376,4.6258,-11.8309,-0.20376,-4.7949,-4.7629,-3.8662,3.4598,-1.1791,7.719,-0.98119,
-4.9915,1.2818,1.2605,3.2385,2.6611,-1.2387,0.53136,3.4466,-1.3436,-1.947,3.4932,-1.3493,-1.1802,1.7288,
-14.3327,-0.72351,-1.2255,0.15195,-11.5986,3.6561,2.9098,3.7219,-2.2271,-0.38367,4.7301,2.1063,-7.3757,-2.2311,
-20.9446,-3.3312,2.9458,-0.097679,-17.2897,-5.9632,1.5304,-0.11679,-3.2983,-1.084,4.2053,5.1134,-0.90763,-0.89195,
-19.6881,-4.0954,7.1072,0.87182,-15.7701,-9.4621,-0.48983,1.3362,-2.6187,-1.5011,2.9889,4.8064,6.3774,6.3922,
-16.3377,-4.5731,8.8499,1.0605,-12.1728,-1.9045,-0.70141,6.7997,-0.29242,-0.20577,1.1223,5.2409,1.415,11.5518,
-13.429,-6.2266,6.391,-1.413,-6.622,-4.6825,-2.5877,0.60689,2.6174,1.735,-0.87342,2.9985,-4.9361,6.5206,
-9.49,-8.0224,9.6227,-3.0157,-4.5377,-15.73,1.1832,-11.2399,2.2192,-1.9847,5.2048,0.64918,1.3853,-4.2352,
2.1664,2.5821,10.9733,1.5038,7.7859,-5.6269,2.0763,-2.3705,0.15806,-2.8298,-1.3743,-0.35386,4.1945,-2.0527,
0.59017,5.8016,7.4228,-1.479,11.1751,5.3156,-1.4228,8.377,-0.33381,1.1964,-6.5945,-2.7432,-1.3598,9.6397,
-7.8809,-0.57206,12.5211,-5.9695,0.6227,-0.064602,0.83177,4.2589,0.40958,1.3656,3.6831,-0.8914,0.40901,11.2304,
-2.8288,-0.29677,13.457,-4.4065,1.3082,-6.0867,4.3973,1.3518,0.14403,1.0427,5.1494,1.3312,-1.3028,-0.28964,
-0.73039,-1.7252,13.1315,-8.48,-0.21605,-11.5056,7.5079,-0.657,1.5817,1.9445,1.9484,0.2875,-3.6343,-9.9128,
-2.856,-3.3087,13.0668,-7.7305,-2.3725,-12.0208,3.4418,-6.6434,3.1737,0.14033,-0.33793,-2.3811,3.091,-4.2566,
0.68985,1.2281,8.4264,-2.9283,1.1443,-7.4427,-0.13873,-6.2448,0.5732,-3.7245,0.16474,-3.684,5.7981,1.3015,
0.16607,4.5289,6.9565,-4.6808,2.5219,-7.4786,3.2436,-1.5317,-0.90745,-2.0547,3.0469,-1.5352,2.5577,-3.5973,
-2.0131,0.64175,7.262,-3.1951,1.1653,-10.6453,-3.4585,-3.609,1.7981,1.6835,-1.2337,-1.2022,-4.1037,-6.515,
0.036148,-2.771,10.6833,5.192,-4.689,-14.3446,-2.2869,-0.49971,9.4037,4.9576,5.1075,2.2447,-4.3387,0.14314,
-11.053,-6.4609,5.2219,0.54192,-14.0488,-18.7864,0.74261,1.4582,3.0546,0.32162,4.8013,-0.78231,-4.5606,-4.204,
-12.3183,-0.77104,8.7645,3.4015,-10.3138,-9.9469,7.9289,5.7091,-0.021163,3.6763,1.1383,1.1928,2.9435,-1.5416,
-0.0097741,-1.2067,11.6131,5.126,-5.3562,-7.4219,6.4888,2.474,0.46204,2.4919,-1.8221,-0.32501,1.803,-0.48527,
9.3906,2.4809,3.9266,3.6129,4.8469,-3.3609,-0.89014,-2.254,-1.2527,-3.2015,-4.846,-7.2951,-3.849,-3.1075,
4.0069,5.7065,8.5118,4.3605,5.0384,1.661,6.3941,0.29186,-2.6238,-1.5631,1.2293,-1.5548,-0.24365,-0.51044,
-2.2593,-1.1436,13.0625,6.7502,-8.0381,-5.4283,8.1798,-2.377,-5.1177,0.70004,1.8787,3.5999,-2.8804,-6.9875,
3.6608,-0.59307,6.9761,8.2734,-4.1818,-7.5127,2.3864,-2.7163,0.010099,4.0325,2.7299,0.49189,0.18499,-6.5683,
6.0925,0.16565,2.9419,2.2331,4.9869,-7.3032,3.9302,0.097556,-0.71364,4.9951,5.2174,-1.707,5.2353,3.2256,
10.5474,1.6017,3.7295,0.17117,9.0263,-5.9009,5.1404,2.5021,-7.9019,6.1419,-1.3624,0.80576,-3.7557,3.9962,
12.3247,1.0237,4.47,1.1248,2.7001,-9.4032,6.7607,2.3519,-3.5709,5.2915,-1.7626,1.2393,-5.4585,0.38193,
2.6674,-8.9194,0.10424,-2.5579,-6.8617,-19.6851,1.7755,-4.7788,1.7048,-1.0518,0.030627,0.92379,-0.069546,-7.5945,
-0.3847,-15.1332,-1.3478,-5.7789,-13.1989,-21.8784,-3.1517,-8.3485,0.15623,0.93952,-2.8637,2.3146,0.41656,-10.9952,
-0.60304,-6.7534,2.348,-4.2269,-14.5763,-15.0221,3.0629,2.0344,-1.5404,7.3906,0.44112,3.863,0.63253,-2.3818,
-0.80783,1.1236,-4.7823,1.5704,-2.3733,-10.5053,0.22805,9.3841,-3.6171,1.886,-2.2364,-1.4305,-1.5746,0.41224,
3.3378,-0.63123,-5.7009,3.1631,5.2407,-11.5625,-2.9193,7.1341,1.6614,2.0135,-1.3791,0.34234,3.0994,-6.6021,
3.8611,-2.7623,-2.707,-4.9802,-2.5454,-14.0015,-2.9849,-0.76556,0.35662,5.5084,-2.9834,2.0093,0.74452,-10.3031,
9.8962,3.1878,-0.13471,-2.2715,6.2842,-4.967,2.979,3.1365,-5.4496,4.6957,-3.7685,0.44267,-1.2286,4.4151,
8.8202,1.0686,3.2481,7.0241,14.584,-0.81232,10.5128,7.2869,-0.78406,3.9318,4.6526,2.3441,7.0401,18.2502,
0.57825,-7.1907,-3.6957,2.2639,5.9962,-6.5482,-2.1691,-3.2737,0.22731,3.6959,-2.3755,-2.6168,7.5815,3.0551,
9.4614,-0.7335,-0.82267,1.4054,7.3239,2.2806,-2.7621,1.9846,-0.027524,8.0537,-0.063566,-0.29088,7.3678,1.0637,
13.9552,1.4799,-0.53211,-2.2946,10.0177,4.3127,2.4651,7.8909,-8.4618,0.098868,1.1453,-1.9604,-1.5101,6.0618,
16.974,4.7653,-2.4286,-2.6391,16.1649,4.0537,4.2452,4.0432,-3.616,2.0209,-2.78,-3.7712,-1.9017,1.359,
15.9558,-2.2693,-0.83686,-7.7832,10.375,0.91867,3.9907,-2.9481,4.7964,7.6845,-0.6848,-3.0628,3.0329,-2.0967,
17.1676,-7.6767,0.90058,-7.0752,6.1371,-0.82367,3.0283,1.3262,2.8214,6.5,2.4893,0.7364,1.6456,3.0908,
15.8968,-2.1547,3.0159,-3.0355,6.0096,-1.9793,5.9799,4.3799,1.929,2.0129,2.0992,1.4153,3.2343,-3.6024,
15.4249,0.38474,4.2808,-3.3353,5.649,-3.7888,7.5493,0.74262,2.2952,1.8921,2.9371,0.3661,4.4865,-11.099,
21.0072,-1.3253,-2.4833,-1.4477,7.4794,-6.2127,0.58863,0.45732,-5.7961,2.5017,-2.3005,-2.7891,-9.5212,-6.8174,
19.2646,-3.6562,0.075576,2.9772,0.282,-11.6248,3.4456,2.3578,-7.3767,0.4232,-0.71648,-0.69335,-7.9858,-9.3011,
13.5296,0.17884,2.2404,5.9323,-2.8682,-15.9888,5.4083,-0.91642,-1.3903,-0.32532,3.4241,2.4815,6.5933,-10.912,
13.6817,2.5782,-0.78651,4.1301,5.4986,-14.0656,1.7093,-1.3438,-2.2712,0.65853,2.2543,-0.077513,6.3182,-2.0626,
13.8249,1.9414,2.153,2.9182,15.2918,-7.9188,4.499,3.5573,-4.5453,4.9571,2.6012,1.3732,4.4931,2.3997,
6.0055,0.13767,-6.4119,-2.3186,17.5078,-7.2027,-2.7608,-6.0562,-6.9237,-1.8478,-6.4729,-3.7709,-0.83818,-3.7698,
5.1633,3.5039,-9.4016,-1.6975,15.0111,-3.396,-8.3797,-10.0311,-4.58,-7.5215,-8.0127,-7.883,-5.1262,-4.9899,
9.674,3.2939,-1.1245,6.1173,19.4128,0.66387,-7.3948,0.2115,-5.7513,-7.5524,-5.1216,-10.7842,1.4481,-4.6903,
-1.5118,0.20371,-0.57512,1.412,17.2842,-3.7143,-1.1665,0.68074,-9.745,-5.653,-5.2963,-9.1733,-0.085041,-2.4811,
-6.4823,3.8069,-1.7454,-2.2882,7.3291,-1.3218,5.4114,0.39939,-2.1704,3.1223,1.0475,2.2234,-8.5156,4.6581,
1.3782,0.92717,-9.5947,-0.94581,11.4688,2.3727,-5.7597,3.0268,-3.7272,-0.19873,-6.0054,-3.9358,-10.656,4.6193,
1.7777,-3.4666,-9.0192,-1.8532,19.9395,-1.1444,-4.932,5.255,-6.8782,-4.5249,-4.1991,-9.0021,3.9629,0.0036379,
0.46575,1.3207,-8.719,-4.3935,9.8251,-9.0294,-2.9488,-1.5682,-2.8501,-6.423,-1.296,-8.7029,2.5194,-12.2891,
13.6942,10.1596,-12.7752,-0.99642,6.5845,-4.3903,-8.3155,-2.1965,-1.4738,-4.8323,-7.7257,-10.3499,-8.9595,-9.8641,
10.2212,1.596,-6.9472,0.26842,5.4663,-3.4038,-2.7551,1.5504,-7.4112,-4.7836,-6.5391,-8.0419,-5.7706,0.12755,
6.2337,-0.91011,-2.1918,5.0733,5.1385,-1.2711,3.6769,8.688,-3.1099,-2.0862,2.5301,2.0818,2.2881,0.12012,
6.8238,0.1086,-8.3271,-0.052077,-0.47219,-4.5691,-1.3642,7.2026,-0.51293,-0.032631,2.3786,4.8492,0.22288,-7.6001,
3.2813,1.7893,-3.7301,-1.2538,4.6174,-5.5002,2.3331,3.1551,0.72268,5.031,0.066687,5.2811,2.8606,-3.0467,
-3.4235,-1.9335,-6.1578,0.026275,7.4738,-3.4834,2.4341,5.1349,0.43836,2.0776,-4.999,-1.0613,-1.4084,-0.21283,
0.39689,-3.5047,-6.0293,2.6758,3.8919,-1.5872,1.5647,7.9603,-0.79324,-0.69862,-0.6017,0.68916,-3.4935,-1.8873,
3.0249,-0.16115,-5.9083,0.82871,7.756,-2.2146,-1.662,-2.3995,-7.2529,-2.3437,-0.3244,0.40707,-1.114,-0.086595,
-1.2542,-0.87461,-8.2051,-2.3547,8.9776,0.087165,-1.8035,-2.0143,-5.6131,-3.8901,-1.5105,-5.1607,1.6037,4.4981,
-4.5536,-1.7862,-8.195,-1.7313,3.6185,6.8306,-0.73165,7.7473,0.026088,-4.1388,-1.902,-3.4051,-2.8311,3.7461,
-7.1723,0.7313,-7.2211,-0.18138,1.4734,8.3492,-0.20559,5.3545,-0.93912,-0.99821,-3.2339,-2.2367,-2.1791,2.0753,
-11.5626,-0.27645,-1.0033,0.79383,3.3132,0.13547,6.5557,3.105,1.5274,-0.45592,5.1553,-2.1025,9.0389,2.9151,
-8.2176,-0.019123,-4.5583,-0.45886,9.1402,-4.9341,1.1009,4.6057,3.6051,-5.9724,1.7127,-1.2532,4.8814,-3.2856,
-2.4221,0.94612,-9.5877,-2.3598,7.6272,-6.0845,-2.8218,-1.9374,6.2811,-4.168,1.6097,-0.69583,-1.6783,-12.2477,
-2.9994,-0.79764,-4.9148,-1.0131,3.5544,-9.8166,1.4451,-6.8826,7.1093,-1.7486,7.057,-1.8591,-0.3725,-10.7897,
-1.1325,1.9015,-5.825,-1.1931,7.4387,-7.0587,-3.2211,-1.8901,2.1032,-5.2593,-2.7667,-4.8813,-4.4477,-2.6703,
0.86344,3.7154,-1.1369,-1.1217,2.1714,-1.8147,1.7926,4.972,2.9411,-4.9435,-1.1546,1.6783,1.6039,0.3822,
-0.63416,0.60042,0.37707,3.2839,-6.6355,-7.0084,4.5776,4.6737,1.3184,-8.9857,0.3609,2.5419,7.7742,-5.9077,
7.8393,9.0003,-2.7788,8.1483,2.6805,-5.3824,-0.27659,4.6344,0.034225,-8.2053,-1.8301,0.70197,-0.16381,-5.794,
8.8155,10.3882,-7.4326,0.42882,5.8939,-3.6134,-4.1166,-3.8386,-5.2702,-6.7489,-1.7201,-0.78618,-8.3489,-6.4104,
3.707,7.1136,-4.3353,0.64429,6.7458,-3.1554,0.7099,-3.8494,-3.267,-7.5491,1.0344,1.4304,3.48,-1.9287,
-3.5053,3.5538,0.022186,4.2211,0.7974,-6.0996,5.2471,3.3714,0.062475,-12.1578,2.1777,3.9956,7.8509,2.7668,
-0.16171,8.402,0.26205,6.6187,0.025968,-0.19023,-1.0935,5.8204,0.29946,-9.7413,3.734,4.479,1.836,6.6979,
2.9817,7.1748,1.4514,5.4989,2.1938,5.365,-0.3048,3.7842,4.861,-1.2029,7.1251,3.4872,5.8235,8.4654,
-3.4639,-3.8608,1.8465,0.34845,0.13421,-4.5981,9.3542,-2.7096,7.4616,-0.64854,7.6617,4.242,5.9562,0.24494,
2.5285,1.6735,-5.4952,-1.6007,14.2262,-10.5887,6.8648,-8.3316,-0.21644,-3.9841,1.4174,0.13113,-3.5602,-4.5905,
10.8127,0.84996,-11.1912,-8.4943,25.0622,-16.943,-5.357,-13.3755,-10.5675,-10.2527,-8.0674,-11.2047,-11.7825,-8.4126,
19.5637,-2.8167,-5.4583,-4.8513,29.5843,-17.6139,-2.3847,-9.4397,-5.8364,-7.9501,-4.932,-7.8816,-2.6396,-8.1486,
16.9436,0.72677,-5.6127,-6.4889,31.1832,-17.039,0.16849,-12.7298,-3.558,-8.4374,-3.6722,-6.9267,3.7853,-11.0341,
15.2041,7.1911,-0.21429,-10.1969,33.41,-18.1858,3.7743,-12.6889,1.2352,-5.762,3.0561,-5.3058,5.2454,-11.5774,
21.5227,6.2772,4.6188,-4.2825,33.8156,-19.0229,6.9218,-3.7328,5.9814,-0.5956,5.7648,0.31516,3.9668,-8.9545,
18.7851,-0.3659,3.3778,-1.133,20.2175,-21.7379,7.9527,-5.919,0.3203,-0.077933,3.9731,4.1526,6.1389,-6.971,
11.3914,-0.34395,2.6928,-4.9219,8.3991,-26.2186,5.0655,-9.4202,-4.5196,-3.9296,3.2523,4.3854,3.8424,-2.2144,
7.3335,-1.7696,3.9775,-6.0724,7.8952,-32.8402,5.2435,-6.4449,-1.8383,-8.9965,4.9853,0.2659,5.0581,1.2929,
4.4829,-7.448,9.5234,-0.40583,9.8316,-31.8341,10.2315,-2.2018,5.5028,-6.5285,11.9171,3.1425,14.8775,-6.4975,
6.3833,-4.3498,9.6751,4.198,12.375,-22.934,4.5562,-4.2391,7.3416,-2.5212,6.1406,6.0872,5.067,-13.0973,
4.0724,-1.1965,11.9874,0.089998,9.7045,-23.4859,3.3187,-5.4303,4.4912,-1.8877,3.8442,3.794,-1.9857,-5.0808,
-2.6799,-4.2582,18.7395,0.32557,9.3632,-22.8001,10.109,2.8492,3.9807,3.2868,6.7466,3.3249,6.5691,5.106,
-8.0625,-7.6179,15.4462,3.9212,10.4884,-15.8887,5.4053,2.4371,3.0188,7.1871,1.2803,2.8847,4.9699,5.5227,
-21.6788,-12.4635,15.9652,-4.5088,-4.2409,-21.6839,4.1167,-9.2783,5.2478,6.7559,4.5775,4.6398,1.7792,-0.5932,
-26.7653,-15.3308,19.1049,-8.8177,-9.8911,-27.8544,6.521,-8.4804,9.5124,6.5917,8.4004,1.2282,4.8062,-10.4393,
-19.1338,-18.0266,18.6817,-3.7092,0.58411,-22.5679,5.4066,-2.9101,10.6287,8.8471,10.0658,-1.4969,2.3484,-12.4643,
-15.8166,-21.5243,16.3555,-3.7276,0.30809,-24.8293,4.8412,-10.2073,7.3399,6.1471,10.1847,4.1366,-1.4079,-7.6191,
-13.1802,-15.6534,12.2409,-7.1196,-3.326,-26.9552,3.3457,-13.2105,2.8019,0.71684,4.9941,5.0934,3.738,-9.3313,
-10.7023,-6.7606,13.1939,-8.3794,-3.8491,-20.276,5.3144,-6.3921,2.393,6.6996,7.3458,3.1004,9.5395,-17.2073,
-5.9626,-4.1856,9.269,-3.7791,-3.8594,-14.9618,-1.0303,-8.6599,-1.3657,12.8053,7.1463,5.0837,3.9057,-14.9698,
-0.30222,-4.4164,10.1587,3.1966,-7.0023,-13.5822,-4.3429,-4.7659,1.1263,11.5551,7.1994,14.4197,1.7432,-2.0201,
-8.9612,-8.9721,11.9598,-0.36965,-13.3306,-15.1778,-2.1541,1.3047,1.0588,5.5591,5.8036,12.1082,2.6024,-0.45309,
-5.2905,-2.8902,11.4827,-0.10651,0.24323,-8.2416,1.1086,1.4673,-3.1026,5.9485,2.8038,2.9461,1.7234,6.564,
2.2582,-0.78814,12.7224,2.3105,2.6392,-9.6749,2.4883,-1.5128,-3.8803,4.6277,6.01,-0.12275,1.62,8.5807,
-0.28784,-4.5977,10.9947,5.0639,-1.8574,-11.5049,1.8566,2.4344,1.6552,1.4575,7.0957,1.8128,2.0047,-3.9857,
-3.8858,-2.6344,8.648,5.4832,2.8335,-7.6814,1.9864,2.5291,6.1354,3.5395,6.9107,0.98091,-0.2845,-5.4335,
-8.2324,-1.2715,7.8882,3.467,2.9045,-9.3897,-1.7482,-0.75616,-0.25875,3.0857,6.2551,-1.2476,-0.026462,7.6665,
-6.5329,0.9742,5.2455,4.946,5.8635,-6.175,-7.6691,1.4586,-3.8584,3.1417,-0.14553,0.032811,4.0722,9.8578,
-3.2491,-2.9409,4.9305,0.79258,5.9934,-3.8765,-1.906,-0.074948,2.6398,1.0248,-0.61896,1.9588,4.3101,-4.8337,
2.4895,-2.5235,4.3937,-0.9422,10.6954,-6.7769,1.3414,-1.2757,5.6145,-0.24152,1.1049,-0.32788,5.2563,-6.1104,
4.7505,4.859,1.2378,-0.88544,18.7306,-2.9961,-2.5953,2.6574,-0.024819,0.25513,0.075008,-7.0569,2.0491,8.3562,
7.3579,8.4239,6.9481,1.5778,16.6429,5.3784,2.3807,8.2826,-1.9515,-0.24257,2.4806,-7.5978,-6.269,10.1445,
11.0138,5.7493,5.8083,4.6166,13.4751,5.2971,1.5149,7.0627,1.2991,-0.95091,-0.3193,-7.3824,-5.1695,-1.7919,
3.3631,-1.1036,-0.5657,-2.1678,6.1587,-1.0463,-0.26318,1.5773,0.98014,1.7577,1.869,-3.3245,5.9869,-2.4077,
-2.6232,-0.073075,-2.9419,-7.3404,4.3429,-0.019634,-0.24739,-0.92751,-4.8632,-1.2403,2.2388,-0.71493,5.1453,0.62924,
-0.53766,8.608,-0.83718,-3.5255,8.4211,2.8741,1.6956,1.5383,-1.1975,-3.0941,-1.27,-2.6002,0.49827,1.5554,
-8.4591,1.1021,0.41788,-3.073,-2.9304,-9.5909,4.2455,-1.2056,3.9361,-0.73926,0.49346,-2.2028,3.6019,-5.0454,
-9.6386,-4.0255,0.15207,-3.1299,-4.924,-14.0769,0.37509,1.0361,2.0129,-1.418,0.22311,3.9547,4.5908,-4.5015,
-5.6863,1.0363,1.5887,-3.424,1.6384,-6.4838,-0.61129,5.7947,-0.036057,-1.333,-1.7189,5.6456,-1.9516,2.0351,
-1.4885,5.3126,1.0113,4.0121,2.9862,-1.7563,0.87142,2.5543,1.4121,3.5675,-2.098,-0.47794,-8.5832,5.2872,
4.6266,5.717,-3.1465,9.7971,2.0839,-0.92775,-1.3503,1.1964,0.60428,1.6665,-4.6229,-2.6182,-8.3089,6.175,
4.5902,4.6509,-0.30642,9.4505,0.27183,-2.5591,1.8645,7.6323,-1.6009,-3.013,-0.24798,3.5647,3.0356,2.1893,
3.8324,5.8181,0.1939,11.2936,7.004,0.0045902,1.7526,8.6202,-2.4692,-4.2785,-1.1974,0.45827,2.3716,1.0937,
6.013,5.9509,4.521,10.616,10.4401,1.4506,5.0214,1.3545,2.0173,-3.0575,2.7308,-0.051157,-2.5914,5.3668,
5.6518,1.7375,10.0344,5.6407,3.0653,-4.421,7.1307,-3.0655,0.93239,-4.8022,8.3515,4.2902,-0.025374,-0.73978,
9.8922,3.8026,7.2629,7.4712,9.3891,0.42374,6.4617,0.73406,-0.81101,-3.309,4.2353,-1.0286,6.0015,-3.8291,
11.2271,2.128,1.5247,1.7205,16.5383,2.3263,2.6998,-0.27408,-3.6546,-7.449,-3.2499,-11.09,3.231,-2.1529,
13.9279,6.821,3.8434,-2.2391,16.5103,2.6691,1.0915,3.1168,-1.9891,-6.5202,-3.5369,-6.5683,-1.7831,-1.0598,
8.7537,6.412,0.72047,-3.5508,3.9503,-5.686,0.061942,0.51945,1.0225,-0.34414,-2.3606,-1.8356,-6.0147,-10.637,
7.2644,2.6526,-4.1437,0.036458,-0.62528,-9.6834,-0.90587,-3.8503,3.8535,2.5688,-1.2548,-1.7257,-5.1716,-11.9272,
11.1668,5.8679,-4.377,0.5162,4.2329,-5.246,-3.2621,0.23714,-0.23412,-0.95978,-5.0359,-1.6222,-3.8975,-2.0525,
5.1944,8.4081,1.6704,-4.8172,2.0505,-2.5209,3.6828,6.0077,-1.1842,-1.3844,-0.39522,2.8137,1.6393,1.4449,
3.6775,8.1446,0.3649,-1.3947,4.5791,3.6559,3.7028,6.8521,2.5023,-2.0242,0.83378,2.8863,6.6021,-3.2211,
6.8313,4.2814,-6.8878,3.0273,2.3761,4.4004,-4.2322,7.8872,-0.54036,-7.6873,-5.4832,-3.0719,3.3139,-3.0279,
5.2163,5.712,-5.7514,2.1226,-0.41776,0.52122,-3.7375,8.6191,-4.1231,-6.021,-4.913,-1.6825,-1.4644,2.6972,
3.9392,10.1898,-5.4061,3.9236,8.7661,4.3466,-2.5492,2.7995,-3.3936,-0.35735,-5.5823,-0.13508,1.0338,3.9819,
2.2566,7.1683,-4.1174,4.1701,5.83,6.014,-1.4319,0.2214,-4.1538,-2.746,-3.3192,-1.0908,6.7564,0.85043,
7.6648,9.3893,-0.25496,4.1609,5.2392,7.3404,-0.62307,6.2337,-3.6636,-5.2324,-1.4328,-2.2307,-0.63889,-0.88783,
11.3025,8.1028,-0.48086,3.1881,10.4683,7.6226,0.13744,6.1004,-1.2749,-3.7134,-1.5881,-6.6764,-8.0721,-0.59336,
6.2858,-2.5065,-3.3443,1.0689,6.466,5.2373,0.61136,-0.53193,-4.5726,-3.4903,-2.9388,-7.2399,1.571,0.40634,
2.5345,-0.9101,-9.4104,-0.44175,2.7038,6.3691,-5.2101,-4.8386,-9.1187,-5.2093,-12.4037,-9.2158,2.4408,0.38173,
3.5872,9.5088,-3.3026,7.0566,-3.0025,9.6024,0.64609,5.8156,-3.9923,-3.6919,-2.2594,-3.6017,-1.8034,-1.8103,
0.47993,10.8665,1.2343,10.9715,-8.1246,8.5443,3.9818,12.6975,-0.86027,-2.5061,5.5889,4.8096,1.1973,-4.1118,
-1.9594,6.3581,-4.6243,1.6366,-5.227,5.1391,-0.11352,1.8128,1.6015,3.4289,-1.013,-1.7455,5.4638,-3.3832,
-6.18,-2.2183,-7.7211,-5.6927,-4.9131,-3.3642,-0.58887,-4.5627,2.4695,2.259,-2.8806,-6.9436,3.6899,-7.5188,
-2.9171,3.2174,-4.3657,3.8079,-0.28001,-0.26981,-0.071605,9.6903,-0.088816,-3.6611,0.66669,2.632,4.4329,-8.0315,
4.0066,8.8087,-3.6216,5.0254,1.6648,2.1567,-1.9953,10.5549,-4.422,-7.78,-0.81934,3.4382,-0.6536,-6.1036,
8.3457,9.4857,-5.0913,4.4832,5.6625,3.7143,-2.5987,3.4144,0.90474,-3.2156,-2.4572,-0.86522,-9.0503,1.7342,
2.0604,4.0959,-7.1964,6.1424,2.9126,6.8655,-3.4071,9.476,2.2963,-2.0588,-3.7565,-3.7058,-5.1333,0.66629,
-4.5707,-1.6935,-0.25672,6.4967,-4.734,3.8024,1.859,14.4511,1.918,-0.72998,0.084798,-2.2782,2.1646,-5.8816,
-5.2606,4.6749,-1.6878,11.4098,-6.3784,-2.2101,-1.6268,5.871,3.7309,1.7242,-2.3306,-1.1774,-3.7496,-5.5285,
-3.2577,9.938,-5.6839,11.9301,-3.3441,0.57364,-4.6626,3.3496,2.7841,0.89737,0.46029,1.0624,0.090765,3.7213,
-4.7497,-2.9506,-9.9219,0.85062,-1.4565,-3.076,-7.0337,2.4255,-1.9625,-2.7717,-0.77239,-5.991,2.2542,0.84668,
-2.5363,-3.2557,-8.8444,2.7275,2.4875,-6.2656,-4.2014,2.7621,2.9758,7.5178,-2.654,-5.1494,-2.2191,-0.65015,
-7.446,1.0368,-4.2166,4.2509,-8.0258,-7.5772,-2.2627,0.427,4.0023,2.4872,1.6023,-0.74328,-4.7377,-0.3704,
3.3651,5.0724,0.61564,6.165,-2.965,0.83122,1.4884,3.5349,0.62867,-10.9184,4.1578,0.024221,2.0545,-1.0711,
7.0195,2.8398,-3.2777,4.8312,3.9618,0.29941,0.43527,3.3228,-9.532,-17.4942,-4.7688,-6.7257,0.0030095,-9.2015,
2.0189,9.1772,0.052232,7.6746,6.8574,1.4865,1.6142,8.6668,-6.7911,-9.4549,-2.3137,-0.77876,2.6542,-5.0342,
0.93363,8.6268,-1.8789,-0.016475,3.0717,-1.9769,1.5176,8.147,-0.11644,-8.4054,2.646,3.1246,2.0127,0.088297,
2.0827,1.601,0.40326,-3.6311,-2.174,-7.4017,7.9343,5.4888,3.0238,-10.0705,8.0306,6.5523,-1.7232,-2.5683,
3.8861,2.469,1.8251,4.2997,3.7408,-0.20936,4.0835,5.6416,-1.4962,-9.466,3.2103,5.677,0.30814,-4.3426,
0.51971,-1.7762,-7.2023,-3.4303,2.7932,-3.812,-7.4895,3.1338,-7.4322,-12.0313,-3.4896,-1.6533,5.8335,-2.8766,
-6.0194,-0.94677,-9.9036,-9.7319,-10.1484,-8.6445,-5.8348,2.7048,-6.7448,-10.1046,-2.0754,0.61555,4.2782,-0.53481,
-4.9353,10.4382,-3.7658,3.626,-9.7809,3.6843,-4.2799,7.6042,-1.2789,-5.401,-0.74558,4.6755,-0.075852,2.1484,
-10.6645,-0.55216,-4.7449,0.27561,-10.3991,-0.1524,-5.7101,5.9428,2.8954,-4.8357,0.98615,3.1904,1.6157,-2.0777,
-9.5425,-8.714,-9.7626,-5.5257,-2.5441,-7.3739,-1.9933,1.7297,2.2395,-2.1352,-0.037115,6.8551,7.3036,1.9032,
-3.4266,-3.1292,-9.9,-3.0248,3.6338,-5.244,-1.1505,-1.9893,-1.992,-4.176,-0.75756,3.7925,0.83957,9.7429,
-10.9338,-5.834,-5.932,-4.2896,-6.7075,-3.9655,-1.082,1.504,1.5015,-5.3722,6.5183,2.6006,-4.0315,5.7839,
-11.965,-7.1712,-5.3351,-5.7194,-6.0637,-0.59452,-1.258,5.5116,4.5449,-3.3626,5.8862,4.1318,4.1646,0.3752,
-4.2574,-4.0896,-3.8095,-3.6893,-2.0847,-0.79958,2.4331,1.5653,0.17465,-4.8479,4.8099,3.1612,9.94,-1.3343,
-0.14581,-1.4343,-5.0274,-2.9857,-3.8875,-2.1981,5.1794,-0.45662,-1.2823,-6.9674,4.0392,2.9713,2.5949,0.19178,
-7.3674,-4.7222,-9.546,-6.663,-8.9569,-4.9583,1.0123,0.052714,3.1334,-3.6568,0.42281,1.8292,-3.3449,3.5547,
-15.8435,-9.9825,-5.8402,-6.5042,-15.4094,-16.9531,-2.6639,-0.19142,6.5608,2.1062,1.6023,4.3705,1.4351,-0.75591,
-12.0003,-6.4911,-3.0792,-2.7395,-15.9306,-21.7202,-6.8424,-0.17993,4.239,1.0155,0.54227,4.1083,-0.097263,-11.3159,
-5.496,0.16469,3.8542,-1.611,-16.9032,-10.2943,2.245,1.7588,0.12802,-1.4558,3.884,4.8259,0.87267,-7.2627,
-5.166,0.63698,6.5152,-2.4784,-14.9249,-4.8557,4.5207,-0.7566,-2.772,-1.3682,3.6511,2.6084,1.7844,1.368,
-5.8203,3.9732,6.1243,-2.3297,-10.173,-4.5649,-2.4995,3.1452,1.7331,2.5703,1.9858,0.041277,-2.661,3.2141,
-8.3632,4.2168,9.6133,-0.26176,-13.419,-5.2548,-4.2777,6.3305,4.0393,-0.95838,3.3125,-0.44313,-4.4295,0.61116,
-0.14885,4.4459,8.5543,5.0564,-6.3472,-6.3856,-4.9851,5.4689,1.3866,-2.3469,-0.74243,1.0295,-0.78952,1.5386,
5.8861,0.56373,6.8362,-1.2726,2.9517,-9.6179,-2.5164,0.079119,-2.3116,1.4093,-2.867,2.173,1.9094,-2.1691,
6.497,-0.91612,16.0668,-6.981,6.6308,-5.6666,3.9009,-2.336,2.1652,5.6633,4.5356,3.9706,5.1691,1.8176,
-1.1239,-6.646,16.0669,-9.9364,-1.4801,-8.701,0.2926,-5.0881,2.9994,0.02064,4.7456,-0.1238,0.52037,7.011,
-0.092114,-5.2829,15.5848,-5.9657,-2.3551,-12.5173,-1.6531,-1.4084,2.3375,1.4657,6.3891,2.2938,-1.439,2.252,
7.8672,2.0235,11.5167,-1.0285,10.5606,-7.6687,-4.2055,4.2197,-0.93625,5.957,3.8366,2.879,-0.6298,-2.4629,
-0.55885,-3.6413,5.2818,-5.5463,2.455,-7.4497,-2.2657,2.2796,-3.049,4.8769,3.3652,0.055424,4.9518,0.33623,
-7.274,-7.279,6.8933,-4.249,-9.7432,-7.0028,0.28058,-2.1958,-0.45571,1.692,4.1274,1.0162,2.2444,4.6546,
-0.088646,-1.0581,12.2643,2.7544,2.8925,-3.2084,1.2276,-0.61776,0.05357,3.0363,2.4335,2.401,-5.1211,10.6418,
-4.1807,-5.092,11.2875,-4.8827,0.54978,-10.9696,1.8769,-1.786,-2.1193,0.20302,5.4209,0.087803,0.72974,0.1214,
-4.1708,-1.653,6.5129,-5.3126,-4.0625,-12.9625,2.0057,-3.3661,-1.2687,0.43181,8.2292,-0.15843,8.6402,-8.8035,
0.65873,3.5079,6.845,0.067826,3.6531,-5.6771,3.5726,-3.4051,-1.9155,4.5037,4.6019,-1.8362,0.64994,-2.2497,
-1.5502,3.0562,10.5319,-1.1418,3.6746,-0.27522,4.5633,-0.067497,-1.5599,6.4024,1.1926,0.44341,-3.0047,2.4643,
-8.929,1.6676,6.7665,-5.6525,-10.6459,-3.8741,-3.1828,1.6238,-3.1535,5.7773,-1.5305,2.586,-0.65526,-4.191,
-6.9472,2.5316,6.3603,-0.49337,-14.4664,-7.4981,-4.9198,1.0442,-4.4108,6.8767,2.4179,4.8407,-1.58,-2.9759,
1.6646,3.8257,4.5326,6.7673,-0.58274,-3.1918,-5.1068,0.017441,-6.0741,3.0899,-1.5838,1.6584,-5.8238,5.8799,
-1.3271,1.6682,-1.0417,2.987,-1.0299,-1.0719,-5.2821,0.49856,-4.7451,-1.916,-7.2731,-1.8153,-3.064,4.0811,
-4.8634,0.36284,-1.7026,-1.7719,-5.0655,-0.76658,-4.7246,3.6017,-0.36349,2.7782,-3.2213,3.3548,-4.5674,0.22084,
-1.6791,0.34107,-1.118,-2.6295,-0.42325,1.6895,-9.2614,-1.9166,2.0689,8.3961,-4.4743,1.7073,-9.596,1.6534,
-7.6039,-4.2587,2.0821,-5.6052,-10.7617,-0.09906,-2.1982,-8.7915,3.632,5.7232,1.3378,0.40002,0.37976,1.7956,
-10.5221,-2.5574,0.028945,-2.8588,-11.5623,1.8351,2.7544,-3.4437,-0.44277,2.4873,3.1857,1.3399,6.6235,1.6874,
-13.024,-3.1266,-8.8906,-0.51784,-8.6992,4.8587,-5.3649,0.86046,-5.4772,3.0612,-3.5131,-1.8738,-0.28117,-0.10083,
-14.6532,-8.7238,-2.0904,-1.9333,-17.8184,1.6744,-1.1864,-0.6372,4.0102,4.8059,1.5181,4.5054,-0.26453,2.3156,
-4.1328,-4.8259,2.3733,-3.2631,-10.9647,-1.3181,4.6694,-5.4192,5.2159,0.17926,4.8015,6.1633,-1.6949,4.1048,
0.6947,-1.4031,-1.8667,-1.8622,2.4674,0.44798,2.2198,-6.7815,-4.0154,-3.4471,3.7903,1.214,-3.2802,0.72529,
-1.5161,-2.0418,-6.334,0.41867,-1.2961,2.5907,-3.457,-0.34909,-7.3899,-3.4813,-0.53449,-3.4382,2.9421,-0.041129,
5.0823,1.2142,-9.0874,-2.7395,-9.172,1.23,-7.8288,0.39522,-9.1156,-3.9953,-7.4923,-8.7755,0.59645,0.20231,
16.347,10.3004,-3.2395,3.6914,-3.3191,3.0844,-4.949,-1.5567,-9.5326,3.9572,-5.5965,-2.9463,-9.5622,1.154,
18.9816,15.2255,-4.7324,12.8699,-1.4327,4.5865,-7.3031,-0.25845,-8.7196,5.407,-6.9479,-0.60037,-15.014,-0.60243,
13.7449,14.071,-1.315,9.9286,-9.3005,6.4805,-3.2495,7.7113,-1.6885,0.98521,-2.4337,1.6048,-6.1595,5.9417,
5.6896,7.9243,0.69237,8.3688,-12.5986,6.5738,-3.0543,10.6228,-5.4438,2.8541,-4.6976,4.8827,-3.3795,7.9955,
4.8663,6.0026,-3.688,11.2411,-10.8788,4.7331,-7.2098,5.1647,-13.3124,5.5749,-7.3082,2.6616,-1.249,2.6951,
8.9124,5.1603,3.7639,4.2999,-12.6365,1.5569,0.45336,0.034355,-7.6931,3.7944,0.84279,0.091534,2.2006,3.0155,
9.5829,4.1278,7.6359,4.7648,-10.191,2.6688,3.5596,2.6838,0.72265,4.772,0.069324,0.8094,-6.8495,9.8245,
3.4643,-0.69919,0.66982,6.1661,-16.5695,3.2315,1.6588,5.6558,1.4022,5.2086,0.78806,1.0018,-7.6438,2.7271,
3.2565,-1.1396,-1.7805,0.011576,-17.5035,5.4478,2.5232,4.3526,3.2463,2.4859,5.5615,-0.9865,3.4201,-9.4881,
6.1944,3.0263,1.9415,1.2159,-4.161,5.844,1.6487,0.95775,4.2565,3.0599,3.5403,-1.6504,4.4199,-1.4468,
-0.68479,1.1575,4.4766,2.8302,-9.4549,-1.9784,2.2731,-1.7508,0.38573,6.4917,2.1231,2.064,0.057398,7.0761,
-0.16154,-2.7681,-2.5407,-1.1958,-15.1544,1.9969,-2.6838,-0.68166,1.3271,7.0663,-0.89658,0.97607,-1.874,7.6157,
3.9453,-4.2895,-4.0757,-2.3295,-10.1475,12.2412,-3.7278,2.9749,4.8627,7.8474,0.36228,-2.2157,-1.0389,7.3995,
1.7804,-0.1757,2.9177,1.6671,-13.877,8.1323,-0.61162,4.7246,1.6784,7.3766,-0.62333,-0.15461,-0.012239,-0.75727,
5.5299,9.9582,0.81449,3.4948,-14.4906,2.3417,0.38894,4.923,1.0958,6.452,-2.9965,3.7111,0.95236,-6.0145,
3.2702,5.0222,-4.5368,0.39282,-14.5853,-1.173,-3.0086,-1.6391,0.06594,6.0647,-0.40637,3.0062,-1.9971,-3.2433,
4.279,2.0695,-4.9877,3.9849,-9.1307,2.5125,-6.9257,-2.7458,-2.1069,8.3521,-2.069,2.1027,-3.5642,0.56699,
3.7813,2.1863,-6.3757,-0.35155,-14.6084,-2.2175,-3.8586,0.070502,-0.2933,6.1638,-7.4885,4.1457,-5.5195,-4.5287,
4.0366,1.091,-2.1365,-1.2946,-16.1422,-5.9408,-0.25285,2.4762,3.5805,3.384,0.6734,4.8611,-3.7423,-6.6673,
8.6147,0.061237,-2.0088,1.1932,-7.4609,0.19995,-3.1302,-0.082529,-3.3833,0.28848,4.0074,-4.5896,-1.1077,-2.8929,
2.3132,-6.209,-1.4059,-3.2167,-18.5827,-4.1504,2.3603,-1.5238,-1.734,-0.21076,3.767,-3.3499,2.8152,0.65517,
-8.6716,-7.0415,-4.4548,-3.2649,-24.9393,-8.4806,3.9061,0.25505,3.9139,0.52502,-1.0385,3.3588,1.4412,-1.5535,
-4.7769,2.0581,-1.7774,2.7156,-11.8738,3.5976,3.1893,4.5781,-1.6236,1.9398,0.47003,1.711,-1.0554,-1.4603,
8.284,4.104,0.9806,4.2401,-3.2071,6.9969,5.1674,5.0265,-8.5158,-1.3103,3.5751,0.88521,-2.1971,3.2068,
6.5819,-2.6504,-4.1401,-0.11186,-3.7383,-1.8588,1.2417,-2.7471,-3.9078,-0.50858,-0.25507,1.5552,0.10362,0.84502,
-6.1056,-7.0707,2.1343,0.13581,-8.5754,-2.9526,4.3007,-5.2334,4.2804,7.4757,4.34,4.5949,5.1591,-3.785,
-0.67756,-3.9953,-0.64488,2.2968,-1.0708,3.2506,3.3197,0.1423,0.40865,5.3404,-0.017769,3.1144,-4.5505,-3.3169,
8.04,-4.7197,-11.6936,-3.1434,-0.52486,3.5373,-4.1105,0.61547,-6.365,1.6453,-4.8372,-1.8929,-14.4006,-2.1538,
-2.0834,-6.3647,-6.1718,-1.5085,-14.5934,-2.9417,-0.0075099,2.5067,-5.0188,5.4029,4.6121,4.9695,-3.8956,-4.9171,
-11.5994,-2.1264,-3.8728,0.9921,-25.1664,-8.0676,0.47533,1.8744,-8.0921,-0.70582,1.4428,7.5634,3.0871,-9.4423,
0.1836,3.786,-0.26622,-0.51345,-11.123,-1.3168,5.2673,1.7622,-1.3398,-2.5914,3.2847,6.1455,4.3479,-4.0553,
3.788,-1.5024,-0.97315,-5.5443,-5.3941,-2.4429,4.7103,-1.959,-1.9823,-1.2311,2.8466,5.5358,-3.3843,-0.19655,
-3.9109,-3.0997,-3.0841,-5.4529,-11.0963,-7.358,0.33009,-0.63639,-4.5147,-0.91605,2.9166,11.7114,-1.0123,-2.3541,
-3.4352,1.1836,-6.0326,-3.4385,-15.0098,-6.6755,-2.8232,1.089,-2.0747,-2.5483,3.9469,6.9114,3.1457,-12.0948,
8.0988,9.0661,-7.3581,3.2756,-3.2634,1.679,-4.8232,3.6745,-0.26321,-1.6723,-0.86945,2.3991,-1.6225,0.44121,
4.2387,7.0761,-6.4344,2.1149,-0.1753,5.4344,-4.5336,3.9362,-3.1397,-4.9466,-2.2638,6.5932,-7.7919,13.9119,
-0.83658,7.6156,-7.4944,3.916,-3.0571,8.0006,-3.2975,5.1461,-4.3978,-7.5421,-0.68146,2.3415,-6.3603,4.8822,
8.6141,10.2922,-9.2139,10.189,2.188,10.1721,-0.44852,7.4889,-1.9643,-7.3306,-2.8097,-3.8246,-2.8452,1.4563,
5.2049,0.033451,-8.6613,0.41837,0.12833,6.1871,2.4707,3.6649,1.5278,-7.3729,-2.1594,-0.70279,-2.6747,7.1532,
-0.65097,-1.6553,-6.4539,-5.6318,-0.60181,7.0212,2.0819,-1.6162,5.0515,-2.3508,2.5499,-0.90159,2.5475,6.0011,
-4.4683,-3.4844,-3.1744,-5.7761,-4.9043,-3.0408,1.9568,-4.4116,3.3024,-0.76324,7.6998,-1.8116,6.2512,-8.4589,
-5.8874,-7.3727,-0.33285,-4.2247,-6.7794,-8.4022,6.4187,-1.0134,4.3095,0.96932,9.4065,9.6253,4.1889,-12.8924,
0.49137,-5.2434,-7.303,-1.3199,-2.2753,0.055656,2.9003,-0.22991,2.3635,1.6343,1.3705,5.9145,-2.0882,-1.755,
2.6313,-1.3131,-9.5157,-0.99948,-4.3079,2.7036,-1.3709,0.50747,-3.3217,-1.1151,0.08321,-0.94806,-1.2398,6.3043,
3.9197,-0.27045,-7.4985,-3.3496,-7.9058,0.61323,-5.1454,0.47703,-4.5686,-4.4226,-0.40372,5.8577,-0.68345,3.5159,
7.0587,0.22794,-7.5307,-7.0053,-4.5392,-0.38766,-1.944,-4.3725,-1.8842,-2.2289,-0.37972,9.3624,-6.4268,-0.069251,
6.153,1.1784,-7.0791,-6.1033,2.4816,0.11776,0.10063,-4.11,-1.2894,-0.64909,0.60716,5.9084,-4.5952,-0.065326,
3.1327,4.7231,-7.8592,0.28894,7.3944,4.69,-3.0389,6.0186,-4.827,-5.6718,-1.5984,0.49221,-1.186,2.1078,
3.6677,6.6089,-7.1467,0.51257,0.92518,5.6139,-3.5795,3.9702,-8.6347,-8.9465,-3.6717,-2.1884,-6.1765,2.2227,
11.8833,8.3815,-7.4412,1.2047,0.6287,4.5537,-4.57,-5.668,-5.4656,-1.4203,-5.1386,2.5222,-8.4574,0.88406,
3.9397,1.1299,-6.5126,0.65073,-2.7837,-1.022,-3.3317,-1.4713,-0.79954,2.5216,-0.0098122,5.7451,-4.0934,-3.0256,
-4.2504,-3.9996,-1.0602,-2.0399,-1.8935,-5.5402,1.448,5.1245,-1.9564,-3.1733,5.5344,0.82108,-2.6425,-3.085,
2.9942,0.338,-0.27388,0.25192,11.4765,0.8178,0.15556,1.2018,-3.5265,-0.81402,-1.7878,-2.3614,-6.0996,1.1977,
2.5736,-3.7796,-0.49841,2.8879,4.7623,0.045834,-1.0586,-2.4857,-1.1453,-0.041817,-3.3673,1.8776,0.29193,2.3306,
-0.4731,-2.5888,2.9062,0.78666,-3.7181,-3.8133,-2.4411,0.55572,-0.11245,-7.7523,0.20898,2.729,5.0954,1.2267,
-2.3729,4.3155,8.0344,-1.6707,-2.5309,2.2003,-4.7048,3.4149,1.8225,-3.9127,1.6427,-0.8087,1.4152,0.67116,
-6.81,1.4048,10.2032,-0.36582,-2.6203,5.2011,-3.6998,2.4864,2.4358,2.8298,2.2668,-2.4476,-2.7673,-0.57417,
-10.0169,-3.2588,4.5298,-4.9227,-2.2216,-1.1361,-5.647,-2.2421,-3.2535,2.9009,-1.9661,-3.0237,-12.0013,-0.78069,
-13.5132,-7.1606,10.2836,-8.7252,-5.704,-10.4681,-2.1747,-1.8666,-4.2636,6.8242,1.2849,0.77316,-12.0043,-0.49288,
-10.0513,-6.49,14.7283,-1.6942,-5.1208,-10.5632,-3.2495,2.8252,-1.8386,6.1738,0.48491,1.4497,-3.3301,-0.70428,
-2.9405,-0.074853,10.2289,2.0231,-6.5008,-4.3858,-4.7415,2.4145,-0.040829,1.2239,-1.7136,-0.8067,0.0029682,1.9893,
-3.728,-1.5166,8.1689,-0.50838,-11.4134,-4.6048,-3.9751,0.3414,-2.449,0.6685,-0.64689,-0.27636,-4.3355,0.42368,
0.11067,1.7074,11.7761,5.5477,-0.84663,0.25124,-7.834,1.5258,-3.9893,5.2077,-4.7054,2.3918,-5.2807,2.5674,
4.925,6.9078,13.9623,9.5534,1.1326,6.5029,-6.3998,4.327,-2.7858,3.4492,-2.4947,5.1406,-4.9636,5.7876,
1.7367,8.9033,11.6781,11.3901,-7.1303,7.5588,-3.1235,9.3698,-0.2083,-0.13245,2.4755,4.8319,-6.1123,3.5124,
-2.2236,7.4054,10.0133,9.7426,-6.7025,3.731,-4.8645,5.9153,4.1428,3.7321,1.3629,-0.76044,-3.3352,-0.072584,
-3.2955,1.8994,12.0641,3.1325,-6.5413,-2.0365,-3.8493,-1.4295,3.6532,7.6055,1.522,-4.3302,-2.4122,-0.30965,
1.482,1.0626,7.2429,3.6679,-3.4975,3.147,-3.3774,2.7536,-3.5558,4.0162,-1.7028,-4.3114,-2.9904,1.8785,
-3.6686,-1.6527,6.0849,4.1707,-3.5286,4.6454,-1.0056,2.3474,-0.20901,2.088,-0.3953,1.009,-5.462,-3.2958,
-9.9562,-3.2408,7.889,1.7513,-5.9682,-2.623,-2.6325,-6.2291,6.311,4.1319,3.7258,3.1176,-13.0883,-7.1955,
-5.9842,0.32809,3.0773,-0.76391,-4.1641,-1.0196,-7.2952,-3.4452,-2.2624,2.9201,1.0921,-2.854,-11.3389,1.431,
-5.3839,-1.3786,7.4722,-3.3694,-6.0832,-1.1992,-1.7956,2.7873,-7.1881,-0.87077,0.30344,1.4148,-1.2583,7.8528,
-2.4096,-0.090812,11.1215,-2.926,-5.9592,-4.2605,1.4454,-0.99515,-3.1414,-2.5055,-0.43744,10.2477,-1.424,0.87395,
4.0013,3.2889,7.0799,-2.2688,-3.6736,-3.041,0.87649,-1.4176,-1.5066,0.5371,1.9987,6.7406,-3.2665,-2.5527,
2.7971,1.1636,2.3166,-6.4712,0.88509,-6.233,-2.5503,-3.261,-0.93452,0.022713,0.91469,0.069407,-1.6245,-0.47158,
2.8703,0.37085,5.3111,-8.2521,5.4117,-7.546,-1.6744,-3.7882,7.0758,-2.6297,2.547,3.1987,2.0884,-1.1662,
0.28815,1.3127,6.9204,-8.7211,-0.69755,-3.7188,1.3184,-3.5612,6.169,-4.4004,4.8046,3.489,5.3373,-2.5422,
2.4398,9.6694,-0.0025418,0.23811,3.9236,5.4222,-1.894,-0.69616,-0.22688,-0.038775,-1.9914,-0.33602,0.43754,0.26161,
5.4267,12.2225,-1.2075,4.8033,3.9294,3.4094,0.87096,1.0326,5.3301,1.1686,0.77893,2.8174,-2.24,-1.9235,
4.8601,8.3561,1.5165,-1.5104,-0.40375,-0.89228,2.9879,-2.1624,8.1438,-4.927,6.2763,2.8898,0.063986,-6.3874,
6.9788,9.7832,-0.020935,-2.3839,13.7205,4.9458,-2.0119,-2.9967,1.3889,-7.5237,0.11488,-4.0323,2.9524,1.2265,
6.8011,6.5446,1.6675,-2.4818,19.2842,4.8901,-2.1321,-0.16538,-0.38167,-5.3851,-1.0968,-2.1036,6.8726,5.7327,
7.839,6.6341,1.0853,-4.2613,4.1477,2.1863,-4.8965,-4.0121,3.9793,-5.5441,4.2714,1.3969,3.5675,-1.3604,
8.574,14.1898,5.1176,-4.2466,1.7294,4.2243,-2.4336,-7.3868,7.8379,-1.5961,10.5226,0.59015,5.0407,-0.073521,
6.1314,11.8921,3.8466,-9.7764,4.518,4.453,2.5327,-4.5334,0.1368,0.4279,5.5529,-0.89152,1.3638,-1.5154,
11.5483,2.5017,-3.1328,-12.564,1.355,2.74,1.899,-1.8511,-4.2095,-0.079938,-5.3853,-0.35587,-4.5024,-5.2806,
8.4446,-0.54065,0.9113,-11.8104,-1.1368,-2.2453,5.1593,-7.0429,1.8274,-0.5573,1.6865,2.0758,3.4803,-1.1076,
-3.3898,4.0711,3.9901,-13.271,5.921,-1.3875,3.6445,-9.7533,5.8151,-0.76483,6.6465,1.2279,4.4768,2.0923,
-2.7043,2.3812,0.85841,-14.8846,5.566,2.5526,1.4983,-4.8296,6.4308,1.6914,5.766,1.1545,-0.1299,-0.44356,
0.83197,-3.5467,1.2888,-13.51,-1.0347,-3.8675,2.8542,-1.6478,5.0806,1.108,7.8302,3.4953,6.6263,-6.6835,
-3.0741,-4.298,3.6219,-10.771,0.95555,-7.4919,2.2008,-4.4412,3.8117,3.9338,5.9143,2.8035,7.1929,-5.3184,
-8.4335,-7.6555,0.75346,-9.4019,-8.0196,-6.3192,2.3097,-8.2721,1.8957,2.4925,1.4621,4.8049,-4.5669,-0.9019,
-2.1427,-3.8217,-1.7019,-2.0888,-5.1281,0.32668,1.2073,-1.9912,0.81813,-1.9954,-0.07187,10.3012,-2.8466,6.865,
-4.6654,-1.4235,-2.3234,-4.6148,4.0974,-1.8625,-2.9628,1.7435,-0.43648,-6.4552,-0.79069,3.1749,3.8314,2.8374,
-10.6523,-3.748,5.0471,-8.1941,2.8875,-4.1607,3.9637,0.19286,4.4107,-2.2113,6.0054,1.5384,8.4225,-4.081,
-6.3977,-1.8361,4.0212,-6.0155,2.473,1.1504,6.3772,-1.9876,4.8687,-1.8378,5.8863,5.0617,5.7477,0.74289,
-0.71142,-5.1004,0.40544,-6.6189,-2.0137,-1.329,3.102,-2.3508,1.2026,-7.0302,2.6406,2.8298,1.5465,1.1807,
6.0802,-7.6864,6.1657,-3.8116,0.51729,-2.6955,3.3978,-0.76347,3.5405,0.1405,3.9284,2.6596,6.2739,-3.2289,
1.6178,-8.9127,3.6264,-2.3774,2.1735,-0.36438,2.4713,-2.4047,4.5332,3.7473,4.8978,3.2231,7.103,-2.312,
-2.8176,-10.3059,0.51695,-0.30632,-0.84899,-0.82445,4.2514,-0.81435,6.6715,2.0764,9.9068,7.3688,5.7128,3.6115,
3.136,-7.2772,-8.6733,-3.6626,5.4687,0.18911,-0.34219,-2.2115,2.897,0.023849,0.63506,3.07,0.067572,1.4664,
3.6708,-1.7793,-6.4657,-13.8072,10.6837,2.3467,2.8114,-1.3559,1.5179,2.6735,-1.0903,2.1625,3.1965,2.5837,
2.2457,-3.8413,-1.0161,-17.0759,6.9097,0.036966,3.366,-1.5155,1.1859,2.7541,5.4831,3.7204,6.6202,1.2238,
12.4748,-2.8879,-6.0168,-10.9899,10.5924,4.1321,-0.45134,-2.6299,3.2839,0.9016,5.877,2.7738,5.0177,0.42704,
6.1829,-0.54524,-6.8609,-11.0536,6.3417,6.5355,0.78081,-2.2309,2.8456,0.12437,4.8017,2.3667,3.5115,1.6065,
-4.7933,0.93328,-5.4853,-8.9441,-2.234,4.6971,-4.5687,1.7593,-0.21715,2.0451,-3.6816,1.2603,2.8189,-2.8282,
-2.8185,-2.2557,-6.361,-8.1665,-5.7153,1.764,-4.5355,2.3767,1.0007,5.0559,-5.6298,-0.98445,1.9269,-0.0074413,
-6.2648,-6.218,-6.2206,-8.8816,-6.0955,-1.4751,2.7262,0.065144,1.1819,0.65495,0.73328,1.7259,2.5339,12.7672,
-10.2275,-5.3632,-7.2934,-7.8665,-2.8375,-2.3507,2.5624,0.061006,-4.1917,-6.133,1.1714,-0.30604,4.3103,9.5913,
-0.45456,-1.185,-2.9994,-8.3589,5.5277,0.68261,4.3369,3.4318,-0.56597,0.98386,2.0655,-1.7339,6.4618,-4.482,
5.1163,-1.3544,-7.8811,-8.0983,7.8473,3.2932,-3.8771,1.5387,2.6015,3.094,-2.6382,-5.2449,-0.43336,-2.5258,
4.8093,2.1008,-9.3364,-0.38157,8.3408,10.326,-6.0546,-0.48185,2.4454,0.015831,1.8589,-3.9663,5.3772,10.6411,
3.3153,1.2517,-9.4994,-0.59987,5.671,8.5014,-3.5219,-4.5505,-0.35266,-4.5646,0.059892,-6.3796,4.8134,-0.36144,
5.286,3.3462,-9.1704,1.1233,8.9461,7.7503,-1.6234,1.7485,2.3201,-0.67534,-3.5591,-4.7916,-1.501,-3.9552,
-9.1312,-1.1931,-7.6561,-1.8363,-0.26773,4.8749,-3.4544,0.19712,-1.1938,-1.1165,-3.3453,-2.0937,-2.375,-0.34318,
-8.4628,-5.4601,-5.7502,-2.2079,1.677,5.0646,-2.765,-3.6709,2.7344,0.87843,-0.73427,1.4061,3.5523,4.016,
-0.48326,-10.6763,-8.5389,-6.6554,10.9761,1.1455,-0.91207,-4.6557,6.1855,1.0669,0.51485,-1.8115,7.4363,2.5695,
-2.6237,-8.3483,-7.3034,-7.943,10.5583,-0.12848,1.312,-0.76115,2.1992,2.208,2.171,-0.49775,9.1595,-1.1999,
-1.02,-2.5448,-7.8296,-5.5383,4.1402,4.2178,-2.6231,-3.1256,0.621,6.4138,-1.3338,0.49598,0.41478,-0.16402,
1.9333,-4.8027,-6.8774,-5.6879,-3.339,10.7132,-1.9837,-3.4205,2.5119,7.9572,-1.2537,2.3944,-2.9841,2.2559,
-1.0748,-4.9964,-7.4291,-4.8647,-2.6565,15.8549,-2.3467,1.1235,-5.3516,-0.71496,-4.5525,-0.64131,-1.3588,0.19286,
0.67648,-3.0094,-6.2604,-2.8856,1.6005,12.2526,-1.001,3.7072,-6.2358,-2.3593,-4.0388,0.12007,3.302,4.2786,
3.5286,-7.6493,-9.741,-6.0867,1.5042,6.6969,0.023137,1.0744,-3.9332,1.1565,-2.35,3.4871,4.068,7.8781,
4.0398,-5.0212,-14.2182,-3.5523,8.8858,15.2132,-4.5575,4.6254,-5.8664,0.3642,-5.8244,1.5906,4.5468,7.6464,
-1.9871,-4.7199,-7.0981,-5.2674,3.0504,13.3361,-3.8022,6.2765,-4.0681,-1.1039,-2.1005,1.0133,5.7203,5.7418,
0.78317,-7.5702,-1.611,-5.6747,0.21584,5.546,-0.92293,0.35586,-1.1729,0.64955,0.67661,1.1934,3.2079,4.192,
5.5569,-5.6698,-6.3346,-0.51349,9.3619,9.0696,-0.38516,-1.5937,-4.477,0.61058,-1.7741,-2.7346,3.0154,0.56601,
-6.1047,-5.5705,-7.6418,2.1689,2.2927,9.2488,-2.0493,0.18916,-4.9313,-3.0415,0.019556,-3.2934,0.66533,-2.119,
-11.523,-3.7903,-6.7011,2.5204,0.22674,7.7298,-3.3724,3.0701,1.6313,1.4796,-1.4276,-0.20349,-3.7131,0.41845,
-10.3497,-7.901,-6.7812,-1.9693,6.9618,6.7838,1.6505,3.3681,0.086962,3.8011,-1.3422,1.2547,-2.5263,-3.9452,
-6.3543,-5.9811,-7.8206,-2.3331,13.293,12.1614,2.0334,2.2021,-8.113,-0.7657,-1.7436,-1.2307,0.99977,-5.6367,
-2.8397,2.8141,-12.4128,-3.3982,14.1824,19.3857,-6.5245,-0.099411,-11.7233,-4.8169,-7.6648,-6.7002,-3.6397,0.24536,
-2.1872,4.0913,-8.2933,-2.7121,3.6907,15.3303,-2.2764,-0.57561,-5.2356,-1.6356,-0.45621,-2.442,-2.4572,6.015,
0.11319,0.23041,-8.0372,0.58362,-3.5206,6.9386,-1.417,-2.7102,-6.6087,-3.2247,-2.1161,-3.0184,3.2338,0.11047,
5.409,3.5906,-5.1448,5.8513,-0.41728,13.7532,-1.3319,0.34444,-8.6225,-3.5136,-6.8094,-2.8373,3.0398,-3.7525,
5.0845,3.8575,-6.7639,6.9464,-4.2486,15.82,-7.5185,1.2881,-7.623,-6.6768,-9.7753,-4.5953,-11.2426,-0.15294,
6.7076,3.6261,-8.7686,5.0834,-5.9219,9.0862,-10.4419,1.6927,-5.2374,-4.8299,-9.1887,-7.2121,-12.376,0.33817,
1.9666,0.51623,-0.047558,3.3324,-3.6382,5.1668,-3.5486,2.5557,-5.8873,-3.0941,0.039459,-3.8871,2.4666,-7.8771,
-1.5254,-0.47861,5.2579,6.5069,1.8828,7.2674,-3.8176,3.3663,-5.0516,-2.9084,-1.8911,-0.27938,7.0188,-7.8864,
-3.1215,-1.1733,5.1834,6.3574,-4.2562,7.5543,-4.3119,3.8872,-3.5437,-0.08283,-5.3931,-0.021648,-4.2486,1.0225,
-1.9699,-1.5848,7.2826,4.5297,-6.8929,6.6186,-1.1607,2.6901,-9.1159,-3.4523,-3.6232,-4.3587,-9.7783,-0.96705,
7.0661,4.5356,7.5687,9.3194,7.6207,8.8728,-1.3323,4.2157,-9.7738,-7.3423,-2.6827,-6.2665,-5.5764,-3.078,
5.6781,-0.55655,6.6329,7.3142,8.248,3.038,-1.734,1.0709,-3.8849,-4.4914,-3.0039,-3.9621,0.54302,-1.4472,
3.1682,-3.1747,7.9217,5.1881,2.6915,5.0249,0.056785,-1.163,-3.4109,-1.5708,-4.029,-2.5196,1.7157,1.7731,
2.496,-0.57387,8.4109,1.5026,1.0839,10.5082,0.53554,-2.0573,-5.1342,-4.3689,-2.3407,-4.7783,-2.2438,1.1845,
4.5158,1.6297,9.5935,-0.75671,1.7423,5.2985,1.2268,-1.6929,0.71749,-1.9376,-1.4774,-3.7687,-0.9039,-2.502,
6.4138,3.2189,8.2943,-0.95251,7.663,5.2208,-1.0167,2.9882,2.361,1.7939,-4.0401,-3.7838,0.35494,-6.9318,
-3.3708,-3.9638,8.0379,-1.618,-2.6784,6.1131,0.73177,3.532,-6.2161,3.8556,-0.66394,-1.8693,-1.3529,-8.6844,
-4.3741,-6.8597,6.8325,1.6119,-10.4722,1.6487,1.8929,3.0789,-7.5306,4.3474,-4.2398,3.3043,-3.4411,-2.138,
3.3602,-0.90407,5.2177,-2.5822,-7.1923,-3.5114,1.0565,2.6532,-0.57084,2.3993,-7.1189,0.45497,-2.9937,4.0158,
6.0511,1.0784,10.2068,-6.7656,-2.4224,-7.1571,7.2596,1.5302,2.3559,4.6655,2.4673,-1.501,0.07846,-4.9018,
8.5803,-2.843,8.1484,-0.57485,3.9897,-7.2099,6.8242,-0.49007,-3.5702,1.4938,2.8014,-1.4107,-3.7829,-6.5361,
6.1371,-1.7083,3.3209,0.90521,-1.0702,-3.8854,1.5938,0.021499,-5.2844,-5.8269,-0.2594,-0.84435,-5.0024,-1.8054,
1.1896,7.3123,2.8807,1.0923,-8.4778,4.7843,-2.1168,3.1537,-0.38763,1.9945,3.854,1.3759,3.252,-1.938,
-3.7021,-2.7674,-0.18421,-0.90141,-16.1638,-1.7697,-4.3999,-0.40998,-5.1849,4.2849,2.1765,-2.0811,6.4313,-2.3037,
4.4736,-8.6271,6.3346,7.5886,-3.866,-7.6893,1.8894,3.2298,-2.2227,1.8589,1.3228,2.6233,5.3223,2.896,
8.3025,-0.63771,-1.5178,10.2663,9.1404,-0.2381,-7.6239,0.86686,-2.3303,2.4703,-9.6029,0.29629,-9.097,-1.8575,
3.466,5.6671,-2.8725,7.2402,1.843,6.5251,-6.6841,-2.5596,-4.1187,2.3221,-7.5804,-5.9875,-9.6358,2.1103,
2.0528,8.4605,5.2536,9.9393,-1.8825,3.482,1.6707,-0.23641,-4.5947,-3.8428,-1.582,-9.2437,4.1987,6.5635,
2.653,6.2657,4.215,11.0301,6.1837,0.13962,-0.59918,-1.4275,-1.6677,2.8952,-4.1382,-6.5199,7.5622,-1.3022,
2.2528,0.34611,3.2392,5.3066,6.5361,-2.5198,-1.7681,-2.0652,3.976,12.6035,-2.2027,0.37875,6.3851,-2.4293,
2.8406,2.0126,-0.57058,3.301,1.5646,-3.5735,-1.9029,0.22831,1.5683,6.786,-0.8652,-2.2951,3.8329,-0.59633,
1.7058,8.1583,0.42753,5.995,-2.3861,0.014914,1.5852,0.21415,0.027934,1.0762,2.0788,-3.6036,-2.6641,-1.0429,
-1.2886,3.8124,-2.0078,1.7794,-4.1707,-0.46791,-2.8482,-2.6908,-0.45568,1.976,-1.4204,-2.4231,-7.8064,4.8047,
-2.8985,-3.8881,-2.6107,-1.9428,-8.0182,-5.9835,-5.3284,-2.2883,2.2228,8.3649,-1.0942,1.3373,5.4364,6.2036,
-9.955,-7.5107,-0.52585,-1.8262,-15.2497,-8.5165,1.2578,-2.633,4.9819,7.863,7.6485,4.1495,13.3054,-1.8814,
-8.8762,-3.6861,-6.7608,-4.1272,-6.6222,-2.7033,-2.1921,-0.54681,4.683,0.16038,3.8152,-3.8122,1.4194,-0.32269,
-1.1126,-2.5008,-2.499,-3.3974,2.452,-0.61271,-0.13216,2.8602,8.2582,3.525,2.6222,-2.6194,3.7446,5.9634,
-4.6612,-6.4481,1.7487,2.3505,-3.2382,-3.227,3.4912,-1.4087,4.1477,4.5192,2.2239,4.0457,8.0997,-2.8301,
-5.3457,-1.2408,-0.76654,6.5475,-4.4904,1.3047,0.38943,2.05,-0.43969,1.8373,1.6083,5.731,0.86454,-2.1786,
-4.302,-1.4073,-0.47958,-0.35279,-1.0875,-0.46083,-3.2494,4.0966,0.30959,0.5222,0.30694,1.7717,-1.3565,8.3165,
-7.4181,-4.2151,-0.45057,1.5963,8.1365,0.048982,-5.4648,-1.934,-0.67308,1.455,-5.4963,-2.1908,6.9198,7.8177,
-9.3832,-3.4803,1.5042,5.3569,9.5765,1.9742,-0.79855,-2.2999,0.33117,0.88527,-2.2744,-1.0955,8.9148,-2.2928,
-4.2409,-1.5843,0.20911,-1.4724,8.279,3.543,-0.50967,-0.95705,2.4805,0.10925,-1.4146,-3.1989,2.3543,-6.7345,
5.6548,3.8132,-1.2499,0.54436,15.0129,13.4536,-1.9251,-3.31,-0.56066,-0.37946,-6.6326,-8.7918,-1.1611,1.3821,
2.9053,3.1025,2.6819,8.7069,9.7738,10.7182,3.9754,-2.1471,-2.9367,-3.2488,0.51424,-4.8898,-0.60955,2.2635,
-4.0176,-2.3861,-0.37129,5.7741,2.4387,-1.4943,3.7367,-0.57221,-0.35059,-0.16154,0.48362,3.1166,-2.019,-2.6928,
-6.6691,-5.1354,-2.7596,-0.35693,-1.564,-1.8866,3.5125,-2.4661,4.0088,9.4891,0.4546,2.9296,3.4048,1.3252,
-9.8844,-5.5507,-0.9068,-0.57694,-4.1217,-1.5324,-0.31416,-6.4155,3.0453,4.34,4.5247,-1.8259,6.8155,1.9686,
-7.8453,-2.8068,-2.2984,-1.024,1.4285,-2.8865,-0.29508,-1.692,3.3448,0.22347,3.771,2.1402,5.4429,1.8507,
-8.8206,-8.9054,-2.6424,-8.6754,-8.2984,-9.4622,2.1332,0.81967,-0.71229,3.1026,2.0985,3.4581,-1.6326,-0.67048,
-0.57836,-3.5503,1.3725,2.45,-3.462,-3.1099,1.0409,7.0375,-2.1158,6.7728,2.9369,7.107,0.87549,3.2261,
-3.9181,-1.4091,-8.8332,1.8211,3.4946,-2.4409,-7.6982,1.3126,-2.4708,1.0638,-4.4701,2.8242,2.7516,-1.7881,
-3.924,-0.11929,-5.6517,-0.9393,8.3462,-0.60725,-0.24689,-1.4177,2.7387,3.6511,0.85976,2.8957,8.1297,-2.4038,
-3.6888,-3.9687,-0.97403,0.56309,6.3994,-1.053,3.1426,-1.3324,-1.7637,-2.8347,0.32601,0.31159,5.232,-0.33157,
-9.493,-7.3458,-0.19291,0.28811,0.47204,-1.7129,2.7129,2.3627,-3.3454,-9.6543,1.5115,2.9442,4.6769,-0.070478,
-0.48752,0.084351,-2.8324,0.029856,6.9512,0.559,-2.5116,2.4624,-1.4574,-5.4596,3.1081,1.0803,1.7452,-3.1997,
12.0748,4.4176,-7.9651,-0.45387,14.7288,1.9717,-6.2173,-0.57791,-4.2625,-5.614,-0.93482,-5.7334,-3.6622,-3.0078,
5.8069,-2.3547,-6.7641,0.77843,4.9273,2.5766,0.18152,1.1438,-3.7655,-7.4465,-0.63753,-2.7381,2.5833,2.7166,
3.0483,0.19671,-7.3226,3.1418,-1.153,3.8678,0.65256,4.4496,-0.6471,-2.6614,-0.11735,-4.02,3.3922,-1.3028,
7.6857,4.0413,-7.3652,2.9533,-0.60184,0.2617,-0.35046,1.7725,0.3556,0.87272,-0.11031,-5.2246,1.2605,-5.0815,
6.5017,4.0398,-6.2003,6.3916,0.15717,-0.47736,-1.5347,-1.9493,1.5396,-1.8307,-3.7191,-0.8138,2.8721,1.2494,
7.7988,5.4846,-7.0332,2.8746,4.2456,5.5768,-6.5043,-1.1094,0.24189,-5.3363,-5.1832,-1.0064,-4.7721,-1.9591,
8.7769,3.2276,-7.0933,-5.4924,1.0985,4.2786,-3.2218,3.2957,3.1197,-2.6058,1.3945,-0.46339,-10.7525,-9.0721,
10.9014,3.7568,-8.355,-0.10161,-4.511,-0.55788,0.58696,4.3028,5.1016,0.20166,0.58751,1.2512,-2.6355,-2.5022,
7.8369,1.1211,-5.4433,3.7606,-4.7225,-2.9348,1.0339,-1.2578,-2.4351,-1.2569,-1.3762,3.1041,2.3431,-1.8704,
5.6799,-0.15149,-3.9119,4.2584,-0.3418,-1.0715,0.7309,-1.9052,-3.9762,0.98811,0.87603,6.5332,-3.3411,-2.963,
6.7852,-2.5523,-9.9434,2.0749,-5.6237,-5.3457,-2.2052,0.61944,1.0829,0.92859,-1.5869,1.3212,-2.6585,2.5172,
3.727,-6.9785,-6.6953,0.26318,-9.3836,-7.6761,0.57862,1.7876,6.0796,0.14998,3.57,-1.4091,6.901,3.0895,
3.7443,-1.9809,-7.9813,3.3804,3.4714,3.6303,-4.5182,-0.48931,0.65312,0.38194,1.1866,-1.0841,0.46096,0.73452,
4.4838,1.0302,-13.7691,1.2496,9.5299,8.2334,-8.1033,-1.906,-7.0991,-3.9795,-7.0795,-4.3933,-7.2792,5.029,
3.2506,-2.8877,-8.604,-0.75332,10.4046,6.2934,-0.86842,0.61874,-0.88832,-2.2943,-5.6906,-3.1656,0.38858,7.1376,
-4.6572,-6.5709,-6.16,0.25575,7.3697,6.3977,-1.2982,-0.38272,3.0214,1.2174,-4.3853,-3.9395,1.8111,-1.4853,
-6.5469,-0.15107,-2.6569,2.892,0.902,12.0394,1.4307,7.5944,-1.2573,0.42144,2.8677,-0.56965,1.4614,-3.0835,
0.59436,2.7505,-8.764,-1.6203,7.1144,14.2091,-1.5476,6.1745,-9.3768,-6.8347,0.28548,-3.428,-1.0364,1.4399,
6.1023,1.8621,-9.9254,-3.2103,15.6056,12.6337,-1.2133,-3.1141,-0.37826,-3.2911,-0.93694,-6.8377,-3.1438,5.9328,
5.7362,0.78653,-8.8479,-3.9816,10.8129,9.9474,-2.1044,-7.7475,2.055,0.76274,-0.88026,-5.9455,-5.3649,1.7209,
3.2228,-0.94789,-8.558,-4.948,9.4407,10.0735,-3.6658,-4.1496,-4.0943,0.95794,0.37739,-2.4558,3.8746,0.41233,
-6.1293,-6.6754,-4.6699,-5.6152,-3.1766,1.2746,-1.0355,-2.9365,-0.47394,0.4183,4.6933,-0.37954,10.8732,3.2799,
-6.0028,-0.73146,-4.1489,0.74748,-5.6373,2.4032,-0.25026,-1.0729,1.2415,1.1163,1.7604,-1.0804,-1.5895,-0.050171,
3.5164,3.6507,-7.2744,5.041,5.7882,12.3819,1.6929,4.2937,-0.76119,2.0137,2.1367,-1.9794,-8.725,-6.3137,
3.3054,1.0216,-3.4635,6.6667,3.9946,10.6747,1.5914,5.4823,0.24835,0.4466,3.4547,2.9596,1.9214,-2.0789,
-8.944,-0.48598,-2.7738,3.8566,-3.4759,0.39367,-5.2526,-0.63121,0.2339,-0.54406,-3.9834,0.37191,1.3242,6.241,
-13.2283,0.98921,-1.6433,1.2148,-2.3032,-3.0046,0.36501,-3.4856,3.1117,1.4165,1.558,-1.0964,-0.68368,5.3844,
-7.8551,4.0631,-2.7497,1.8651,2.8964,-0.17303,3.9583,-2.5534,3.6481,-1.3198,3.152,-1.2718,1.5267,-3.3746,
-7.8657,-0.51899,-1.6209,1.7531,-1.6157,4.6576,2.7569,1.9382,1.0191,-2.2049,-0.89395,0.73266,3.8453,-3.6541,
-14.1424,-7.7187,1.8508,1.648,-4.8932,3.8962,2.1091,4.2325,-1.9341,-0.62636,3.0165,1.1711,1.6863,-0.060371,
-9.1968,-0.2657,-0.91132,2.7539,4.3184,3.4215,0.77775,2.2908,-1.0951,0.13412,5.0047,-2.0327,3.2724,-4.6365,
-9.1267,-2.6601,1.0718,-2.7137,-3.6537,-2.5682,3.6234,-3.631,0.89898,-0.83756,4.2223,-0.9466,7.4146,-14.9634,
-9.0612,-6.3567,8.2381,0.82377,-5.8443,-2.8962,5.3339,-2.931,-0.60144,1.1407,1.5586,5.3769,3.1131,-10.6909,
-3.4561,1.4963,9.4308,5.8358,1.4955,2.8209,-0.047553,-0.58616,-6.1087,-0.13285,-2.6325,0.4748,-2.1351,1.2785,
-0.35621,8.1554,11.7575,3.5575,3.3344,7.4724,-0.52663,0.89572,-1.8858,-0.12488,-0.063998,-2.9281,1.3674,2.1661,
0.62926,7.6659,10.0879,-0.030675,1.6879,7.0238,-1.9415,2.7699,2.0835,1.8106,0.422,-2.2703,0.80322,-1.8204,
1.7968,4.0729,11.6518,-4.1262,-3.4746,0.57683,1.3089,-0.047346,0.2717,0.49711,3.0478,-0.92878,-1.4141,-0.023985,
10.1244,3.1054,16.0142,-1.2273,-3.9893,-4.5192,2.9174,-6.5527,0.49614,-3.6303,1.6598,-1.1142,-0.12422,-1.71,
15.302,2.9191,15.5352,5.1129,-0.37547,-4.2481,-0.15019,-4.7133,2.8765,-0.038027,0.114,1.3627,1.3295,-4.0175,
8.1169,-4.005,8.8185,-0.014168,0.61093,-3.5113,-1.5874,-2.5023,-2.1163,2.3744,-0.85671,1.7629,0.76779,-3.7765,
5.9427,-3.0413,5.6383,-0.73668,1.2972,-2.5772,0.67743,-1.1468,-5.6048,-1.8654,-5.3851,-0.030096,6.2653,1.0299,
-0.9216,-0.68991,15.1822,3.4051,-10.1086,-8.9303,7.6264,0.12704,-1.1711,-1.9947,-0.00049927,5.0332,2.7557,0.24494,
6.1238,2.4852,0.17127,0.54948,4.5979,2.4516,-6.9312,-4.4601,-0.37752,2.2226,-14.1005,-3.2223,-11.5096,0.47098,
19.8564,16.4361,-13.939,-5.991,18.422,16.4045,-20.6153,-2.9872,-3.4884,2.3302,-27.3544,-17.129,-13.5906,14.5427,
32.765,29.5499,-27.2027,-15.9954,31.4167,29.5202,-33.4784,2.7356,-3.52,1.4675,-39.8132,-30.2013,0.48118,27.7702,
16.6991,13.6769,-22.7992,-15.7592,15.4317,14.7333,-17.3697,0.40211,-2.5861,2.1025,-23.3244,-20.6766,-0.27082,12.0039,
1.5971,-1.2437,-7.3312,-0.83372,0.4058,-0.25067,-2.2275,0.37822,1.4256,1.0123,-7.8249,-5.336,-0.73627,-2.8163,
1.9835,-2.1332,7.2087,1.8672,-0.9441,-5.1761,1.6423,-1.3319,-2.2751,-6.0381,2.6472,-1.5207,0.9949,1.6912,
2.5871,-2.7288,7.0173,-1.8601,2.2458,-0.28651,3.2308,-2.4571,-2.8617,-3.9888,1.2833,-1.6707,0.21208,0.3847,
-4.5575,-8.5906,19.3708,-1.0255,-11.9889,-0.51029,9.0625,-2.0687,1.4073,2.758,10.1244,1.5631,2.3685,-5.6639,
-2.838,-4.2185,15.3162,3.8565,-25.3696,-5.7821,7.0727,-0.98047,1.8048,0.18263,6.6246,5.3254,3.1905,-4.36,
-1.2215,-3.4835,9.0946,1.6973,-17.5807,-8.8096,9.0584,-0.43925,-0.71358,-3.2028,7.1915,5.0064,0.58894,-3.1341,
-4.5226,-8.0947,7.1031,0.14925,-13.1514,-4.4247,7.0687,0.55097,-4.0452,-2.5287,8.2058,1.8135,1.9999,-3.9104,
-4.4923,-3.5117,6.9179,7.6121,-12.6033,-1.0257,0.13708,4.6153,-1.6331,2.6847,6.0262,2.4276,2.1208,-2.9528,
-5.428,-4.5063,5.7795,2.5756,-14.9806,-6.9897,3.2619,0.241,1.116,5.1747,5.9056,5.8973,1.7526,-3.4986,
-7.0303,-5.6819,6.3968,-3.8457,-11.1894,-8.0168,5.9585,-5.0759,-1.3611,1.972,4.5872,5.5437,2.6116,-0.87829,
-10.7061,-3.1721,6.7361,0.9646,-11.2412,-7.2946,1.0214,-0.6742,-2.4847,1.6129,2.143,4.006,2.6956,-1.0668,
-11.2692,-2.7406,3.6806,3.558,-17.0747,-6.1338,-0.72685,3.9458,-0.64867,1.7569,2.7371,5.4527,1.8107,-6.0647,
-6.2543,-0.16555,0.56773,4.3089,-8.8191,0.50075,0.76302,3.2271,-0.60929,1.6515,-0.31918,4.6436,-1.6719,-1.844,
-7.3255,-2.084,0.53344,7.4246,-4.4338,-3.3859,-0.24732,0.62311,-7.3219,0.58827,-1.7465,0.50834,-8.8027,1.159,
2.5142,-0.272,1.7065,11.0762,-1.0345,-5.3517,1.455,2.2727,-1.8206,3.6862,0.52767,-0.72722,-4.1769,0.84823,
6.461,-3.3889,-4.9036,2.4581,5.0533,-3.8255,0.64455,-3.407,7.2064,4.1882,-2.1553,-1.4067,4.5096,3.4487,
-0.19343,-7.5241,-0.27084,-0.099699,4.7499,-3.5962,1.088,-2.2385,7.7381,3.9367,0.38436,1.088,3.7569,5.6521,
1.7466,-3.698,6.0122,1.3523,1.5731,-2.8978,0.058661,3.6806,1.9714,4.665,4.6998,3.915,-1.289,0.49249,
3.0876,-2.9942,1.795,-4.9953,-3.824,-1.7601,1.9833,1.0492,-2.4856,4.8671,6.346,3.6801,-0.24782,-1.4653,
-1.195,-0.16346,-4.3382,-0.59827,-0.94344,-1.8954,1.1414,-1.6649,-5.4695,2.8878,2.3499,-0.15609,-2.884,-1.1364,
2.2509,7.077,-5.0425,3.2938,5.3799,-1.3,-1.8198,0.84493,-1.2852,0.78611,-0.20148,0.81738,-5.6033,-2.0323,
3.8033,2.5552,0.32198,-1.4829,-1.9325,-4.8372,-1.4694,1.0359,5.782,0.49821,3.9082,5.8298,0.27675,-1.6692,
3.8161,-0.24919,-3.3128,-0.18863,-3.0214,-4.7879,-5.4786,1.2147,-1.0728,-1.2189,-5.2439,-0.063157,-3.3553,-3.7382,
4.7922,2.4166,-2.8728,2.4736,-1.1531,-3.7775,-2.4986,4.2751,-5.106,1.5055,-6.1348,-5.6032,-8.2154,-1.3449,
3.2996,-0.86163,1.8786,3.0483,-6.6278,-7.6485,1.2665,0.40292,2.19,4.0661,1.7049,-0.20557,-2.6615,1.869,
-0.755,-0.8097,-3.5365,5.7577,-5.266,-6.2255,-3.6299,-0.58535,2.0588,0.93028,-0.32539,4.6273,1.3548,1.2747,
-3.6018,1.1671,-5.2525,5.4122,-0.61128,-4.4057,-1.9659,4.2705,-1.4392,-0.57179,-2.2341,1.9395,-2.1005,0.71629,
1.9168,3.025,1.3294,8.9441,10.5124,-3.1772,3.9369,6.4246,3.95,6.2112,0.31034,-1.0692,0.91785,5.4938,
2.5249,-7.5206,0.52649,0.93541,5.7841,-8.0481,4.9057,-0.95097,2.9899,4.1515,2.4607,-3.6563,4.9599,0.58465,
3.0965,-10.6845,-1.1921,-6.1104,-0.10636,-9.2522,3.8883,-2.5809,1.1235,0.28724,5.9287,-0.78564,1.529,-2.1013,
1.4645,-1.3664,0.80763,-2.8512,0.86435,-7.2512,1.7268,2.3947,4.4301,1.2339,5.5729,2.636,1.4373,1.8812,
-3.2029,-1.5256,3.4105,-2.9213,-4.7314,-13.8058,4.7564,-0.88273,1.513,-1.4915,4.9974,1.7547,1.5923,-5.2218,
6.1483,0.49415,-1.6149,2.0746,4.7116,-8.1567,4.471,-1.3117,-6.7725,-2.8483,6.1438,-2.6889,-4.2879,-6.3543,
3.3693,0.94643,-7.7845,1.9502,2.9826,-5.7391,2.2746,1.1771,-6.8481,0.69709,6.2571,-3.4919,-2.1024,-1.1528,
-5.5098,-2.4846,-2.015,-3.9516,-6.3552,-10.6977,3.1022,0.62479,-0.65286,5.9577,2.5074,3.9482,4.7724,-0.60145,
1.3283,-1.6126,1.7213,-4.9198,3.4262,-4.9941,4.1214,-0.13605,-1.3368,7.7694,0.66977,4.9166,5.6909,-3.2169,
1.9717,-4.1667,-1.5152,-6.3116,-0.3946,-5.8995,4.1153,-0.85056,-1.9795,3.2061,2.317,1.0064,1.7343,-11.4593,
4.2638,4.7597,-3.3527,0.33333,-0.37162,-3.6176,0.49368,2.0923,3.4417,5.9056,-3.1249,4.8022,-3.6727,-1.6134,
1.3566,3.7515,-1.9465,-0.89127,1.8201,-1.2312,0.22332,-1.6484,-1.8263,3.8642,-4.1424,4.7553,-9.9595,7.8836,
-1.617,-3.2223,2.0269,0.1263,-0.69903,-1.1571,3.5841,0.86084,-4.6088,0.74055,4.3011,3.9878,-0.20317,0.17997,
2.5773,-0.37788,-6.0484,4.2161,-0.41612,-2.2929,-1.2107,3.9427,1.6931,3.3472,1.3919,1.0974,5.3526,-5.8564,
-6.4951,-1.0783,-0.14169,4.2043,-11.7193,-10.5913,4.8878,1.5367,2.3151,4.3514,4.9236,2.7186,-0.029977,-1.8893,
-13.5772,-4.1471,2.9998,2.7468,-10.2933,-11.643,5.3174,1.2036,-1.9216,0.95687,4.3872,5.2065,-3.1617,-0.089216,
-13.4857,-7.9957,-4.17,-4.8899,-5.5783,-9.7391,0.901,-0.073953,3.7373,3.551,3.883,3.6893,1.1254,1.1214,
-18.4612,-8.9619,0.90066,-7.9707,-15.8487,-14.4574,5.6674,-3.4437,5.9232,5.2659,10.3987,4.4321,2.022,-2.3201,
-14.4612,0.25242,3.2567,0.22033,-12.0055,-5.8774,7.7375,-2.7552,3.1574,5.4319,6.8822,7.5401,1.4187,-3.1452,
-18.896,-7.9574,0.65122,-2.203,-10.803,-7.4528,4.8631,-8.3745,5.3786,3.6602,6.9517,3.2313,6.1543,-3.4384,
-23.0648,-13.7465,-0.83366,-3.999,-6.2984,-13.2723,-0.24891,-8.8359,7.466,3.4406,7.0165,-2.7471,5.785,1.5881,
-12.04,1.0576,-1.748,2.5074,-1.1,-3.317,0.24796,1.8172,3.1616,7.5725,1.2929,-2.5823,-0.82903,8.2418,
-10.8354,2.9225,-2.1252,3.3211,-12.121,-3.6001,2.6434,5.5648,0.079644,3.2619,-0.71264,-0.49894,-5.1174,0.034246,
-5.365,1.7831,-0.5517,5.0498,-6.0914,-5.7945,0.55641,5.7126,7.3055,1.6197,4.1501,1.9409,-1.4361,-2.3782,
-1.6685,1.1942,-2.4463,1.3728,-1.869,-7.3745,0.041088,-0.89667,0.60063,-1.3695,1.9734,-2.9958,-1.8319,1.1394,
-7.112,0.88156,-1.5767,-0.3968,-7.7829,-7.6554,3.1721,-0.6019,-8.8354,-4.9028,-1.2785,-2.5751,0.92913,2.7583,
-7.1674,1.7925,-4.8565,5.8935,-8.7619,-2.8573,-1.8389,6.1831,-0.59251,-1.2341,-1.6837,1.4363,3.7659,0.66415,
7.001,11.5667,-13.9653,10.6014,5.8638,9.606,-8.2363,7.9811,5.4684,1.9727,-4.234,2.0728,-0.55764,4.2395,
10.4375,13.2835,-19.8756,2.7347,17.6835,11.9223,-9.1882,-1.6566,-7.8749,-5.3763,-11.693,-7.2104,-7.2729,7.8417,
2.5804,0.43493,-4.5831,2.0882,2.5225,4.4581,5.3424,1.3349,-2.5817,-1.1973,2.024,-2.4395,-0.56997,4.9611,
-5.0462,-7.5447,5.4533,5.0966,-11.7288,-0.87083,1.8886,5.3523,7.9373,2.9721,6.4821,3.2507,0.18736,-4.7363,
-3.5384,1.3437,-2.3457,7.9243,-7.8916,5.207,-3.7683,8.1647,9.6302,5.4453,0.54956,5.2249,0.89901,6.3936,
-9.5928,-2.5933,-4.1331,2.6281,-8.3825,-1.8544,2.2424,4.7823,0.37529,0.29791,0.034651,1.055,-2.5294,11.7946,
-11.4274,-4.8481,-3.8854,3.9165,-9.8077,-3.6711,2.1081,3.0493,-3.9855,-2.1303,1.4786,-2.8649,-5.7518,4.8202,
-11.9468,-5.2801,-5.8214,3.4405,-7.0498,1.1285,-2.1158,2.1435,-2.5414,-3.2078,2.5952,0.92238,0.61882,2.8442,
-10.5071,-7.6151,-4.749,0.10038,-9.2784,0.33765,-1.2662,-0.63693,-1.666,-0.84594,0.27008,8.3386,2.7511,3.8782,
-2.6461,1.5187,-3.9824,2.5047,-5.3473,5.6198,0.73823,-1.0809,3.7366,3.5434,1.218,8.3205,-0.30628,1.2351,
-8.5126,1.1868,-3.0198,-0.77883,-7.1956,2.1494,1.4171,-3.6669,4.718,1.1614,5.7244,3.7241,0.91716,-2.9361,
-12.3404,-7.0793,-2.8389,-3.6244,-9.6561,-6.1741,0.36794,-3.929,1.0602,2.5382,2.4887,3.9824,-2.5121,1.0967,
-13.287,-8.3413,0.46496,-4.1298,-4.0151,-7.973,1.0688,-4.4162,0.27369,4.5551,3.5446,4.9487,-5.0125,3.682,
-15.3823,-5.4307,6.7036,0.45628,2.0102,-5.0845,0.52271,-3.6693,3.6315,3.3174,10.0804,7.5439,4.4469,-2.3235,
-9.8798,-2.9357,5.0961,5.4906,-2.2078,-5.5026,0.25038,-3.2082,3.1729,0.46729,5.3782,5.8864,8.2779,-7.7277,
-2.5384,-4.2058,6.7185,3.233,-9.7881,-11.4389,6.0199,-5.9077,3.9464,-0.042685,2.163,2.6407,3.9243,-6.7821,
-0.45786,-4.9178,10.6537,3.5209,-5.8266,-12.1989,-0.12584,-2.6612,8.0479,4.2982,2.5152,4.4104,0.31443,0.85563,
-9.3482,-10.1661,10.2557,1.1403,-10.5384,-12.1901,-5.6621,-1.2965,3.4679,3.3172,0.67725,3.4227,-0.4271,0.5631,
-11.6796,-7.628,9.1584,0.58992,-10.87,-8.5661,2.8728,-3.6288,0.3673,-0.73824,0.63662,-1.6029,-0.40148,-0.43456,
-2.5432,-2.1088,9.814,7.5442,3.0384,-1.0625,3.9055,-1.2422,0.58646,-1.4171,-0.60664,-6.0863,-0.13665,6.5812,
-6.0058,-5.5973,11.8767,8.2968,-3.1695,-3.6499,-3.8007,1.002,0.31031,0.83711,1.117,-3.5519,-0.85135,3.0533,
-4.6813,2.9333,14.0561,12.1373,-9.728,-1.0207,-2.6088,1.9057,5.1119,3.6794,2.0138,3.892,-1.2822,0.45948,
0.66123,3.4804,11.5258,11.1683,-9.8672,1.6918,2.1277,-1.8238,3.6002,2.7355,-1.7222,-1.403,-5.7848,2.1194,
1.5854,-3.9595,10.834,7.1236,-9.7576,-2.7482,3.928,-2.6785,0.49186,2.0892,-0.65476,-2.7653,-3.0278,1.0276,
2.4544,-1.7937,8.2558,5.2503,-9.1721,-5.9578,-0.64597,-4.4459,4.3187,2.4458,-0.13354,2.7033,5.349,-0.96174,
3.5124,-3.8548,13.3045,6.6226,-18.0216,-7.2873,0.11569,-4.9021,11.5314,6.3969,6.8643,3.7464,7.6796,-3.5551,
11.0147,-6.0339,15.3981,9.1175,-16.4583,-4.9219,2.0372,-1.2337,8.9116,9.3873,4.5245,2.5575,0.46973,-5.7522,
15.6562,-2.2976,9.1718,3.75,-12.5786,-2.6982,0.46845,-0.19562,2.5921,5.9317,-2.0137,3.8501,-3.4146,2.3055,
6.0397,-7.9446,7.6574,-0.81359,-23.393,-6.875,0.44057,-2.1123,4.365,1.2373,3.8915,2.655,-0.79938,5.5414,
3.2672,-13.7344,8.6439,2.6094,-20.0612,-8.3907,-0.068023,-1.5034,8.9236,2.6091,7.5146,-0.3966,1.6585,-2.0217,
9.8199,-12.9106,11.0176,4.3808,-11.6269,-12.2258,1.3821,-0.93104,6.4597,3.4166,3.2071,4.4477,0.11294,-2.3826,
13.81,-2.7357,11.0794,10.144,-7.7961,-6.9128,-1.3519,-0.15228,1.0105,2.9707,-1.0827,7.3143,-3.0273,0.41148,
12.0175,5.1412,7.5226,12.4274,1.3488,3.1432,-2.7171,1.3031,0.94983,5.6849,0.42855,-0.83733,1.975,-2.5053,
4.548,-2.88,6.1074,4.9333,-2.5885,-4.2762,-1.1078,-3.1134,1.3752,1.0055,2.813,-3.1972,3.7847,-0.42676,
2.5877,-6.8048,3.5713,6.3246,-14.2433,-6.671,-4.1748,-2.2037,-0.87644,-1.7064,-0.48884,3.5021,1.8704,4.6605,
2.4324,-4.9503,4.3216,8.3554,-16.7632,-3.8604,-3.9241,0.82083,-0.82409,0.32445,2.4328,4.2561,3.6866,-3.814,
6.3838,-1.5198,5.7491,6.1669,-1.6574,-2.9059,-1.5195,-0.91565,3.8046,4.4023,3.4916,4.2417,0.33193,-0.93411,
13.7136,-2.8748,3.4759,6.7607,12.542,4.4996,0.49988,-1.3426,8.3971,9.4404,1.354,5.4334,-1.1342,13.2219,
5.6599,-14.2717,0.37532,-2.8039,-2.3105,-2.0374,0.95182,-5.1185,1.1443,3.0894,0.30885,-2.6053,0.38007,6.5238,
0.25864,-7.872,0.11137,-7.6974,-10.9694,-7.4587,0.65374,-0.71401,-1.0935,1.6987,1.4952,-2.2085,4.9365,-4.7139,
-4.095,-2.0969,-0.85895,-6.7534,-14.6496,-6.5291,-3.724,0.29293,1.3825,1.1151,2.8519,4.6731,6.5688,-3.467,
-1.1982,-6.5506,-0.56644,-1.7684,-13.5296,1.3345,-2.7772,-1.8938,-2.798,-3.0492,0.5112,3.1874,1.113,0.83841,
4.6585,-9.5317,-1.4966,0.26564,-6.9331,2.2185,-0.68263,1.594,-2.1478,2.4362,-1.4474,-1.8238,-5.2201,4.6447,
-0.68267,-13.0574,-3.094,-4.812,-11.0968,-10.2069,-0.40071,1.2574,3.5243,7.3517,3.2187,2.8649,-1.7739,-1.1776,
4.6607,-8.4178,-5.8011,-3.5592,-4.6464,-6.7024,-1.8227,-1.7103,3.795,1.6077,2.5434,7.9954,4.5989,-1.5891,
8.9608,-8.1535,-4.2477,-6.9606,-7.0187,0.20767,-2.9186,-1.8487,0.91617,-4.0319,0.70404,1.4901,1.1899,3.5679,
1.6745,-11.5207,-0.13603,-9.4355,-17.6848,-3.179,-5.1536,-1.2558,-0.10267,-1.3798,1.6257,-0.52746,0.63657,2.3895,
1.3328,-7.214,-0.851,-0.43343,-5.7775,-3.7114,-1.7112,-1.9036,2.0724,3.2825,2.7332,4.0837,1.3215,1.0411,
-1.6397,-12.084,-2.7284,0.55668,2.7636,-6.8634,5.1402,-4.6817,0.50159,0.19277,1.6051,0.94594,-3.0963,0.014537,
-0.336,-9.1896,1.5329,1.7283,7.1776,-4.7641,1.6985,-0.78511,0.71269,1.8687,0.78566,-3.6899,-0.25923,2.1831,
-5.1363,-7.192,-0.0055393,-0.30332,-0.96586,-6.8886,-5.1521,-2.1845,-1.258,2.7206,-1.6714,-4.4326,2.6486,2.5338,
-8.4436,-11.3402,1.682,0.43777,-8.8619,-7.6806,-0.74559,-4.2226,2.9146,4.2446,3.0082,3.3047,2.2487,4.069,
-1.6702,-7.7675,2.5454,3.3036,3.239,0.49322,1.2273,-0.59477,5.632,5.9181,4.7559,0.21438,0.18561,0.93278,
-1.0881,-0.07061,2.8746,1.6596,3.0447,-0.018537,0.67176,1.3691,2.8839,7.9732,5.9168,-3.1729,0.65641,-8.2825,
2.3517,4.2722,4.1482,8.7906,-9.1893,-2.9097,2.0775,-0.64146,5.6032,11.3514,6.5259,6.1762,1.5811,-3.4467,
6.0672,-1.2866,-2.8492,6.8169,-6.7096,-7.5554,-2.3855,-2.5307,6.7133,4.4038,1.3136,3.396,-0.44194,0.61646,
9.3184,-1.9325,-7.7397,-0.58176,7.793,-9.2715,-4.8937,1.7183,5.1054,2.9341,-2.3804,-0.90534,-1.1386,-2.0718,
13.58,4.4502,-7.7577,-0.064922,12.7483,-5.8229,-7.4926,3.5434,-1.4679,2.2761,-7.0583,-0.36909,-6.8548,0.94452,
9.6317,1.5316,-0.78427,0.17994,-2.1166,-2.8222,-3.4276,1.1616,-2.1027,-2.9222,-0.60923,-0.10598,-3.7924,1.6112,
6.1617,-4.3446,-3.6297,-0.31279,5.6029,-2.6528,-1.2933,-0.35436,1.3979,-4.6746,0.39165,-2.9917,4.1483,-2.3418,
6.7561,-5.048,-9.1963,-0.29379,11.5335,-6.3501,-3.6261,0.14906,-0.13201,-4.8763,-4.4523,-3.2943,1.971,3.1011,
4.6633,-5.9505,-3.5831,-2.9275,-0.0047605,-8.1384,-0.75717,1.8271,0.59904,-6.7531,1.3582,0.51851,-1.7624,4.1201,
5.1066,-1.978,-7.9476,-2.5106,6.5032,-4.9986,-6.7375,-1.8977,1.7682,-9.4811,0.071637,-4.0921,3.8867,-1.1886,
5.2822,1.0327,-9.3989,0.53206,13.3437,-3.7348,-7.2976,-3.712,0.69775,-1.1995,-0.89653,-0.95407,7.9918,5.1493,
5.6884,-0.716,-4.7374,3.1515,3.1433,-1.8233,-1.7978,3.0184,1.379,7.7903,-0.60154,3.2008,-3.3337,11.3485,
6.7931,0.77299,-5.8997,0.55201,8.2571,1.1782,-1.2082,5.2477,4.6705,1.5385,-2.9758,-4.2224,-6.5079,4.4008,
3.4934,-2.6478,-6.5096,-4.7838,19.813,-2.7489,-3.5459,-1.3342,4.3903,-2.4102,-0.86906,-5.4153,4.4874,-3.0941,
4.2479,-5.8632,-7.565,-0.64011,12.3575,-4.5121,-8.6355,0.19236,-2.6218,1.5906,-2.2629,-5.0901,3.2545,-4.3549,
7.8494,2.6833,-8.0754,3.2547,0.52879,-0.38526,-4.7434,5.483,-2.4645,0.048906,-4.5378,-4.7847,-3.6901,0.2447,
9.5479,12.8864,-6.8678,-3.4483,3.1486,-0.12072,-1.3251,1.0569,3.7091,-3.5692,-4.9886,-1.8463,-6.1196,3.3637,
11.3854,8.739,-8.3837,-7.58,6.3339,-4.452,-3.174,-1.8988,4.4507,0.50155,-2.2789,-1.2534,-6.2346,2.6797,
5.1584,-3.1138,-6.1941,-6.884,-2.0001,-9.7287,1.114,-0.097877,1.0504,0.23026,2.9192,1.9546,-1.7629,4.206,
-8.4077,-7.9884,-7.5095,-6.2302,-7.9056,-13.7243,-1.6044,-3.2253,0.26423,-4.8455,-0.38917,4.9711,3.4043,2.7485,
-12.0006,-7.2679,-6.3355,-3.2048,-7.6723,-13.624,-1.2669,0.10174,4.8277,-4.3133,3.7315,3.9494,4.8873,-4.8882,
2.6989,4.2554,-1.6169,2.7723,2.9112,-3.6473,3.6296,4.9161,4.5382,-5.0186,3.9898,1.7845,0.25549,-9.4149,
11.937,8.0974,-2.2432,1.4006,8.7621,3.561,0.76071,-2.3687,2.5787,-3.9946,-3.7214,-0.0097869,-0.0008066,1.5138,
1.8208,-3.7168,-7.6522,-4.227,-2.6099,0.69599,-5.7929,-4.3958,2.665,1.7887,-0.84701,1.1961,1.6865,12.7512,
0.024303,0.60353,-11.2904,-1.3223,3.5722,6.1978,-7.1325,4.7856,2.2641,4.3325,-0.55523,5.7036,-3.9583,12.709,
3.3973,2.4955,-6.2747,-1.7249,8.1784,4.8619,-0.92,2.0883,0.68199,0.69807,-1.4858,3.9151,-1.7926,4.7157,
5.1217,-3.9207,-5.8982,-1.1395,6.7236,3.6061,-2.3111,-2.3753,-1.7691,-3.6821,-3.3248,-6.9251,3.1352,-0.38754,
12.5269,8.3656,-8.9185,3.2675,19.8175,15.923,-6.5105,1.1415,-6.0015,-2.4971,-8.9101,-8.9195,1.0191,1.5637,
9.3654,7.8639,-5.4911,-2.231,12.8441,10.1471,0.62882,-0.855,-9.4975,-4.2752,-8.3753,-5.492,0.47579,-3.8326,
2.0548,-2.7308,-6.1258,-3.5432,1.9506,-0.58463,4.9296,-1.2859,-5.5535,-2.0903,-1.1241,-3.2341,1.4113,-1.6742,
0.72621,-1.8441,-4.5529,-0.19756,-0.81801,3.0659,7.285,-1.4497,2.7335,8.399,4.9689,3.4675,-1.3244,3.9694,
4.539,3.087,-1.8696,1.7425,-4.1434,2.8817,2.5095,-4.2552,2.5695,5.0025,1.7782,5.1876,-1.245,-4.4635,
12.7026,6.9994,-10.6753,0.91481,3.5773,0.53963,-8.4871,0.57961,-3.6105,-4.6974,-3.3895,-1.6314,3.4092,-4.9188,
7.8431,6.8204,-11.722,-5.6476,3.1214,1.2304,-2.4347,0.30387,-2.6705,-4.1746,-2.4632,-1.2925,0.55314,-3.4184,
3.9983,4.483,-2.8237,-2.4164,-5.2606,0.19246,6.3887,-0.67846,1.8283,-2.96,-1.8332,3.6055,-3.3362,-5.1417,
3.5172,2.0448,-3.3774,0.37989,-9.0423,-2.4702,-1.4666,5.388,-3.8252,-6.3976,-3.4107,0.73833,-2.4129,-3.1457,
2.342,4.8144,-7.031,-2.0533,-5.1253,1.0525,-4.7529,5.5469,-9.3801,-6.4959,-2.7239,-1.7163,-3.2322,-0.54662,
7.5042,10.7921,-7.5734,5.7827,5.3051,5.3277,-2.5395,2.804,-4.9609,-3.696,-2.0785,-2.0953,-0.62817,-3.8883,
4.8848,4.119,-5.9142,5.6767,1.3714,-2.4638,-3.11,3.3586,-3.4584,-3.2333,-3.1586,-2.211,2.543,-8.2347,
1.4582,1.7027,-4.354,-0.2075,-0.88005,-0.62899,-0.75426,1.9518,-3.4919,-3.2803,-3.2106,1.5371,-0.74306,2.1418,
1.3707,0.63623,-4.0928,-2.1232,3.5111,9.0499,2.665,-2.0217,-1.3542,-8.3861,0.35653,0.48054,-4.0729,10.208,
0.56533,-7.3555,-4.088,0.17354,-1.761,7.3019,-1.592,-0.69531,-2.9599,-11.0162,1.5407,-0.7529,0.26903,-3.1787,
2.2189,-4.2628,-2.6376,-1.5239,-0.45009,6.1406,-1.2553,0.069535,-3.5054,-10.114,-0.23923,-1.4309,-0.47024,-1.301,
4.0137,-1.115,-0.55141,-2.3965,1.987,5.29,-0.2159,1.0295,-3.2949,-8.5431,-0.70704,-1.3452,-0.4418,1.1874,
5.7013,1.8444,0.92771,-3.2173,4.2779,4.9726,0.76069,1.9318,-3.0974,-7.0664,-1.6287,-1.2643,-0.41552,3.5265,
7.2874,4.6258,2.8007,-3.9881,6.4316,4.1923,1.1974,2.7802,-2.4296,-6.1605,-2.0129,-1.1884,-0.39059,5.725,
9.0191,7.4815,4.3197,-4.9539,7.733,3.6996,1.8487,3.8185,-2.5246,-5.0677,-3.0972,-1.3583,-1.0903,7.5509,
9.4423,8.9608,5.0243,-7.0673,9.1969,2.0314,2.2197,3.5894,-2.8555,-4.2817,-4.8396,-1.7588,-1.5068,9.0256,
9.3579,5.5309,4.7231,-3.2685,-0.031513,-8.6953,-3.2159,-4.8209,-2.684,-6.4352,1.2351,-0.2072,0.99397,2.6997,
5.181,-3.2369,4.6807,-3.7958,-2.6809,-10.8249,-3.7463,-2.3625,-9.995,-9.1821,0.92007,-5.7384,5.9955,-1.0777,
6.5571,0.090844,8.9794,-2.8449,-3.7252,-3.6677,2.0223,7.1795,-6.2618,-5.016,-0.82213,-3.2247,-0.3895,1.6383,
4.4767,0.80852,9.1637,-5.8075,-9.5274,-9.9554,2.1417,-0.24142,-2.2709,-6.402,0.9142,0.10205,-9.7664,0.81687,
10.4744,5.0981,4.7573,-1.1205,5.1442,-8.3942,-2.8072,1.7015,0.75767,-4.0899,-1.0686,-0.86817,-3.878,4.624,
4.5437,-0.9919,3.508,-3.4634,-0.10539,-9.8185,-6.0133,3.5276,3.1228,-1.9163,-1.4869,-5.1544,-1.2347,-3.3657,
0.89644,-5.2712,9.5638,-1.8095,-5.4019,-9.7118,-0.83199,-3.9151,3.8991,-2.7655,6.3153,-0.98898,0.28541,-5.0922,
6.3863,1.0709,7.3032,4.3246,9.0222,0.27115,0.90516,-2.4749,-1.3961,-6.6969,1.3571,1.7219,1.9555,2.2032,
5.2802,1.7295,9.0342,3.8241,10.7707,2.9062,3.5024,8.5198,0.85682,-2.1977,-3.3041,5.2336,-0.33098,1.3476,
5.2043,-2.4716,8.2511,2.3894,2.6529,1.0446,-1.2875,4.3932,0.56445,-0.37863,-3.8287,1.7865,-8.2649,-0.41999,
7.7844,0.56899,5.3457,0.31807,8.2783,3.3923,-1.21,-0.20893,-6.2181,-4.6945,0.73956,-4.5874,-3.4309,10.2103,
2.7378,-1.1521,3.8195,-5.2449,8.0223,-2.3551,-0.89667,1.4906,-8.0144,-8.028,0.45399,-6.9635,4.7289,9.3565,
6.6709,-2.2883,1.4216,-4.6887,11.1569,-4.3827,-3.9759,-0.76753,-3.4357,-2.967,-3.1887,-5.3404,2.758,0.3594,
14.7065,1.4642,2.5409,-1.2746,12.1745,3.3518,2.288,-0.96268,-3.9532,0.34426,-1.7923,-1.8867,-0.058818,-1.3496,
17.1986,5.2332,3.8347,0.24812,11.9259,8.9355,2.6331,5.8435,-8.0543,0.32406,-2.6486,-2.7378,-6.8037,3.5521,
3.6334,-2.3117,3.1229,-6.0331,1.5694,-3.1698,-1.3815,3.565,-4.1966,2.715,0.40259,-5.4659,-8.3239,1.8929,
-5.9848,-5.7886,2.2124,-7.3585,-8.4069,-14.308,-2.0218,-4.6029,0.15256,1.3466,1.5835,-2.9685,-2.2811,-3.7645,
7.1487,3.9589,0.87437,0.55479,-0.4307,-4.5315,-3.5877,0.25301,0.38437,-2.8316,-3.0913,1.7889,2.4355,-0.88754,
8.648,-2.5453,-0.14195,-4.2987,-2.815,-1.3673,-3.3724,5.0581,0.36131,-5.5542,0.9506,-0.72858,1.8074,-6.6189,
3.3089,-7.2131,0.3485,-4.5228,-2.6461,-4.6595,2.1326,0.89821,1.7859,-2.8104,5.2323,-2.6131,2.6629,-10.0781,
2.3872,0.20978,0.56878,1.292,3.0563,-4.6209,2.7278,-3.7352,-0.0082578,-1.4367,1.3032,-0.28688,-0.14778,-1.0371,
-4.0228,-4.1418,-0.91183,-4.0884,-4.8401,-5.3079,-0.81014,-2.547,-0.0079917,-2.3146,2.6706,3.1046,-2.5497,3.8452,
-9.566,-14.0162,-1.3391,-6.2532,-11.7803,-6.9177,-0.27959,-2.3942,-0.97138,-3.622,2.0289,2.4363,3.3883,-0.72385,
-7.0638,-12.2111,8.3823,1.3528,-9.6274,-10.8411,5.5218,-1.2862,-4.2875,-2.9227,-0.021501,2.2902,7.0414,-6.9469,
-0.61446,-4.4888,7.1564,1.9945,-0.61389,-9.4676,2.057,0.47775,-2.8252,1.8324,-2.1894,0.94746,-0.85291,-4.361,
-0.095655,-1.8094,-1.9501,-3.4278,5.2075,-1.1867,3.8617,-2.443,0.23657,2.2044,-0.61175,-1.5195,-4.6586,5.5417,
-1.295,-5.316,-0.628,-2.0166,-0.16638,-0.39239,8.2096,-7.3579,-0.98269,-3.4713,2.5582,-3.1158,-0.28148,0.62965,
4.0856,-3.5508,-0.59009,2.443,-2.5665,-1.8149,0.96831,-2.0959,1.9686,0.11123,0.95869,-3.4106,2.1458,-6.6387,
0.46578,-2.3739,-5.8576,-3.9704,-6.2692,-3.1522,-4.3922,-0.52411,-0.077972,3.4788,-1.9911,-2.7242,-4.2497,-3.8305,
3.5713,4.7584,-0.44443,1.8115,-2.2776,4.0265,-1.9595,0.71263,-0.79619,5.9216,-3.0769,2.5009,-5.682,1.461,
6.9722,5.1961,0.7873,6.7642,-2.8638,6.9184,-1.1188,5.2494,0.45664,6.7714,-5.5437,0.66387,-5.5818,0.6502,
-0.67672,1.5101,-2.6342,2.0198,-9.4409,1.6826,-1.5338,5.4161,-1.9811,2.9904,-2.8007,-1.7863,-6.211,9.2881,
2.2562,8.6501,-4.8865,3.3447,-5.5,1.0997,-6.2623,2.1989,-2.8263,-0.56324,-2.1505,-1.197,-6.3205,12.5874,
1.6389,6.2029,-2.1832,1.6982,-7.5804,1.0337,-3.4764,3.5132,-3.1387,0.91682,0.38868,-4.4996,-4.0131,-2.2678,
-2.0751,5.5895,3.4917,2.8014,-3.5101,6.5153,6.6143,9.8101,-10.9041,3.9951,2.5348,-5.4347,-1.121,-6.1086,
-0.26292,8.87,5.4513,5.7668,3.2084,5.4015,7.4227,6.5704,-22.5422,0.62233,-0.75082,-4.3857,-1.7766,6.068,
-2.6575,1.5887,2.7139,1.0822,-1.3226,-6.492,1.675,0.39138,-28.9024,-1.8254,1.2227,-4.6047,-2.1522,-4.4192,
0.63521,2.6989,-1.0641,2.2223,8.6387,3.7797,2.2976,4.4655,-35.6042,4.7919,4.2825,-3.6053,3.5204,-5.8411,
-1.3316,-2.7662,-3.8928,-4.178,2.8175,6.4448,1.6773,-3.0333,-47.4477,-1.7626,-1.2771,-7.2454,5.2373,0.77592,
-0.04637,-0.91273,0.92052,-3.6859,-0.4846,-0.93134,5.1921,-3.5742,-47.2519,-4.308,1.4507,-0.78512,3.2359,7.2373,
-0.52575,3.9623,-1.5451,0.39144,10.1495,0.57057,2.4702,0.014484,-56.4681,-2.6034,1.3639,-2.666,-3.707,4.3927,
-2.181,-1.8188,-0.72946,1.0909,9.2996,5.598,4.9736,-3.1199,-67.18,0.20385,4.8974,-3.7113,1.5771,-1.8964,
-2.5323,-5.5661,-5.5057,-0.42063,1.9929,5.2621,0.81855,-4.3787,-71.4644,0.67425,2.1932,-1.0783,3.8929,-7.0855,
-1.8986,0.55223,-11.4426,-0.87755,1.391,2.0539,-2.6052,1.1864,-73.4435,-2.7409,-0.83064,-1.4957,-4.5361,0.088314,
2.3131,1.7248,-4.2481,1.3447,1.5489,-2.1665,1.1669,3.2849,-73.6162,-4.7456,1.3884,1.7275,-6.4326,4.1808,
4.1023,-4.6458,-2.5472,-0.66439,-0.95435,-3.0008,0.13284,-2.697,-71.6096,-0.60471,-1.5872,1.6236,-0.74427,-3.3011,
-3.6154,-7.9823,-6.0095,-6.1679,-6.9226,-2.0976,-0.59827,-3.7403,-70.4463,2.0829,-0.28694,-1.6071,-0.94081,0.99456,
-3.3985,0.69136,-7.0952,-2.4238,-3.1331,2.3665,-2.973,1.3044,-70.558,-2.8623,2.1404,-1.5106,-1.8482,5.7551,
1.1437,1.1323,-4.7413,-0.83215,-1.0169,2.2248,-2.7941,4.6006,-65.8424,-3.173,0.084246,1.4725,1.1547,-2.3029,
-5.9148,-12.6744,-6.1441,-3.9157,-7.9457,-5.3807,-2.8679,1.1911,-62.6152,-0.33105,-2.5724,2.1071,-4.4582,-3.3701,
-8.6932,-6.8523,-8.4263,-0.54705,-3.8533,3.3782,-0.044042,0.87886,-62.4733,2.3401,-0.24863,2.7038,-4.9134,10.9321,
-7.4484,0.066549,-6.2337,1.1728,-3.8631,5.3449,5.502,0.103,-65.2326,-2.8617,4.3458,1.8184,0.4429,3.4075,
0.22931,0.062327,-2.4857,6.4051,3.5993,-5.0991,3.7256,-3.2776,-58.9087,0.20204,3.6027,3.1556,-1.5119,-7.4022,
1.9028,2.7101,-2.0956,7.2256,13.2653,-5.0341,1.8148,-5.7321,-46.9383,7.6617,1.2173,1.279,-2.1445,5.334,
-6.4063,2.5473,-7.2723,-0.9205,7.1669,6.3551,1.2238,0.8786,-49.9063,-1.4748,0.18021,-6.0283,3.769,5.0142,
-1.4424,8.4202,-6.5947,2.7504,5.5319,20.0738,-1.5005,10.2257,-53.4197,-4.0377,-1.5176,-4.4616,4.7479,3.9902,
-6.8995,4.782,-4.0299,1.3801,-8.9001,23.0877,-5.0259,3.5866,-49.0092,-0.18,-1.1856,-2.0247,-1.0806,6.8843,
-12.9932,7.1459,-6.9214,1.0561,-15.9586,20.4969,-3.0373,5.5403,-42.4537,5.8561,1.5369,-0.21624,-0.77502,6.23,
-10.0445,10.8145,-9.1576,2.6799,-10.4215,21.9186,-2.6141,12.1978,-40.1472,9.1206,6.024,1.9664,-0.0051619,5.6152,
-13.2982,1.971,-4.2694,-1.8192,-13.6524,13.3727,-3.9031,2.3073,-36.7743,7.6091,8.0731,6.6686,1.9233,9.1347,
-12.0181,4.2631,-3.5311,-1.7103,-12.3513,15.9445,-4.1511,1.6867,-31.6755,8.5986,-0.12429,7.7145,0.36191,16.2996,
-8.8869,9.3099,-6.2117,1.2849,-11.6103,19.8086,-4.3839,10.7445,-28.3287,7.6007,-2.045,0.98515,-6.8906,9.5371,
-7.3898,10.1971,-5.839,6.028,-7.5394,20.5478,-7.0134,7.6893,-24.701,4.2521,1.9341,-2.9303,-7.4415,3.1798,
-6.2231,12.2369,-9.1041,6.8716,-0.57911,22.4484,-6.3516,6.0231,-25.8701,2.3102,-1.7974,-1.5492,-0.4871,5.1586,
-11.3933,7.4048,-7.8349,0.91573,-5.1241,16.0398,-1.3913,6.3846,-26.9694,1.4483,-0.0023287,-0.73338,3.1575,3.1614,
-15.2888,2.3815,-2.7849,2.0659,-11.8061,4.7138,-3.4767,-0.023784,-22.2175,-0.80755,4.0954,-1.4125,3.6912,1.7671,
-10.2743,3.9256,-0.44885,6.0395,-10.857,1.7797,-1.5811,-1.2279,-18.7156,-3.4104,5.0547,1.8055,3.2286,7.6864,
-0.25787,3.931,-4.0373,2.0617,-0.80533,9.1447,2.6111,1.9793,-16.3873,-2.0005,0.6541,3.3844,-6.8471,8.4305,
-0.0014305,-2.3299,-4.0361,-0.23117,0.93022,11.2471,0.28574,2.1015,-7.9323,4.1451,1.8201,1.9765,-4.2666,6.2375,
-10.1242,-6.047,-4.2758,-2.6274,-8.7668,5.2696,-0.69573,0.047207,-9.8667,7.7528,5.0849,-0.070282,5.6299,5.8632,
-2.5269,2.27,-5.2246,2.1095,-0.28681,7.1231,1.9971,4.1417,-7.5875,14.2775,4.5389,1.6212,6.4974,5.7524,
-0.68831,-2.4461,-1.7778,-1.1503,-2.9212,-0.77658,4.0467,-2.6145,1.3034,15.5897,6.4359,0.31837,0.56368,-2.0643,
-4.2627,-3.0225,2.9083,-2.2868,-11.1818,-4.3454,5.0089,-5.1089,-1.908,12.9669,8.2187,3.9145,-0.67521,-3.6279,
0.81382,5.354,-3.0507,0.74291,0.09441,4.5924,0.85201,0.98218,-12.8805,7.8506,4.3516,8.9827,-0.1523,-0.035787,
-1.8866,-0.028905,-3.5906,-3.399,-0.63438,2.1477,-2.3326,0.20035,-10.4207,2.8002,5.7773,11.0948,4.9181,-2.6847,
-2.2548,-3.8833,-2.8932,-4.6409,-8.791,-3.2833,-4.6028,-2.2218,-5.9388,-2.67,1.5747,2.7164,4.141,-2.5236,
3.9055,-0.51707,-2.9606,-2.1937,-5.1305,-1.3996,-0.71118,1.5265,-6.3059,-6.1256,0.27492,-4.4365,-0.68717,0.7608,
1.9844,-1.2089,-0.6138,-0.85681,-2.1712,-5.4129,-0.42754,3.6045,-9.5425,-7.9273,0.98178,-4.4113,-2.3327,-10.6126,
3.7931,2.2376,3.7613,3.5329,-1.077,-5.0882,-4.7407,1.942,-8.4882,-7.4516,-2.452,-4.1466,-5.0853,-10.4582,
1.1556,3.5498,10.2848,6.6956,-4.3866,-2.8547,-1.0815,-0.58491,-2.6763,-7.4867,2.516,-0.041181,-7.19,4.2693,
0.12195,3.8188,7.2571,9.1859,-0.7492,-0.75544,-2.4629,0.89645,-2.5157,-6.0732,3.3289,1.8895,-3.8666,5.3389,
1.8019,2.8663,-0.16817,7.4295,-0.46305,0.49518,-6.8944,3.0118,-11.7648,-4.9859,-4.8245,-4.2499,-2.9117,-6.792,
-2.4036,2.4538,11.1706,9.1533,-1.6403,3.599,3.4012,4.5183,-7.4432,-2.0352,1.9729,-0.86141,1.8428,-3.2506,
-6.357,2.0649,16.0437,7.3986,4.4836,5.07,5.8484,-1.2966,2.4029,-3.6005,4.5054,-0.086597,2.9373,3.9337,
-2.3601,1.2181,13.3939,3.8217,5.4197,3.5605,4.2922,-1.9417,2.9819,-1.2153,2.5478,-1.7686,3.002,1.5285,
-1.4954,2.3501,9.9389,3.3512,-0.44911,1.6599,1.3834,-0.62014,-6.1151,-0.9012,-0.73831,-0.93938,0.17055,-4.1071,
-0.92351,3.6551,11.7529,1.2221,3.9164,1.5601,1.7825,-1.0651,-4.7839,-3.2575,1.234,1.0449,-2.732,-0.48597,
1.3011,-2.5897,13.2169,-5.8411,7.7788,0.26163,-0.49358,-5.5805,1.0468,-5.2312,0.43701,-2.1508,-9.0755,3.1586,
6.0435,-0.023996,8.5673,-4.5265,6.3479,5.0664,-2.3924,-3.3177,4.8403,1.8313,-4.4097,-4.4321,-5.1568,1.5226,
1.5833,2.1468,5.8843,-6.4243,-1.9867,-0.29902,3.295,-1.4312,4.309,1.9627,-2.4577,-3.925,4.5524,-9.8967,
6.7909,2.5,7.9414,-4.1106,6.8092,-6.5481,3.5792,-4.7198,1.6401,-6.8322,0.58187,-1.2793,3.7973,-7.3747,
14.0965,5.2422,7.9471,2.8847,17.97,-1.3347,2.8823,-4.9187,0.57756,-6.422,-1.3815,2.1716,0.19525,4.6372,
2.8866,-1.0981,3.8546,-4.2781,3.1535,-2.9416,1.5043,-6.3106,0.30194,-2.4215,-4.9138,0.35435,-2.4678,-0.22059,
0.54402,-0.30905,2.9002,-6.6727,0.79488,-3.4882,-2.6835,-1.3524,4.8633,0.85703,-5.824,0.57382,-0.63272,-0.44855,
-3.8269,0.19189,5.6187,-5.308,-0.21668,-3.2789,0.37,-0.30698,6.9819,0.8056,-1.1362,1.9857,0.36957,-1.8674,
-11.0691,-3.4355,5.5225,-0.41024,-2.3733,-3.8051,3.9632,-2.4582,10.1782,-1.4119,-0.82711,1.1436,-2.3042,-3.925,
-4.1382,-2.2648,4.2271,5.8811,8.3746,2.208,2.7613,-1.3461,13.4241,1.0832,-0.29532,0.59283,-2.1657,6.4336,
-4.1314,-2.3704,8.0708,0.46657,-1.0459,4.7266,0.90842,-1.5068,7.557,2.223,0.4453,0.3163,2.0616,3.8784,
-5.8112,2.5926,10.961,1.8848,-6.2858,5.4069,3.264,0.029878,5.1754,-0.80242,-1.0272,0.77925,1.456,-5.5133,
-2.0886,6.2934,7.4113,4.6643,3.2504,2.1904,4.9964,-1.4182,7.2752,-3.1644,1.9265,3.625,-2.9697,-1.808,
-0.51699,2.0594,1.664,-0.91823,-2.7292,-1.7974,0.84023,-3.7432,3.4642,-2.0107,-2.5274,4.8538,-1.8276,0.71056,
0.23716,1.2127,3.2511,-2.0682,-8.591,2.408,0.067141,-0.38536,4.9436,0.76129,-3.0989,3.3575,3.8259,3.8016,
-1.2233,0.17586,7.3944,0.46602,-6.1476,1.299,0.54505,-1.8085,11.8776,-1.6945,2.8716,4.1199,0.22185,5.5013,
4.1529,2.0935,0.68444,0.43828,-0.4761,1.2211,-6.7187,-2.1817,9.2367,-0.62874,-6.9419,-0.94777,-8.4683,-4.9515,
7.7597,9.1987,0.16098,-1.5167,-1.8938,3.5579,-3.4235,2.2871,9.6464,4.7112,-5.5611,-4.2654,-5.5506,-8.0293,
