"AF3","AF4","F3","F4","F7","F8","FC5","FC6","O1","O2","P7","P8","T7","T8",
-23.6207,-21.6925,-20.7282,13.4974,119.0665,-22.1745,21.2101,-85.3231,10.6053,5.3026,-5.3026,-38.5643,37.6,24.1026,
-14.0083,-17.9804,-24.7871,17.9902,123.4917,-11.685,19.9375,-80.6857,12.3791,8.8409,-8.8409,-34.3223,26.6669,26.5129,
-19.4348,-16.902,-29.5664,14.0182,118.9747,-11.9482,16.3311,-80.1831,9.7082,8.3104,-8.3104,-34.6731,20.2466,21.0657,
-32.3687,-23.3595,-21.7667,4.7412,107.7386,-23.5231,13.1819,-78.9875,8.4025,2.268,-2.268,-28.4951,23.6114,17.1504,
-25.7263,-18.5835,-18.5325,9.7599,108.0232,-17.2915,9.9808,-71.8379,12.2372,3.0962,-3.0962,-24.8572,19.7845,27.2086,
-10.0828,-9.7557,-23.2056,13.0302,110.2189,-3.7205,10.3463,-64.1534,13.4307,5.3206,-5.3206,-33.4887,7.9922,27.5043,
-13.2137,-9.8935,-19.6438,10.079,104.8104,-7.1129,11.4125,-55.2428,10.9378,5.7245,-5.7245,-30.2747,13.538,14.0437,
-26.5209,-22.5562,-12.4397,4.895,84.7835,-18.4963,11.9331,-51.687,6.1842,4.6581,-4.6581,-15.2014,26.8257,14.8883,
-29.1475,-22.4079,-14.8265,6.7707,83.794,-12.807,9.0477,-48.3448,2.1975,2.6911,-2.6911,-16.4587,16.419,20.9847,
-13.2986,-7.5659,-20.2037,14.5594,92.8664,-3.8436,7.0588,-40.1415,3.9941,3.0118,-3.0118,-24.63,1.9363,12.495,
-17.6829,-16.9943,-11.5197,6.6959,101.3944,-17.713,12.6608,-38.4561,6.8875,1.1439,-1.1439,-18.091,12.184,6.6836,
-25.54,-26.8207,-1.9104,3.6426,87.3568,-28.5813,16.9624,-39.7642,5.2694,-1.0939,1.0939,-10.0156,22.7811,14.7182,
-11.9562,-13.6423,-5.652,9.2089,96.2154,-12.8867,14.981,-34.0039,4.4711,-0.064161,0.064161,-9.4145,12.2555,15.2816,
-11.4796,-8.7262,-15.195,3.5949,99.7222,-8.0159,2.7537,-33.1687,4.444,-1.2654,1.2654,-11.019,1.156,1.1081,
-17.0578,-13.9872,-15.2476,-1.9235,85.5442,-10.9094,-4.1599,-33.5887,5.1417,-1.1895,1.1895,-15.6605,9.7638,-0.8861,
-30.1343,-27.1272,-5.6554,-6.1461,66.3115,-23.7522,7.1767,-35.9119,5.7973,-2.0822,2.0822,-16.6488,15.9266,3.9876,
-42.4263,-31.7663,-4.352,-7.2239,48.2328,-30.522,9.1564,-39.0599,4.0029,-1.4751,2.4394,-5.5268,8.7043,5.1943,
-29.7578,-19.4967,-14.4557,-2.2111,56.4256,-14.5907,-5.493,-36.4755,1.5936,-0.66368,0.60582,-4.9547,2.1565,8.4976,
-17.1261,-12.7828,-14.7932,0.57308,63.4044,-6.1229,-5.5251,-32.1176,2.7033,-2.3111,2.2567,-11.1649,2.2681,6.7829,
-17.0624,-12.0159,-11.0131,-1.3895,56.2257,-7.2018,3.4835,-34.0467,5.9151,-2.6544,2.6032,-6.6386,4.5426,1.0733,
-25.4389,-18.767,-10.1115,-7.3319,40.0775,-8.9391,2.069,-37.0658,8.6934,1.1201,2.6882,-5.0352,7.8852,-1.6424,
-34.2764,-21.2564,-14.5663,-4.7226,28.755,-6.2334,-9.865,-33.1544,6.0029,1.2941,0.83948,-6.902,2.8326,-0.82073,
-27.6405,-12.027,-16.8258,-2.2701,34.5015,0.16618,-9.9965,-29.9601,2.9912,-2.8809,2.4763,-1.4267,1.4573,4.7721,
-17.064,-12.9926,-7.8621,-5.7493,27.8521,-2.4949,1.4496,-29.8497,8.3553,-2.4671,7.8714,4.6849,7.3954,4.2448,
-12.4245,-14.3822,-13.8983,-4.199,18.7092,-1.6223,-4.181,-24.4433,10.5055,2.7426,-0.072715,-0.65785,0.92616,0.37472,
-17.2231,-16.6528,-13.7873,-0.81408,15.4175,-3.2122,-8.0275,-19.3615,3.8492,2.8186,-0.30932,-5.1981,-0.3347,4.9315,
-24.1433,-19.7507,-2.1138,-1.0057,7.9849,-8.0807,-5.3767,-19.4047,-4.335,-4.34,3.3247,-0.30649,3.3013,4.3951,
-12.572,-5.5505,-5.8438,5.8026,4.1309,6.5042,-8.9105,-14.3842,-1.6653,-2.1514,3.1252,1.6396,1.1745,5.5772,
-4.3459,-1.1201,-8.6262,6.6597,-0.69622,12.0188,-11.9913,-16.6544,-4.2164,1.5931,5.5888,-0.14551,-1.547,6.9298,
-1.4336,-3.2218,0.32727,10.3577,7.7815,6.2362,-8.6205,-15.414,-8.543,0.29248,1.6382,7.3353,-1.213,1.9345,
1.3035,4.4431,-0.41549,14.3158,11.8941,15.7442,-6.8982,-7.9816,-4.8971,1.48,0.33489,5.2077,-5.7198,-1.7972,
-0.94382,6.828,-13.6469,3.5749,-2.9196,20.8251,-16.8482,-14.4924,-9.1826,-2.2242,2.484,-9.2048,-14.2946,-3.3761,
2.2463,6.1769,-10.177,0.70885,-10.8188,16.4421,-15.5963,-18.6843,-7.4263,-2.8137,2.5759,-9.4961,-6.4471,7.1903,
-2.468,0.26314,4.1724,0.42536,-18.1234,14.7327,-8.1531,-14.9119,-0.95521,-1.922,1.6984,5.1737,0.44722,12.7849,
9.9724,12.5394,-1.1397,7.3897,-4.7435,27.9487,-5.0123,-7.5095,1.2713,-1.5657,-0.090701,0.40421,-5.6052,6.4742,
17.0866,17.0895,-9.2662,4.536,-1.5671,34.587,-4.7118,-9.9514,-2.1797,-2.9178,0.87884,-13.5996,-5.2691,-5.0017,
1.9614,1.9641,-5.3358,-5.3772,-15.5731,18.4117,-6.8392,-19.9594,-4.941,-3.707,3.7182,-15.6759,0.34971,-5.1836,
1.0005,0.038774,-8.872,-5.0545,-17.41,16.9458,-8.8395,-20.69,-3.6802,-1.074,-0.36131,-15.2173,-2.5633,8.1429,
6.0017,4.6157,-9.0631,-5.9565,-16.6068,15.2057,-3.2474,-16.7976,-1.2902,-0.7686,-0.5806,-13.5813,-1.6866,5.9671,
8.2932,4.5802,-5.3853,-1.0194,-12.4765,6.3396,-1.8473,-12.174,-3.382,-5.3018,2.1058,-10.1149,-0.86207,-8.491,
12.1339,11.5358,-10.3649,5.3083,-4.4975,20.0593,-5.5928,-10.4795,-4.1434,-4.5017,2.9433,-8.5439,-6.113,-6.6559,
9.2367,12.5309,-11.9126,1.8563,-15.0739,30.0632,-5.4987,-13.4664,0.20258,-1.5805,0.59755,-5.8621,-10.8079,3.6253,
9.6466,13.7074,-9.2694,4.6377,-15.6155,18.1367,-6.1324,-9.7659,-0.29128,0.92465,-1.8487,-8.8846,-7.7491,2.4437,
4.0064,9.2693,-6.5443,7.9746,-13.4735,16.8073,-3.5955,-4.6004,-5.3357,-1.7822,0.91359,-14.3773,-0.77641,-5.1745,
5.2118,8.7132,-7.1155,7.978,-12.1832,27.368,-2.4155,-5.7706,-3.0874,-4.0858,0.85877,-10.6224,-4.1043,1.4025,
13.094,10.6007,-8.1346,4.6071,-3.7392,30.5464,-7.573,-6.8704,-0.0098423,-1.4303,0.80747,-9.5031,-8.1966,6.1388,
9.6573,8.2775,-4.5135,-0.73103,-4.2382,24.1344,-9.2882,-6.2172,-6.0348,-0.62113,1.4819,-7.2457,-4.0894,-5.0758,
6.4265,10.4321,0.33681,6.3029,-12.4193,30.1579,-2.7051,-3.1929,-4.9496,1.1031,-1.7402,3.5532,1.6998,-2.1199,
4.1125,3.5395,-4.9858,4.9607,-19.3872,24.0099,-1.0968,-3.4835,-0.79599,-2.3373,0.77452,-5.3369,-7.5614,1.8639,
6.0354,0.67601,-8.784,-0.39866,-10.2702,17.99,-7.0565,-1.5872,-3.3998,-2.438,4.8254,-15.3808,-10.7231,-4.7554,
10.2528,11.4815,-3.6775,1.7947,-2.6639,30.1672,-5.91,-0.76888,-6.811,1.3235,0.92069,-7.9502,-5.5002,-3.7474,
10.8424,18.7463,-1.77,3.8561,-11.4221,34.8646,-0.011794,-2.8921,-4.7151,0.52116,2.0703,-3.3756,-16.0165,1.0572,
7.2998,19.5497,-4.5559,4.1067,-24.2346,29.3983,-2.4217,0.65585,-0.57581,-1.4383,3.3923,-7.5119,-13.6092,-4.7913,
-2.2972,11.1462,4.8765,1.9323,-36.8805,20.4038,-4.2043,4.955,-1.5054,-2.3161,1.2604,-2.2405,1.3073,-9.3238,
0.73292,10.9593,9.4044,4.2265,-35.5111,23.036,-4.434,6.5859,-2.8613,0.23299,-1.2254,3.1966,1.5908,0.39464,
8.1608,15.8454,-3.9343,3.2496,-19.2804,29.1256,-10.194,5.9496,-1.0024,2.8701,-1.3928,-4.9491,-12.6047,9.2886,
7.4301,10.3154,-2.0111,0.4035,-19.6901,27.1371,-5.0026,5.3516,4.1194,3.4213,8.5727,-1.0368,-13.1744,4.152,
-0.24673,0.53718,4.3764,-1.5487,-32.6087,12.9756,-1.3282,-2.6822,1.4619,-2.5688,2.7559,4.3278,-6.5991,-5.7383,
-8.1854,-2.1461,6.2829,-0.25046,-44.7522,2.3152,-4.3815,-5.6546,1.6152,-2.6557,0.90332,0.93515,-4.034,-4.6707,
-1.669,3.0443,3.2549,5.7897,-27.9671,14.4683,-9.1803,6.0129,6.0975,0.63716,6.8747,-5.1467,-8.8536,-3.6675,
12.1697,7.9231,1.8545,10.0223,-17.7326,27.7002,-8.8702,19.7521,6.9372,2.2859,3.3289,-3.6326,-10.0094,-0.79617,
-2.6605,-5.3267,4.8763,-2.3897,-30.7687,12.9023,-6.1689,13.626,0.97736,2.8721,-0.96816,1.1646,-8.686,-0.50743,
-6.9597,-3.0792,3.6196,1.1279,-18.4382,8.7535,-5.317,7.9878,5.2568,8.0022,2.4642,3.0227,-11.539,-1.923,
7.4372,6.2651,1.9562,10.2193,-7.2086,20.7617,-2.5874,7.9907,8.3159,6.5578,4.7264,-3.4252,-16.1493,2.5307,
-7.109,-6.6446,9.5518,1.8936,-20.876,6.9828,-0.022286,7.0291,2.9964,3.7539,-2.3058,0.63672,-5.5392,1.8967,
-8.2492,-3.1126,8.7375,6.8414,-33.7235,2.9486,-3.1542,18.8996,6.4318,11.9646,-3.8545,8.5523,-3.5198,-3.7605,
6.3457,8.6438,-1.9097,11.7336,-17.6001,13.8589,-5.3751,24.5145,6.0464,9.319,3.1252,-0.63752,-17.4086,-5.945,
7.0496,6.9196,0.37385,4.0395,-30.6441,14.2325,1.9371,17.982,-4.1986,2.2517,3.1789,0.12386,-11.6643,0.91895,
-1.5677,-0.24402,4.2083,-2.9513,-42.0616,3.7376,3.2671,9.1905,-7.3211,2.117,-1.3501,4.455,-2.7693,-1.0639,
9.8544,-0.95251,5.1608,0.84092,-27.728,-5.4045,-1.0265,9.362,-1.338,4.159,-0.064065,-0.39207,-5.2545,-5.5796,
20.3503,5.8535,7.7432,8.0213,-18.8335,-1.2239,3.8558,19.8875,0.67047,8.2482,-1.5065,8.7905,-3.493,-1.3884,
8.2828,0.44043,5.5916,2.9605,-31.8035,-8.6225,4.3476,23.2738,-2.9854,3.6557,-2.1392,11.3963,-9.7911,-2.9926,
10.9191,2.1015,2.1229,7.3624,-31.2208,-14.6128,1.9173,26.9388,0.32698,-1.1431,3.533,1.3128,-13.7831,-3.5362,
11.469,-1.1583,5.1288,6.6795,-36.8196,-16.8693,2.5254,25.0813,1.5124,-1.7977,1.6335,0.99281,-5.4846,-1.6365,
-1.2702,-7.8375,10.1235,0.012407,-48.108,-23.5702,2.8561,21.1663,1.4219,0.23814,0.089497,10.092,-1.7808,-2.0205,
6.0371,4.2023,3.2495,5.3143,-31.1215,-18.2991,1.2384,29.5375,1.8185,0.70625,0.084127,4.1843,-13.2431,-5.2737,
10.4953,3.95,4.5006,4.5133,-15.1542,-22.504,6.9489,30.6573,-1.6648,-3.6747,2.0075,0.55859,-13.4126,-13.6342,
0.94754,-4.7227,11.7024,0.62707,-28.345,-35.2538,11.1113,20.8641,3.4968,-1.285,3.5743,7.033,-0.79775,-10.1646,
-2.4838,-2.0292,5.2157,-0.85681,-26.5238,-32.295,7.0702,21.5402,10.0354,3.1304,3.8413,-0.62004,-2.6781,3.4603,
-3.2988,1.4672,-4.2561,-3.2153,-15.2907,-16.3777,1.8255,26.997,0.75641,-1.8775,3.1291,-4.9207,-15.0507,-0.12158,
1.9608,8.3686,-4.7241,8.3054,-9.312,-4.5493,-0.45322,28.9923,-4.8326,-0.078046,3.6643,3.3278,-10.0503,-3.2478,
-7.7981,3.046,2.308,6.361,-20.3227,-17.7734,4.3945,28.2169,-3.5785,1.8551,-0.89414,-0.24607,0.67589,2.7319,
-10.7046,5.2734,10.8467,3.0868,-15.247,-19.1176,10.3973,37.6109,1.4564,4.1539,-5.1788,5.5533,4.4917,4.4962,
-0.18019,10.9828,6.0987,6.0353,-2.5218,-14.3549,2.3019,36.5595,5.4671,7.5203,0.67576,16.5485,2.0528,-2.2813,
-1.6154,5.9852,6.2145,5.191,-14.4218,-25.5449,2.6459,30.0274,6.5851,7.0689,8.3478,16.5197,1.4475,-2.6266,
3.3022,9.4825,2.4676,4.3976,-22.7151,-22.0841,7.7898,35.4566,2.8155,3.2703,-2.276,4.4413,-1.0495,2.8337,
7.6834,10.1189,2.0782,1.9642,-22.0755,-15.6973,6.5991,39.8367,4.3338,3.315,-3.3447,-0.88687,1.6646,0.49448,
5.294,7.5833,9.1841,3.2928,-19.305,-19.576,1.8646,39.8568,5.5198,9.3829,7.461,12.1815,1.083,-0.49929,
2.325,9.7796,6.4641,-1.0023,-22.7262,-22.499,0.065712,34.3322,-1.8015,11.4712,5.3264,12.6557,-3.5615,8.9304,
-11.0709,-2.1356,2.943,-15.0422,-35.4626,-33.4414,3.677,25.2826,-3.8623,5.2391,-1.5009,2.0144,-0.21455,9.1177,
3.6934,6.6697,4.2122,-1.2447,-19.2349,-24.686,5.3845,34.3705,1.1897,6.371,-2.8571,4.3039,1.2446,6.6425,
17.5718,16.1516,-4.476,2.9275,-7.9574,-22.4817,-3.8564,37.3701,-6.8352,1.8916,-4.3727,-5.3541,-11.6043,-2.6739,
5.9124,8.4339,0.61309,-7.3712,-21.58,-35.2328,-0.7327,32.2356,-3.0509,0.3321,0.71014,-4.0687,-8.0158,-7.8159,
-6.9756,4.5534,8.2891,-7.4114,-22.0929,-25.2858,2.6857,30.7834,4.845,0.79411,-0.2968,7.7445,-2.7146,-1.5623,
-10.1725,7.8956,2.7301,-3.3513,-8.4752,-10.9944,-2.0552,34.4801,-0.98936,1.9513,-1.0019,7.0389,-5.6852,6.0032,
0.56121,5.4939,1.1202,3.5989,-22.0667,-24.4347,-0.48537,33.8573,-2.858,8.5834,0.50425,1.7961,-1.9694,4.197,
8.9632,-1.8256,9.0067,-0.71434,-34.8427,-37.0687,5.5693,29.1747,7.6778,12.1657,6.5,5.7857,2.7281,-2.5628,
-3.6261,3.5863,2.1996,-14.7715,-18.6522,-20.7445,0.89659,28.3884,11.5553,9.9893,11.8944,7.3665,-2.7385,2.4115,
-17.5086,7.7097,0.13943,-15.2112,-18.6174,-21.5483,-1.0852,27.6492,6.0415,8.4258,7.3241,0.65799,0.8005,4.6771,
-11.0347,-3.8401,14.2311,-6.1036,-31.6003,-34.3554,5.2467,25.0261,7.1255,6.4742,6.4029,8.3315,6.0553,-9.7035,
3.7274,8.4414,12.2924,7.2778,-41.1532,-43.7428,-0.85293,24.9706,12.0004,7.5318,10.3568,12.6519,-1.0571,-14.7856,
5.3115,9.8633,-2.5452,-2.7996,-24.584,-27.0182,-14.9018,18.6519,-0.77099,0.33169,1.541,-2.2072,-13.5265,-1.3648,
-0.30988,3.0048,3.0309,-7.934,-31.9063,-31.3022,-5.2103,25.7277,-1.2069,-3.0629,3.3765,0.9382,-6.4486,-0.31877,
9.1089,6.4399,5.5006,-7.217,-34.5712,-40.2701,-1.2823,32.6202,0.070814,-5.5302,0.040846,7.3896,3.3383,-8.2534,
4.2239,9.4278,-0.1323,-1.4816,-30.0871,-48.4594,-10.8465,24.8781,0.066336,2.9961,-6.2283,2.6077,3.1378,0.91823,
-7.358,7.6568,1.0805,5.1148,-27.0766,-49.1672,-18.6314,22.6621,8.0161,3.5392,-7.0599,1.2459,-6.4505,-2.2704,
-6.1934,2.6181,-4.5275,-7.0022,-14.1238,-32.1172,-14.8624,34.5587,17.4171,-9.9291,1.3174,3.8227,-5.8225,-13.4619,
-2.9295,2.4612,-7.1482,-12.8488,-6.0457,-18.0181,-14.9348,43.0907,18.3005,-6.9234,4.613,0.70108,-1.1346,1.4458,
-10.2255,6.8929,-8.4065,-1.7136,-12.6729,-31.0371,-28.1387,37.8537,8.7668,-4.8208,-9.7637,-13.0798,-14.8048,4.8536,
-10.5761,7.9258,-5.9741,2.7278,-5.1634,-33.1517,-27.5347,31.2444,13.5432,-10.7978,-3.9962,-8.9203,-14.3987,-9.5376,
-15.003,0.94229,-4.8926,-1.5337,9.2464,-23.6908,-23.7135,32.5028,22.1306,-7.4989,6.1259,5.7149,0.20399,-11.496,
-27.6004,-2.4887,-0.26068,-1.9236,15.5608,-24.6799,-20.8446,41.6399,22.7309,4.5202,-1.4724,5.0101,0.67369,3.2938,
-19.4366,-0.16999,-0.96794,-3.4956,10.0477,-13.7991,-22.7274,42.7567,21.6078,0.63336,-3.5535,-9.0288,-11.1771,3.2166,
-4.1705,3.4556,-10.3099,-4.0088,21.2549,-6.4632,-33.1739,41.3965,21.0347,-9.7685,-2.135,-2.9435,-9.3012,-10.2328,
-13.4407,-1.5722,-3.4245,-6.6606,9.8565,-20.1755,-22.9886,48.5539,21.7011,-5.8077,0.8854,10.7307,5.3569,-3.834,
-12.3933,-2.6832,-0.56797,-6.9838,5.1678,-28.7266,-13.1736,54.5583,16.7831,2.494,0.10892,8.8816,-4.4855,6.7599,
-6.5878,0.12916,-14.6339,-7.2879,18.9577,-12.903,-23.2292,44.2952,11.1971,-1.7527,-3.5128,-2.0154,-18.3163,2.2572,
-16.3159,-3.735,-5.6814,-4.9225,12.6381,-10.5621,-11.2304,41.6375,22.0944,-1.1656,8.2671,5.8183,-9.1427,0.19312,
-14.1316,-3.7518,5.0236,-4.3861,0.069652,-10.1693,-1.6385,48.5392,21.974,4.9303,7.5301,11.4952,2.2522,-0.54137,
-7.7401,1.0526,-7.088,-8.7023,7.0553,-2.5693,-13.3501,53.0987,9.3274,2.9473,-3.7679,5.7438,-11.983,-3.6419,
-4.3837,0.9894,-9.073,-1.4317,20.1294,-10.1281,-11.1033,58.1075,9.2497,-5.9067,-4.5057,-0.3854,-15.2411,-0.53134,
-1.2283,-12.0854,5.5713,3.4749,24.2243,-9.5205,3.6629,58.9598,19.2995,-4.106,2.5131,1.5657,-0.22663,3.8389,
-2.3597,-25.4603,8.732,0.61511,24.4578,2.379,7.42,54.6991,22.2391,3.6119,5.9779,12.318,-1.5386,1.9215,
2.1204,-19.7143,-5.2895,7.809,35.0419,6.0926,-3.1481,59.6118,18.0127,4.3595,3.6911,12.0609,-15.5463,4.6988,
2.7163,-13.4703,2.0177,9.5097,37.5187,2.1116,4.5126,67.3633,21.9932,4.8209,15.7617,8.6861,-0.51349,11.8886,
-5.6416,-24.2312,8.6454,-0.70189,23.2164,-6.6919,11.4727,56.5731,14.889,-0.77104,12.4058,0.93411,1.6865,0.088096,
3.3738,-16.5106,2.824,6.0889,24.2334,-2.434,11.7484,55.1067,9.1752,-1.6889,-1.3537,-6.3528,-10.466,-6.1839,
7.2689,-9.012,3.8598,5.4826,19.1644,1.3277,11.2845,65.9003,8.8657,-1.8285,-0.54959,-2.8381,-10.561,0.21265,
9.002,-8.7127,3.8692,3.4664,13.4348,5.8273,9.8841,71.467,5.2007,-0.99543,-1.2395,5.7681,-9.2044,3.3334,
12.3185,-2.4049,-0.21933,10.4893,18.4133,11.2625,10.2553,68.1433,3.9243,4.3669,-2.1295,4.4581,-8.17,-7.4719,
5.7943,-2.2611,0.27577,6.9674,11.042,10.5865,11.5682,61.1621,5.6171,3.6225,-3.9299,0.81572,-8.6441,-7.9879,
14.8469,1.9722,-1.9097,4.3804,15.4409,17.9055,12.0792,57.2512,5.0393,-0.21001,-4.8992,2.9362,-13.1867,6.5913,
12.2686,-8.0283,-5.4108,-3.3544,2.7041,9.3589,14.4877,49.7186,-3.217,-8.6333,-3.8821,-3.7477,-14.5649,-5.9759,
8.3995,-9.2336,8.1705,4.3189,-2.5196,15.7875,22.5367,59.5101,5.4119,-2.5719,-0.99784,2.021,-1.3985,-17.4273,
11.2697,-4.3413,1.4137,6.9518,11.7316,23.999,12.9894,60.2778,1.7127,-5.3097,-8.1688,1.8997,-10.9558,-5.7764,
16.8601,-1.1883,-2.0455,7.499,20.066,13.882,13.6563,52.8048,-1.2826,-9.8118,-1.8941,0.33949,-11.7447,3.2469,
10.546,-6.4199,-3.8512,4.6387,12.1134,11.1211,12.3547,44.816,-1.6878,-8.7409,-3.2269,-0.64498,-8.6299,-8.0354,
3.1648,-10.8549,-4.1021,-2.3885,9.4584,23.9512,13.5416,47.4297,-3.9966,-5.8064,-6.4073,-0.60628,-10.5222,-6.5889,
3.9388,-10.2039,2.4108,-0.79917,5.5166,23.4782,19.9597,54.707,-1.8284,-6.904,-4.5768,-0.57013,1.1966,3.4476,
5.3895,-9.3507,-0.38542,2.8642,5.9085,16.5259,16.1111,46.8449,1.4143,-4.3206,-6.4714,-3.187,-0.56289,-1.339,
3.1384,-3.9689,-10.4852,2.6928,15.1955,22.2833,11.288,36.8038,-5.419,-0.20498,-7.5294,-2.9958,-14.5079,-8.0071,
-4.7629,1.0897,-6.9638,1.5671,9.4628,28.6588,19.2876,42.7901,-8.9505,-3.5669,-7.0774,-0.40569,-1.1042,2.1145,
-4.7184,-0.66291,2.3719,1.2317,5.2796,26.2164,21.7458,40.946,0.0227,-5.0401,-4.0016,3.716,7.8797,8.977,
5.9288,2.5099,-10.0627,-1.0114,19.0628,28.7407,6.7022,28.1249,-5.0403,-6.4249,-8.8232,-4.4612,-6.6931,-5.6616,
7.5013,1.3954,-8.4946,-5.7709,13.7014,33.7652,14.4953,31.2581,-9.0762,-6.5214,-5.4013,-13.3521,-8.8224,-8.3347,
-5.0001,-11.2215,1.1736,-10.2456,-1.2206,22.58,21.3386,26.008,-11.424,-13.3612,-2.6669,-15.9254,2.7944,-8.7987,
8.7977,3.5517,1.1034,4.4691,12.9526,29.9023,18.1301,28.3043,-5.4359,-7.2568,-0.57867,-4.8467,2.1448,-11.6452,
4.4132,6.1107,-1.3731,3.1166,7.3547,27.626,19.4526,30.9442,-5.5919,-7.3031,-1.508,-0.69932,3.9441,-9.9824,
-5.0106,-4.3791,4.0119,2.4474,-7.1866,18.7379,20.2134,23.7851,-3.3284,-5.9013,-3.346,4.1631,7.0817,4.1141,
6.1361,8.6576,-8.5211,4.9522,3.7294,21.7109,6.7081,11.5117,-9.6362,-6.2701,-11.5809,-6.451,-7.4432,-3.6045,
6.2501,13.923,-6.5638,2.2447,4.9517,20.4085,14.0186,17.0878,-12.4322,-8.7862,-9.922,-14.2589,-11.4554,-8.2087,
-1.8379,7.303,2.0247,5.002,1.2802,20.1479,18.9621,23.7753,-7.8304,-6.8132,-9.809,-3.2804,3.3319,-0.48583,
4.2981,9.9983,-2.676,10.2455,2.4086,26.4108,7.4605,17.2875,-5.6729,-2.3066,-4.1588,3.9063,0.36017,-5.5179,
7.6557,10.1213,-5.1666,8.426,-10.5103,20.2464,5.8076,12.1525,-7.984,-7.2299,1.1524,-5.7281,-5.2051,-13.1406,
-1.9627,3.2475,-0.51826,8.8843,-14.7004,16.1396,16.0644,17.2079,-6.0587,-6.7961,-4.2194,-7.3126,1.8562,-2.7112,
-11.4859,-7.5528,-7.2358,5.4589,-9.4799,17.5815,10.2796,7.9805,-6.6593,-3.4961,-8.7867,-2.5353,-7.8964,-2.0663,
-1.1556,0.61357,-3.4272,14.2904,1.2118,24.2394,11.591,4.6096,0.0067562,1.5344,-0.54673,5.8115,-2.12,-7.245,
-8.3171,-0.86973,5.4553,14.3971,-12.9609,12.18,16.1984,3.3689,-1.4397,1.4421,-0.5137,0.64234,8.1303,-14.5233,
-11.6747,-1.2995,-1.139,10.6408,-11.0984,11.9311,11.8521,5.095,-5.6921,11.479,-5.3036,-7.5911,-3.9271,-14.6158,
-8.5638,-2.6675,-15.1707,2.7717,-3.6838,17.0001,-1.3923,-2.4413,-14.027,16.0926,-9.8059,-18.2224,-12.8503,-12.2928,
-14.7987,-7.8101,-6.9089,0.19527,-17.5628,8.7492,2.5476,-2.7772,-13.6677,17.0553,-2.951,-10.3806,2.0207,-8.6627,
-6.6797,0.37171,-4.5659,4.5223,-10.1213,10.6344,1.4309,1.7282,-13.3296,16.9963,-5.1841,-3.4908,-4.0053,-11.9993,
-3.3871,3.2412,-13.9332,1.3582,-2.7658,14.8168,-1.0653,-4.1603,-9.6375,18.3864,-7.2834,-10.0305,-16.7807,-14.6541,
-17.2839,-6.8352,0.15898,0.071458,-16.6999,6.456,7.9162,-1.7415,-3.9981,19.9343,-1.7847,-3.8851,-1.6738,-13.0519,
-12.7519,-0.39952,2.8008,4.6469,-17.9878,11.1303,5.2721,6.3167,-5.9273,17.5334,-6.7393,-1.4828,2.6447,-12.0278,
2.1132,8.0606,-11.1056,-2.1398,-2.8085,15.5237,-6.3724,-3.4623,-11.1149,10.4559,-9.9504,-13.6859,-11.614,-17.3312,
4.5175,9.5051,-11.8855,-2.4934,-1.555,12.6641,-7.9183,-5.6647,-12.3762,9.8285,-6.9427,-16.7211,-15.8581,-15.3275,
-8.287,1.2221,1.3611,2.9589,-15.5617,7.5659,0.26958,3.3523,-7.7772,15.9872,-4.598,-10.8974,-0.80665,-5.2488,
-14.0563,-5.6002,12.3667,6.1558,-28.728,5.1838,6.0384,1.223,-3.9361,16.9567,-2.8758,1.8078,5.388,-3.0057,
-4.0539,-1.4078,3.9119,8.679,-13.7479,13.5499,0.85542,-5.1169,-9.9669,11.1186,-12.8267,7.4839,-2.1661,-8.128,
5.5893,3.7384,-0.42065,5.5067,-3.0411,15.8699,-0.88313,1.6976,-12.9843,3.944,-15.1905,-1.4013,-5.1696,-9.3276,
12.0026,7.8526,-1.8414,2.284,-2.8589,18.2924,-6.615,12.6827,-9.7949,-1.1132,-4.6379,-8.5478,-11.1262,-9.2501,
1.4001,-0.57273,1.8845,-0.022218,-16.7873,12.1332,-6.459,7.8244,-6.5561,0.15846,2.6302,-2.9733,-6.8432,-7.0078,
-7.3608,-5.841,15.8714,9.1377,-29.8801,-0.64638,7.4259,2.5342,-3.7526,12.682,2.9544,7.328,7.6674,1.6073,
3.2042,3.1868,8.5321,10.0359,-29.0509,1.3208,-4.1067,-0.027738,-11.7219,9.0292,-9.7562,-2.2704,-2.5541,-0.89899,
16.2681,11.9134,2.4763,1.9617,-13.2079,15.3416,-10.368,5.5173,-6.9215,5.3542,0.22898,-2.8573,-8.4266,-1.5682,
9.7487,6.6191,5.4615,-4.1813,-15.4282,21.5317,-7.5765,-1.3214,-7.2289,5.2737,4.7948,1.8936,-6.7155,-6.5355,
-2.1645,1.6427,7.303,-3.6895,-28.6025,10.8398,-0.61444,-5.3395,-11.8568,4.7163,0.40972,2.021,-2.2155,-6.8663,
-5.409,1.5439,20.8441,2.3165,-38.0943,5.3687,12.4378,3.1756,1.87,11.1822,8.0979,10.5766,7.0765,3.6686,
-3.3973,1.6924,13.5679,4.8291,-28.3368,6.2518,1.8096,-6.8969,-1.8576,8.8241,0.14022,6.3268,-5.6404,-2.0952,
5.9654,7.3752,4.0769,5.5034,-15.0672,16.9637,-6.9758,-10.3392,-12.8332,3.4742,0.13204,-0.8015,-13.0147,-7.7538,
3.9202,4.7636,5.5191,-0.8528,-22.1174,10.8842,-4.3881,-7.0678,-10.8583,-0.34972,-2.0455,-0.030507,-1.8697,-6.5657,
-1.1353,2.5496,5.6703,-0.31924,-19.3441,-0.85559,-2.1966,-14.3565,-5.3861,2.5638,-9.6351,1.8995,3.0632,-2.7973,
1.1018,4.0836,1.7145,0.90498,-4.0834,7.6312,-1.8236,-17.1103,-10.1244,0.7225,-3.5136,-1.8296,-8.4491,-5.7632,
5.3745,6.7311,-4.173,2.2965,4.4768,21.2733,-3.6429,-10.2996,-12.4095,-7.516,-2.8208,-5.5767,-7.4602,-14.094,
3.6055,5.8451,-4.8867,-2.1799,-3.9868,18.4302,-3.906,-19.8043,-11.1827,-8.0291,-13.2567,-9.5802,0.70043,-13.7305,
5.0764,11.038,-2.9063,-2.772,2.2784,19.0116,-2.9487,-29.4623,-16.0554,-3.9315,-16.0767,-10.6926,2.8276,0.34969,
11.0386,20.0169,-9.4806,1.7329,13.2287,31.9709,-4.2178,-23.8379,-17.0205,-9.9624,-12.7017,-11.9795,0.72949,5.6311,
6.0379,12.5489,-6.5016,-2.2275,0.38391,32.8247,1.8198,-21.4438,-9.2503,-14.1853,-3.263,-6.44,-0.76054,3.3651,
-5.4116,3.6015,4.494,-4.5042,-13.7391,16.7552,6.5311,-25.942,-7.7312,-9.96,-4.9952,-4.1254,2.1778,3.6453,
-1.2305,12.5442,1.3321,1.5509,-8.9377,15.3882,2.765,-31.616,-10.1596,-10.8084,-8.5516,-11.5907,3.4932,-9.5886,
12.9433,22.3968,-6.4606,7.7244,5.6986,26.0341,1.6348,-35.0217,-9.5501,-10.1599,-2.7363,-14.2697,-0.090846,-17.2084,
9.3949,10.2068,-3.4219,1.7173,-4.6464,18.9284,-0.63246,-35.0896,-12.5925,-5.9349,-7.6338,-14.1366,0.15557,-4.3658,
-5.2688,5.497,6.1834,2.3376,-17.6236,17.0698,-5.1738,-28.8869,-11.114,-4.3735,-9.345,-5.8166,5.6899,0.47589,
9.1474,19.2672,-1.1775,16.2973,-2.4662,30.1456,-10.407,-22.5739,-4.9036,-5.7983,1.5801,-2.8163,5.5894,-3.1681,
22.6985,21.3649,-7.6143,10.3781,5.7558,23.8779,-8.5777,-31.1014,-3.4041,-8.102,5.1007,-8.1909,3.5668,-2.2546,
7.2366,5.983,0.79608,4.6939,-8.6895,13.0454,-2.0373,-40.5637,-0.5485,-4.4822,0.21512,-3.6021,3.1121,-3.8068,
9.4535,-8.235,7.738,13.3301,-17.6884,15.3955,3.1464,-34.9967,1.1714,-0.59803,-0.038979,1.6755,7.9868,-4.3015,
2.1378,-14.9715,21.3737,15.4229,-30.7271,4.3493,14.0448,-27.5942,2.5474,-1.526,12.9788,10.7342,17.1486,-1.6331,
5.6248,-7.0838,18.7659,23.4153,-28.0401,15.4163,8.6226,-28.5899,4.5639,-3.1219,14.3694,17.5617,2.3811,-3.7043,
9.1439,-2.3202,6.553,20.0824,-17.1984,19.7938,0.39273,-33.1412,-1.0123,-7.7551,9.1687,8.3135,-5.9562,-5.8924,
-5.5047,-16.281,20.2598,11.4055,-30.2665,4.5061,14.1073,-35.2499,-2.1571,-10.423,14.162,9.0196,8.5011,-1.9234,
-17.1054,-25.7889,25.1901,14.8184,-42.5505,-9.8642,14.9479,-38.1967,-2.2688,-10.5209,11.6254,10.1655,-0.3247,-7.3517,
-15.3561,-25.4467,20.5454,11.7602,-51.5671,-3.97,14.2921,-33.2537,-1.4096,-7.2382,17.4355,15.5812,-5.8489,-8.5977,
-23.5935,-30.1864,33.4126,6.7163,-62.5731,-9.9983,20.1835,-26.4377,-6.1453,-6.322,15.9072,25.7336,8.602,-0.85103,
-8.0779,-14.2752,36.5898,20.4133,-44.7187,4.7016,17.5262,-20.9951,-8.6689,-3.0504,12.5428,17.9231,-0.22932,8.3591,
6.0248,0.68129,20.2944,25.0938,-27.9356,18.5195,11.8954,-22.3865,-8.8719,-2.1442,20.7079,8.8937,-14.3156,5.6881,
-8.4366,-13.0979,25.464,14.6701,-40.3595,3.3083,18.6535,-28.5156,-6.1704,-4.1847,24.5271,22.4601,0.64338,-2.6069,
-19.1384,-20.025,33.0952,11.3793,-51.9172,-4.7236,19.9444,-34.5174,-6.2821,-7.3081,18.7171,27.9816,3.979,-5.3428,
-3.8901,-4.7235,19.2993,17.6864,-34.7021,9.6598,10.794,-26.9027,-6.1461,-2.7723,16.8707,19.3133,-10.3597,2.4496,
-5.4644,-4.3196,16.6949,5.0559,-24.3048,9.6831,13.5206,-26.7346,-5.7776,-2.6057,18.2689,17.19,-11.7868,1.3383,
-18.1518,-18.1605,26.2988,-6.3344,-36.9465,-4.9979,20.9044,-35.2535,-1.0923,-6.788,16.2085,20.0151,-2.8846,-7.4188,
-4.2884,-12.8528,10.982,1.5174,-30.9936,7.7145,8.8037,-34.3437,-1.7498,-5.6577,8.7282,14.7167,-16.8115,-2.8762,
1.7537,-0.03028,3.5744,1.4266,-15.6366,21.3516,3.455,-29.3904,-2.6089,1.4304,13.9893,16.7262,-16.8875,6.4554,
-6.7876,-7.5003,7.4575,-4.2029,-26.0266,6.6939,6.381,-36.0633,-6.068,-0.82433,10.0167,14.9993,-9.8487,-1.8859,
-4.934,-4.1578,9.4206,3.2805,-24.4649,2.4358,10.8187,-34.3811,-5.7038,-0.77499,7.4874,14.5816,-7.3292,-3.7008,
-8.7357,-0.77524,5.2396,-1.014,-25.1663,10.2435,6.5543,-31.1133,-7.0489,-3.3799,8.7255,18.2863,-9.5412,1.5826,
-5.8012,2.1636,3.4794,-3.3638,-26.0667,19.2698,3.7509,-28.7646,-2.2872,-3.1771,1.935,11.4043,-7.5224,8.2363,
-1.3554,0.82881,5.9221,-0.51052,-23.7794,17.8726,6.6592,-31.6181,-1.9091,-3.2274,1.0963,3.2484,-10.2042,0.75261,
7.1615,10.179,9.664,6.5099,-9.0964,24.7543,10.8389,-28.9977,-2.9995,-2.3107,9.948,15.8278,-10.7974,1.9124,
4.5624,12.2195,2.0943,1.5395,-10.2381,27.3659,4.6449,-26.0531,-5.4711,-5.7875,5.7357,19.9394,-13.765,9.7516,
0.19154,4.0146,1.2455,-4.096,-20.9517,19.2169,2.6794,-23.7665,-0.081152,-1.8248,6.5969,13.6818,-14.6261,8.9256,
0.18005,1.8455,1.1707,-6.7425,-19.6946,14.6892,2.0365,-28.6073,3.7799,-1.2332,7.6471,4.1838,-12.7844,-3.6613,
-4.6513,-0.19331,5.4389,-12.1224,-19.9591,14.7719,9.6272,-33.6396,3.5532,-5.4976,8.6346,5.8611,-8.1608,-0.067275,
-4.3722,0.30011,7.0409,-9.467,-24.546,10.0295,11.4596,-31.1392,-2.4445,-6.6139,4.742,12.7401,-13.938,4.2752,
6.9774,14.2618,0.35194,-0.70406,-11.5041,15.6945,1.1313,-25.4145,-2.2978,-0.91464,2.5295,7.1552,-16.476,-8.9965,
-2.8415,8.8264,-2.8029,-14.7618,-10.5729,22.2242,0.82198,-27.505,0.49117,0.34553,2.1363,-1.228,-4.6414,-8.216,
-12.0709,2.7533,4.3553,-27.9761,-15.0001,26.9166,8.7267,-24.1676,-4.1177,1.0478,-1.6069,8.7279,6.0013,6.377,
-6.2849,11.5062,-2.4138,-18.5847,-10.9666,24.5785,-0.23276,-26.8147,-11.3422,-1.6664,-5.6076,11.3375,-8.4588,3.4639,
-2.2928,16.3591,-6.8486,-10.9624,-1.8728,27.6832,-0.94204,-22.0726,-1.744,-0.36122,4.1285,7.5239,-11.2053,-2.2879,
-11.073,5.4956,-0.89404,-11.9915,-7.3041,19.9966,8.0325,-15.6866,0.047901,0.86552,4.6037,8.7597,2.2414,0.98284,
-7.2753,5.4069,3.7392,-6.2104,-13.8556,10.3611,9.7196,-18.8429,-5.0165,1.0547,0.23043,7.0289,-3.9185,3.5753,
-2.2591,11.5901,-2.9929,-3.1868,-12.7832,17.2111,4.5571,-18.9177,-2.0643,0.26837,-0.50687,1.0637,-8.7449,0.70935,
-13.693,2.2178,-1.3671,-10.7084,-24.5497,17.6247,9.1043,-9.5875,-0.49422,-0.22989,0.0057081,8.7126,5.8798,3.5591,
-7.3278,4.7361,0.88408,-7.8967,-14.1586,16.8082,8.7991,-8.7713,-4.5619,-0.45706,-4.092,12.7694,8.0576,5.9969,
7.2119,18.5519,-8.087,6.6771,0.79091,29.8997,1.7634,-11.8606,-2.6012,1.2576,-3.6055,5.0134,-6.5259,7.8062,
16.5406,23.8258,-7.6018,3.9868,14.3613,32.0826,2.6215,-13.0772,0.92932,-2.1923,0.94915,2.7844,-9.1473,4.4453,
12.4149,20.2273,-3.0481,-3.242,3.1355,30.8807,3.1873,-4.8205,0.63236,-1.8196,-2.2411,3.3404,4.1762,7.3121,
17.6956,22.6289,-6.9628,-2.8068,8.9732,32.1612,0.82668,2.9403,-4.949,0.94045,-8.6143,-2.4036,4.1666,9.5249,
20.0083,22.2355,-4.6166,2.6643,7.4707,27.339,5.1159,0.83567,-5.1342,1.8484,-4.723,3.0433,3.9166,5.579,
22.1823,26.6862,-8.196,-0.3874,9.4328,33.4116,-1.4578,-2.5887,-6.7543,0.29142,-7.8138,0.93246,-3.0671,8.6184,
16.754,24.8436,-14.2117,-11.2104,5.7333,34.5404,-7.3959,-1.71,-9.9645,-0.93136,-7.104,-11.4155,-8.9086,9.7886,
14.3025,18.0505,-6.1286,-1.379,-5.2157,24.2731,2.2066,-3.0539,-2.1358,1.0529,0.07088,1.8024,4.6411,4.8627,
12.9624,13.1111,-3.8325,-0.81432,-12.6156,16.5502,4.0024,-12.5116,1.3668,-0.93865,-7.1642,13.7456,8.2193,3.1249,
12.6666,15.6987,-5.5307,-10.4062,-10.8945,17.4851,2.3163,-6.9405,-2.5716,0.56393,-8.1804,10.9929,-4.3252,4.8656,
16.968,19.8182,-10.2606,-5.6847,-7.5898,19.5693,-0.47404,2.3938,-6.5149,1.2532,-4.5563,4.7895,-12.0197,2.4043,
13.2986,18.3884,-10.3681,-3.6562,-9.7855,23.4566,-2.615,-2.8113,-2.5083,0.4549,-4.0417,3.297,-1.8985,4.9113,
7.6802,21.1415,-9.2641,-1.5086,-12.0909,24.9417,-6.7964,-3.1245,-3.3221,2.3558,-10.0662,1.653,1.5896,10.4012,
16.3784,26.1393,-2.4415,7.2588,-6.0628,22.4811,-0.12188,4.2936,-4.5689,5.5887,-8.9801,2.5179,-1.398,7.8492,
20.2165,17.8224,3.4901,3.4488,2.4959,24.0247,6.1524,1.1439,-1.8846,1.8794,-3.1386,4.295,-0.83175,2.558,
18.7625,21.8148,-2.263,0.59079,11.2643,31.0189,-1.6885,-2.5402,1.8439,-0.88496,-7.5296,-1.0239,3.3155,10.3583,
15.4671,28.9416,-7.6713,-2.0962,1.1882,18.7935,-5.2031,-8.4138,1.4923,-0.59089,-8.2831,-5.5422,5.7677,9.9777,
17.1904,30.3383,-8.416,-0.76538,3.2863,12.6044,-5.6136,-12.488,-2.6948,1.614,-1.2784,1.298,1.8062,-0.50309,
13.7491,27.072,-8.3928,1.209,13.2122,25.9481,-10.0973,-6.9182,-5.9074,-0.41131,-1.2019,-7.9387,-1.1942,1.9374,
-1.1758,11.4682,-1.1408,-7.5404,-1.6805,16.5582,-5.6353,-5.539,-1.2144,-3.2789,-1.1296,-15.1754,6.108,6.1598,
-0.74407,14.3957,-1.3133,-9.2574,-15.6797,5.2006,-5.5383,-11.7144,3.438,1.0154,-2.7493,-1.0084,7.4288,2.1745,
13.4006,26.065,-10.3935,-6.2918,-3.1697,16.4578,-13.8827,-14.386,-3.5172,-0.49179,-1.1381,-1.912,-3.1401,0.59779,
15.8503,25.4654,-6.3955,-6.8782,-2.9796,16.4342,-13.0497,-9.1845,-6.1982,-1.4261,2.7866,-6.1356,-3.4336,2.0082,
13.9354,26.3476,2.6651,-8.8756,-16.9008,8.6997,-6.4822,-6.2233,-0.041959,1.5515,-1.237,4.8373,5.9312,0.44143,
24.6682,35.3718,1.5411,-4.9689,-25.4072,16.3722,-6.5754,-7.7779,-2.9315,-0.95196,-5.5013,5.9936,3.1652,1.379,
31.865,45.3009,-5.3002,6.4163,-19.0623,21.1746,-9.0732,-12.1317,-12.3968,-4.751,-7.5816,-0.15084,-3.2915,5.6348,
20.7945,39.2083,-7.8743,4.1031,-31.8981,6.8887,-12.3852,-12.8501,-13.0993,-3.0197,-9.0544,1.3045,-2.1299,3.8505,
18.5827,37.338,-8.8479,-3.8556,-34.3225,7.9219,-15.4982,-8.7044,-5.5642,-1.3925,-8.9933,1.2264,-3.4481,2.1734,
27.8316,47.3902,-11.4505,-0.49127,-22.3812,13.9541,-17.2199,-14.69,-1.6154,-2.9961,-7.7308,-6.3194,-8.7848,4.2122,
17.7261,40.9314,-2.8095,-0.22037,-34.2947,-0.98317,-12.5713,-11.1571,-1.277,-1.1292,-1.7234,-6.181,-3.6782,1.7903,
8.7085,37.27,5.7948,0.99746,-32.9602,-1.2856,-8.2018,1.3222,-0.95988,-0.33827,-0.41489,-3.159,4.9781,-1.9323,
11.8017,41.542,0.86756,2.1431,-16.8826,7.7093,-10.3605,-12.0133,0.78494,-0.07724,-0.63073,-4.6565,-0.86393,-2.0576,
11.0931,40.9772,0.81551,-4.2524,-25.3901,6.7649,-13.5958,-19.4876,3.6304,1.8556,-0.11096,-2.9313,-8.5251,1.9223,
13.561,49.8468,2.4538,-7.6127,-26.518,20.459,-15.913,-4.2184,-0.20288,-3.317,-1.3096,-3.4783,-7.7724,3.0122,
13.7117,48.3027,-2.5137,-10.5299,-11.4294,21.2803,-16.4045,0.97616,-5.011,-9.8669,1.6615,-9.0542,-8.7521,1.3852,
14.5762,41.7886,-0.67563,-0.49814,-8.5744,5.9035,-12.2868,-6.0723,2.761,-4.6951,0.35652,-3.9312,-4.1296,1.0612,
23.3426,53.3813,7.5596,13.6318,-9.506,-1.3203,-4.3187,1.041,4.0416,-2.4852,-4.0032,3.5355,1.9028,2.9257,
27.0037,60.4225,0.59856,18.2367,-0.017805,12.8589,-7.675,2.1833,-9.9392,-11.7361,-3.0401,-6.559,-10.0215,4.4374,
23.2139,52.6993,-8.3554,7.2606,4.0806,23.5363,-11.7943,9.0422,-6.6917,-5.4888,-1.6524,-7.8527,-10.6255,7.3042,
7.721,43.753,3.2329,5.8609,-10.2642,8.0241,-7.7119,11.392,3.351,2.0716,-5.4094,5.1522,4.112,-0.36471,
15.091,55.2278,12.198,19.6092,-15.7946,-6.5574,-7.7316,6.8516,3.6318,0.50107,-1.7109,6.2888,1.3344,-3.7173,
26.4783,65.532,-2.6339,21.4457,-0.74695,7.9361,-15.2212,10.5385,-1.6475,-0.73406,2.9713,-7.8266,-12.8456,3.4959,
10.7896,47.5001,-6.212,6.0589,-10.9457,5.6518,-14.0672,18.8236,-4.2,-2.8594,3.9981,-7.5986,-20.6315,3.0449,
-3.9578,43.8062,5.9711,12.5643,-24.389,-7.9433,-10.0897,29.0228,-2.2608,0.92758,2.5534,4.6679,-9.9934,6.9596,
-6.8538,48.4089,2.7205,20.9697,-16.7794,-8.9127,-13.8229,24.8711,-1.6432,1.836,2.8819,4.87,-7.4656,7.0242,
-7.6478,46.2273,2.3165,21.3988,-1.6726,-0.90614,-9.3781,23.6198,3.0349,1.4849,9.6988,5.7831,-4.8483,2.5054,
-7.6709,46.3462,7.9621,21.0787,7.7072,0.59403,-3.9951,31.8436,2.3709,1.3958,7.6707,6.3999,-2.1472,-1.0194,
-7.6928,43.0835,10.3765,22.7065,2.9065,-11.4927,-2.3092,30.4149,-1.1458,0.83012,3.8364,6.98,6.1765,-1.4404,
-6.0262,42.1852,7.1028,28.3335,1.5268,-18.7573,-6.7499,25.4565,-3.7284,-4.2814,1.4366,1.9815,8.9392,6.1176,
-11.9314,38.6903,7.6405,18.4388,-2.4212,-8.9548,-6.3449,35.4988,-4.4688,-7.3989,3.7605,-2.4757,5.5105,6.7149,
-13.6255,40.2253,6.7,11.0656,-0.34761,5.6825,-2.1077,47.4688,-5.1646,-3.0985,3.0531,1.5293,1.3234,0.5275,
-1.7206,48.8989,-4.3072,21.9712,11.2423,19.4415,-10.1765,42.5718,-6.3009,2.3899,-1.9505,-0.97291,-12.856,3.3883,
-9.0892,40.4214,1.0129,22.8221,-3.1706,4.175,-9.8069,40.2585,-1.8255,5.38,1.782,-1.1555,-6.9026,5.3541,
-22.6438,29.3192,8.183,15.186,-16.9599,-8.9704,-5.844,45.074,0.69439,3.129,-1.2175,6.6268,7.6116,-4.1262,
-12.0059,36.2367,3.8354,16.685,-1.8423,5.6678,-7.9037,44.7797,3.0629,3.4235,3.1941,2.8548,1.2498,0.94189,
-1.6446,39.8473,1.6773,18.0942,5.3786,15.8126,-12.25,42.0932,1.915,2.7359,6.8591,-5.0291,-12.8047,6.1878,
-5.643,36.7334,8.5663,22.07,-2.4159,1.6077,-5.4892,35.9519,4.4514,3.7768,2.8319,5.1548,0.25611,-4.5471,
-5.3047,26.3346,9.0167,14.9613,-11.9119,-6.684,-3.2317,24.1538,4.6665,-0.3062,3.6263,5.3273,7.9535,-10.5413,
0.31601,24.7541,7.0294,9.7253,-7.341,2.3937,-2.5558,33.3094,-0.43421,-2.698,6.7827,1.151,11.3325,-3.1603,
-4.2822,21.5819,7.8127,11.3111,-5.6953,4.9019,3.6233,38.7829,-5.9515,-6.1515,3.7249,5.1795,12.8219,-2.7295,
0.071821,21.4922,5.1748,13.7655,-0.77428,-2.3821,-1.6558,28.9841,-5.3537,-7.9518,-0.11446,7.0379,0.7244,-5.6992,
14.1675,31.2899,3.418,20.6523,13.3722,3.0635,-4.4485,37.3684,2.1983,0.72048,3.2669,6.6156,1.645,-2.9467,
5.4842,15.915,2.2489,11.2183,11.0033,3.3614,0.63889,38.5006,-2.754,-6.0714,-0.30338,-0.047578,4.4386,-3.734,
0.57587,3.6319,-0.055235,0.66323,15.8867,6.7751,0.84152,24.8623,-4.758,-9.3228,-3.9006,-1.732,4.4133,2.0337,
1.9873,7.7525,-3.9085,3.0338,23.6104,6.8508,-4.5114,14.2113,1.3123,-0.086324,-0.77427,-2.1102,7.0408,0.46516,
-1.2652,12.8307,-3.9152,12.2515,20.0244,8.1267,-2.5537,20.3483,5.8127,8.3543,2.4054,2.1135,3.4848,-4.1423,
-0.46612,10.8558,-7.7774,6.455,16.6538,18.0032,-3.1236,30.9377,3.295,5.2022,-5.6929,0.78166,-2.7498,4.5422,
3.6592,10.9274,-6.5879,-2.8504,22.1623,22.4666,-5.1054,31.7326,1.41,3.6848,-5.1103,-4.8088,5.3689,13.6696,
8.0192,21.1182,-10.2897,1.9002,34.0889,19.9136,-9.8605,23.3214,0.6023,4.1868,-5.0444,-5.7254,1.9138,3.9316,
8.9841,22.7434,-6.7801,2.7503,26.259,21.1291,-3.9664,25.2963,2.9765,2.4896,-3.2957,0.88488,6.1375,4.1779,
-0.47283,7.6403,-3.24,-8.2603,10.5835,14.318,-1.0771,18.7171,-5.638,-3.6856,-2.8568,-3.7473,8.9025,-0.16991,
12.8122,16.5816,-5.215,3.5632,20.1923,22.3767,-6.074,8.1938,-1.2026,5.4534,1.4122,-9.0663,-3.9242,-4.7397,
10.356,10.0433,-8.0353,-2.6763,19.2217,16.4546,-7.3965,7.9434,4.4134,3.9211,2.0506,-7.7992,-9.714,-6.6242,
-4.3654,-4.6593,-0.80455,-12.1569,3.9684,1.3673,2.688,20,6.077,0.31162,1.9273,6.7688,4.9688,-0.92437,
-10.0088,-15.5876,-3.4076,-9.7405,-9.888,-12.8147,-2.5347,12.7743,3.0606,1.9799,-0.3577,10.8212,9.6114,-12.1973,
-3.1413,-7.9035,-4.167,-5.2992,4.8053,-2.8868,-8.6496,3.8131,3.3594,4.2713,-0.81817,7.7618,0.35785,-12.9113,
6.9289,3.8987,-5.1225,1.044,18.617,11.3864,-6.4432,14.4304,2.4347,4.2562,-6.3129,-1.1398,2.0234,1.9634,
3.6211,0.29078,-9.153,2.4276,12.1978,14.6801,-7.0205,13.0826,0.84236,3.5189,-4.9698,-11.1943,-0.025988,10.6432,
-0.93446,-3.5831,-6.1937,2.7644,3.7531,-0.3007,-9.0098,1.6928,4.6482,1.8615,0.63101,-4.2561,4.7963,-4.0954,
7.5575,1.6934,-3.1708,4.2855,13.8918,13.5761,-7.2642,9.5447,7.0206,1.991,-2.5401,0.57876,8.1237,-5.4164,
7.345,-0.57738,-4.6682,4.2693,11.3711,11.5563,-7.5512,10.6593,3.9483,1.1482,-5.0393,-12.7124,-1.7637,3.3442,
1.8426,-0.30177,-3.1828,9.5568,13.3401,-1.9111,-3.0008,-1.3085,4.4343,4.6947,-0.15715,-10.2626,2.9214,-10.1128,
1.2499,-5.1042,0.38237,0.78845,16.878,4.4699,1.5178,-5.5685,4.6504,3.4489,-0.62988,0.4765,11.4232,-10.4704,
11.5393,-5.0389,0.11892,-3.3562,20.927,15.0484,-3.6349,3.2017,4.6124,0.59089,-5.1714,-1.2393,4.2303,1.4863,
13.9802,2.735,-5.9145,4.7987,24.2509,13.9038,-7.0325,9.9993,3.1305,2.7244,-5.5842,-8.1551,6.1454,2.6022,
8.0799,2.8121,-6.2823,7.6445,19.6626,15.239,-2.031,10.6044,1.2553,5.2122,-2.1159,-4.0501,17.1049,3.1692,
21.0925,8.428,-10.2436,8.6321,28.1238,26.8581,-5.7651,6.1117,2.1443,6.3458,-3.4348,-0.43265,6.4379,2.979,
21.2732,5.9941,-18.3061,-1.5268,27.4007,22.8365,-10.2399,1.8886,4.4257,5.965,-7.5675,-2.3349,2.6772,0.39014,
5.8968,-4.9706,-17.208,-10.1125,11.6567,9.8969,-7.6975,6.1139,2.7142,6.5712,-15.7903,-2.195,9.2652,1.8128,
10.7249,1.8353,-16.4162,-4.4443,17.1031,19.6672,-7.9584,5.5058,-0.10001,3.5256,-19.9048,-8.0891,-0.20878,4.3553,
21.4101,10.1614,-12.2978,-1.5261,22.5848,24.0313,-4.8293,-1.332,4.0038,-2.7115,-7.3818,-6.398,-2.8473,0.47858,
16.0279,6.418,-4.5703,2.1811,7.1298,12.7072,-3.3349,6.2195,5.4506,-1.3437,1.9789,1.4575,6.7235,-2.6834,
1.5684,-5.0543,0.042267,4.9423,-7.398,1.8214,-7.4732,12.1129,4.1592,4.0395,1.8602,-2.9688,5.3558,-5.4149,
-10.3358,-12.7048,4.1371,1.5123,-21.0542,-2.3852,-6.3014,2.4685,6.5612,4.5205,1.9895,-6.4056,-1.955,-9.6693,
-8.5106,-9.7731,9.4322,6.001,-23.527,-0.073168,0.58392,4.0074,6.4083,0.15172,0.6651,2.4142,2.7416,-4.0277,
-6.7947,-7.9819,14.8923,11.1846,-16.5718,-1.7555,2.718,12.685,1.9264,-2.9909,4.2406,10.7055,6.1925,0.79326,
-9.5205,-11.1184,12.7935,5.4518,-11.9621,-5.748,-2.5063,0.11376,1.5699,-2.5705,10.4937,2.1094,6.5439,-2.8698,
-9.6724,-16.4766,14.6772,-3.7931,-15.8239,-8.0545,-0.18695,-12.1854,2.1988,-5.5495,10.5872,-5.007,15.0693,-6.3128,
-6.9229,-20.0678,16.9301,-6.6986,-16.0795,-3.4734,3.9221,-2.5366,-7.3331,-13.1703,5.8546,2.7654,12.4779,-9.5494,
2.4103,-10.4278,13.2629,1.6569,-1.3764,10.835,3.9275,11.7156,-10.0268,-10.693,6.2264,4.2865,3.7753,-3.4331,
-2.5546,-10.2841,13.431,3.0037,-10.4526,-1.2638,2.728,0.52829,-5.0865,-7.6413,4.8885,-8.9861,4.995,-1.2984,
1.2141,-5.5697,16.7225,10.2953,-11.5127,-5.7677,4.7335,-3.1188,2.2081,-2.6031,0.49786,-0.49321,13.6131,1.9125,
14.1567,1.5134,8.0064,8.7133,3.2781,8.6784,-0.37126,8.1555,1.1118,-0.51872,-1.9421,10.6236,6.5298,4.6903,
14.0302,0.69924,-0.42774,-3.1373,8.0226,22.2577,-3.0001,10.7997,0.80412,-2.6568,2.7537,0.58619,1.5585,4.6498,
9.091,-2.4757,-2.5712,-1.2618,-1.3768,7.1839,-2.5791,2.1975,4.8532,-3.2203,-1.9908,-5.9565,8.4549,5.5761,
9.0275,-6.1836,-3.8632,1.224,-5.1506,1.9321,-3.8706,-6.611,2.6338,0.34695,-5.7278,0.66744,3.1269,1.8671,
16.1986,1.4178,-4.5953,1.6325,4.7994,15.9162,-2.1921,-3.3223,1.5119,3.7006,-1.0458,7.8582,-1.8812,2.7189,
9.2014,-2.2824,-8.8991,-4.9731,-1.0322,13.6359,-4.7119,0.010324,1.18,0.82723,-5.5625,-0.085297,0.88299,5.6895,
2.8647,-11.3045,-7.8832,-4.6748,-5.7907,-1.2822,-3.4653,0.97403,3.5194,1.7415,-4.7469,-3.4546,4.2042,0.045506,
16.1902,-1.4672,-9.8208,3.3185,8.6567,10.9661,-4.7032,1.8795,5.7183,2.6013,-3.9801,-0.35484,3.952,-1.4035,
10.3983,-5.2354,-14.5335,-7.0037,15.7296,10.3083,-8.7596,-3.0538,1.5191,-0.44707,-8.0794,-6.6003,3.7151,6.3937,
-1.3128,-11.6701,-18.0003,-14.7782,7.073,4.8691,-13.0547,-6.245,-0.018342,1.026,-10.9691,-9.5787,-1.8105,8.4202,
-0.51115,-8.3184,-18.6075,-12.2043,12.6742,13.495,-14.4406,-7.0752,1.67,1.2054,-7.1775,-8.7626,-2.4247,0.44321,
-6.747,-14.5682,-8.8139,-10.9901,2.2728,5.4549,-6.8253,-6.1687,3.016,1.615,1.4479,-4.8624,9.7718,-3.9217,
0.40673,-11.284,-6.3569,-3.5823,5.0287,3.6814,-3.5237,-4.3523,1.3888,4.4106,-2.4954,-1.1966,9.6675,0.65192,
14.4823,1.2034,-12.0013,-4.5724,18.827,17.5605,-3.0711,-3.8505,0.58236,-0.43351,-8.8534,-1.366,-1.7586,7.6024,
14.698,0.64907,-12.2453,-9.6005,15.4077,21.4478,-4.3328,-4.1011,3.4397,-3.2998,-7.84,-6.5865,-3.0991,15.3412,
-0.28391,-10.4769,-13.9205,-12.3987,0.98568,6.061,-9.8577,-13.0139,2.2692,-2.1377,-10.2619,-13.4219,-0.50282,4.78,
0.57651,-7.1972,-8.506,-10.9318,6.9521,2.2024,-2.7587,-12.4745,6.2304,2.0879,-4.103,-3.699,11.3375,-3.461,
14.6419,3.1166,-12.5753,-6.1786,20.635,13.8804,-5.7262,-8.5925,1.7593,-1.1708,-5.5436,-4.1999,6.0775,-0.11983,
8.8227,-4.542,-12.0616,-8.9411,6.2614,6.0579,-5.6234,-16.0309,0.44863,-0.8594,-7.8623,-8.0451,-1.7587,0.12856,
-5.8067,-18.3695,-5.3123,-18.2868,-8.2143,-8.4056,-1.1889,-20.6125,6.4475,0.87916,-9.56,-1.5371,5.8186,-2.0485,
-3.6508,-11.6034,-8.85,-10.4409,1.7988,-3.6836,-5.938,-8.2887,8.4705,-0.61962,-7.5403,-2.8909,8.8435,-0.4796,
10.6682,3.1928,-7.5961,-0.41447,15.7909,10.6374,-1.9663,-2.7302,11.0958,-0.82341,6.6509,-5.369,6.1437,-0.20986,
18.5843,-5.7959,-3.0427,-4.4867,13.2767,10.361,6.5876,-12.93,9.7069,-2.9434,5.5287,-1.9131,13.729,0.52586,
4.9364,-13.1612,-6.7165,-8.5561,1.875,4.437,4.2643,-12.6364,1.8939,-4.2128,-4.9262,2.5402,17.2439,7.7254,
5.8451,-9.238,-10.4111,-4.4273,6.3418,3.9293,-3.4638,-7.7808,-2.3171,0.1373,-3.9077,2.6288,12.5938,7.0204,
2.3609,-11.8172,-13.4019,-8.259,4.7565,3.4526,-8.3172,-13.3395,-0.97324,0.37003,-5.3605,-2.1087,11.1153,-1.8365,
-0.43208,-15.6877,-13.8028,-14.2716,2.7836,10.717,-8.0593,-11.816,0.77261,-2.7854,-8.654,-5.1154,4.4226,7.1916,
9.4762,-7.2746,-13.6976,-7.8713,15.3911,19.4745,-7.8167,-5.5634,-0.96097,-0.93108,-10.3039,-6.0138,-2.8326,12.7856,
3.3641,-9.9712,-12.1528,-6.1937,13.7447,10.8342,-7.5887,-11.7371,-2.5905,0.81202,-7.5165,-3.9653,4.8096,5.511,
-6.9609,-14.6758,-2.2648,-8.7148,3.2788,6.3275,-1.349,-7.6591,0.45718,-2.129,3.5395,0.61073,18.5001,12.4109,
-3.4098,-9.2155,5.8252,-4.0941,1.3949,7.6351,3.7936,-1.6555,-0.29315,-1.2784,4.5324,0.33312,17.6315,10.9434,
-9.9543,-16.3756,12.7063,-0.95664,-12.7888,-6.923,5.4939,-15.6562,-1.2397,3.1369,6.6708,4.1693,9.3425,-3.8132,
-19.9617,-23.1056,22.5495,-2.3448,-26.1215,-17.4741,8.539,-20.8631,1.2451,0.056392,10.6091,15.0066,9.2641,-4.428,
-19.2464,-21.2373,26.9811,-9.9174,-32.9899,-3.8922,9.9548,-5.5113,-1.2402,-6.6954,5.1519,13.6243,8.2264,2.1042,
-16.4044,-20.2045,25.6027,-11.9734,-31.7336,-2.9358,4.2959,-1.204,-2.853,-6.0532,7.0119,5.8169,-2.6316,-1.1556,
-22.8919,-28.3918,25.7543,-4.2651,-42.1219,-16.8596,1.869,-15.2317,-0.03029,-6.4129,13.0992,6.6732,-2.2325,-5.1836,
-35.6184,-40.7883,37.9472,-5.2146,-53.6946,-29.9481,8.7466,-28.4178,0.21238,-13.9818,14.9642,10.8522,9.2296,-12.3443,
-28.0584,-40.1489,39.2855,-4.6607,-51.7987,-36.8283,5.5703,-18.5176,-2.9337,-10.4919,15.2713,13.3345,4.0962,-17.1473,
-20.3491,-29.3041,35.2413,-3.6579,-40.2548,-25.2183,3.0672,-6.5605,-5.409,-4.8005,18.4526,15.1857,-3.6212,-9.6108,
-33.2282,-41.6458,35.296,-8.0182,-51.9396,-37.8052,8.9087,-20.2669,-11.11,-15.3589,11.8018,11.1411,0.69344,-13.1315,
-28.9448,-34.4468,32.6965,6.5629,-36.8923,-36.6217,10.7845,-23.0277,-6.587,-10.5808,8.2014,8.0623,2.58,-6.559,
-14.6746,-23.7034,24.4678,7.013,-20.5788,-20.3244,3.8705,-12.487,-2.3352,-1.751,10.6019,6.1323,-6.7338,2.5114,
-23.4351,-33.8503,18.1795,-4.0131,-24.7672,-17.297,-1.182,-10.2915,-3.6414,-5.9845,9.0014,12.5132,-6.3296,-9.2085,
-12.1469,-25.3116,7.6885,2.7354,-9.1812,-11.6797,-3.2805,-12.8073,-2.2178,-7.3126,4.3642,10.5574,0.075767,-12.2711,
-2.2593,-16.5623,2.4067,2.5715,-3.2072,3.1211,0.29059,-12.0391,0.80755,-0.60713,2.6559,4.1391,4.8917,2.5651,
-11.5237,-21.1122,3.9495,-5.055,-7.5945,1.1257,1.4785,-6.7375,3.8926,2.0804,-4.011,7.0243,4.8392,9.2801,
-3.3607,-15.2659,0.096877,-3.0643,6.9612,0.81738,-1.7435,-4.1638,10.1667,4.125,-2.0833,7.8079,4.3076,5.1081,
10.9409,-1.5755,-11.2371,1.6989,20.6435,11.6141,-5.7367,-17.6528,2.5669,2.1902,-5.0918,-2.5425,3.8082,4.0783,
24.3845,12.619,-11.5268,4.9718,33.5049,24.8975,0.87492,-13.2187,-1.4435,5.9152,-7.196,-3.3538,6.9546,16.3675,
28.4653,7.1621,-14.4504,-4.7267,35.7131,22.6805,-2.3113,-1.0976,-0.6338,4.8372,-6.0411,-4.3577,0.51156,12.7342,
22.66,0.70682,-11.8961,-4.6841,22.7241,22.0426,-8.1982,2.1017,0.12713,3.824,-7.3658,-4.8196,6.0245,6.4265,
19.8541,0.18202,-2.9876,-3.4392,11.7197,18.3099,-5.2961,-6.2191,-0.84436,4.5585,-9.8164,-1.6379,10.0013,9.4149,
8.7807,-8.2648,-7.3879,-9.2581,3.0623,3.1113,-7.1478,-19.5845,-1.0349,4.5261,-9.9505,1.5936,-1.9272,6.6811,
0.29991,-15.7229,-17.3087,-9.9082,4.0838,-3.2216,-11.2984,-21.5431,-0.73161,4.0134,-7.1841,-0.18943,-3.4985,0.73638,
-6.9489,-20.5641,-10.4856,-14.1339,-1.946,-0.6182,-8.2099,-15.4298,-0.20578,3.2906,-0.48657,-8.3728,4.4242,2.1385,
-9.4241,-19.3298,0.26689,-12.3216,-6.6495,-4.4375,-2.8966,-14.0217,3.663,5.0214,-2.3856,-5.4603,7.0512,10.2049,
-8.6174,-16.0011,1.4555,-4.5931,-3.5994,-4.4124,-2.0001,-13.9039,6.0945,4.4789,-2.0017,2.8213,11.6891,7.4232,
-4.7259,-16.4873,4.2607,0.021282,-1.4553,0.67301,1.4943,-5.8389,-0.05575,-0.12814,1.9753,4.5802,15.8085,4.0857,
6.1627,-12.6053,8.8255,7.2511,7.7913,2.5611,4.7793,-5.0064,-1.0165,0.84365,1.3746,5.2695,13.414,9.6254,
7.4799,-12.0902,4.1989,4.6466,12.3851,-5.0646,-1.0513,-18.806,0.24955,1.0342,2.4972,4.7121,1.2807,5.4322,
6.308,-16.9086,3.2238,-3.5861,5.6164,-4.52,-4.1214,-19.0032,0.47578,-2.6435,2.1061,3.2243,-0.96507,2.9374,
-8.1705,-27.4632,9.7788,-8.6736,-8.8206,-7.1409,-0.98164,-10.6321,-0.5171,-2.9668,-2.8405,0.62076,13.1928,9.992,
-7.3186,-17.3798,7.5049,0.76486,-6.9658,-0.20495,-2.6104,-8.3074,1.2012,2.2729,-0.5009,-0.62178,11.5577,13.4893,
7.2206,-5.4905,-6.2016,3.8522,7.5521,4.3869,-10.8897,-17.2088,-0.075978,1.4134,2.6624,-3.7177,-3.2358,-0.57619,
-4.1797,-19.2611,4.2932,-6.984,-7.001,-9.9764,0.85113,-20.9967,-0.071648,-0.11791,3.4668,6.6285,5.0323,-8.7366,
-8.7491,-23.2876,6.9281,-3.1905,-13.5706,-14.5595,4.6565,-11.5422,-2.4775,-0.59277,-3.9721,10.0871,12.9256,-3.3916,
5.8758,-7.7903,-5.7796,4.9547,1.3437,0.4141,-3.5767,-5.3061,-0.15967,2.0944,-4.4567,0.081915,-1.95,-0.05512,
11.4281,-0.93567,-2.5408,-3.0558,4.7578,3.884,-4.3264,-15.593,3.2244,-1.4058,-0.33287,-2.8155,2.867,-1.98,
-3.3576,-12.4487,-0.46016,-5.2826,-7.579,-10.4491,-6.9593,-26.7085,-0.34355,-6.1421,-5.1336,-1.6823,11.854,1.0313,
3.9545,-9.0507,-0.67352,-0.86783,4.2041,-9.9424,-3.8902,-25.8289,1.3643,0.73434,-0.72778,2.9984,3.1891,-0.23586,
3.9582,-12.605,0.089793,-4.9136,8.5314,-10.0692,0.92248,-20.6638,2.0058,1.4132,-3.3357,5.4696,3.7206,-5.7653,
7.8178,-7.2692,-5.459,-2.4494,14.527,-2.4754,-1.3018,-9.0598,-3.1765,-0.35861,-11.5714,6.3465,10.487,4.9447,
21.4487,3.7718,-9.9522,0.58965,27.7554,11.6524,-6.5263,-8.0343,-1.5396,1.1087,-4.6106,5.9657,1.1807,7.5405,
25.5852,1.8587,-11.5237,-2.5788,35.3696,15.0511,-7.3401,-20.8086,1.6862,-1.1265,-2.6463,1.0285,-4.9152,-4.2401,
16.3373,-5.9656,-6.012,-1.9421,29.391,7.3991,1.2955,-21.0064,0.62075,-2.9871,-6.3444,-4.8183,9.359,1.7989,
21.3826,-1.0283,-4.446,1.3079,31.243,12.0168,0.012492,-11.7918,1.7888,-1.1207,-4.2765,-1.8776,7.5921,8.6808,
24.6792,2.1671,-14.0614,-5.7602,32.0197,22.6242,-11.7986,-10.3612,-0.96986,-5.6329,-3.7787,-6.3445,-6.9634,-4.6142,
12.1114,-7.1222,-5.9871,-10.2351,15.9985,12.5895,0.96063,-10.704,0.53436,-1.9207,2.7148,-4.9997,7.5544,-1.9275,
-1.39,-19.4691,-3.9405,-10.3441,0.93862,-2.2659,3.5543,-17.5334,-5.0411,-0.60043,-8.2942,-2.0484,13.8498,2.7677,
12.7934,-9.3833,-8.7662,-1.7697,14.9823,7.1496,-7.0233,-13.8303,-0.64126,3.5329,-6.5917,-1.2026,-1.0812,0.43246,
20.8236,-2.0714,-14.5062,-3.1093,21.4349,14.4338,-11.4221,-11.5542,1.3254,1.3928,1.0347,-7.397,-13.67,-4.8961,
13.0665,-5.0804,-8.5744,-8.9485,16.0512,8.9878,-0.37271,-11.1021,1.969,0.58608,-1.6787,-3.338,1.2502,5.7617,
3.3642,-11.7657,-1.0708,-12.9916,10.9906,1.9408,0.85472,-13.0873,1.1277,1.274,-3.2655,3.852,1.0544,9.5131,
3.4036,-9.8547,-1.7292,-7.1507,9.608,0.13739,-4.7404,-9.1688,-2.5556,3.8489,-2.8283,5.7902,2.6786,-0.93935,
-1.6211,-15.5297,-2.5895,-5.2751,3.7291,-2.7631,-0.59937,-10.5467,-2.8839,3.1358,-3.1403,2.5505,9.2666,1.5274,
1.1272,-15.3208,-3.6395,-4.7177,11.9415,0.0542,2.0881,-14.9751,-1.0237,3.1886,-0.78276,-1.2179,-2.6176,8.4256,
8.7724,-6.2069,-9.6876,-3.9527,23.758,6.3175,-6.2323,-11.6665,-0.48032,2.0335,0.22807,-0.18052,-9.2094,-0.75703,
-5.854,-17.1626,-2.5989,-9.7411,8.2326,-6.3541,-4.6531,-11.2074,1.7177,-0.7401,-1.4728,5.8559,1.7074,-7.7015,
-15.023,-23.1227,6.9575,-5.0588,-1.7819,-11.9984,3.5799,-11.2584,1.3736,0.5096,-4.9994,3.3353,2.8103,-2.1777,
-0.021607,-11.612,4.6119,5.8496,12.425,2.2189,3.3651,-13.4749,-2.0832,3.8535,2.049,2.1709,-5.0716,2.7737,
9.9826,-7.5411,-0.0033875,1.6425,23.6104,3.5322,-5.5137,-20.3794,-6.7783,0.24804,6.7465,2.0409,-4.767,-1.7313,
3.1164,-8.0527,-0.0034136,-5.2052,21.7116,2.3557,-5.1831,-16.2644,-2.9978,0.23293,1.5213,-4.3483,5.1597,-1.6277,
-2.8552,-16.2466,-1.9314,-8.7493,16.5525,3.6606,-0.53381,-15.2885,0.074577,2.1471,-1.9445,-6.498,6.2964,-4.4225,
-1.9605,-13.5846,-3.5027,1.1757,17.7285,1.2718,-1.2247,-22.8069,-0.17086,2.2593,1.3057,3.2923,2.3032,-4.8801,
-5.2175,-6.5028,6.3486,3.0335,15.7007,-8.9276,3.6697,-23.3669,-0.64278,2.6059,6.0478,3.577,10.3599,4.0896,
-5.1455,-6.836,9.5827,-5.5846,16.4459,-5.2585,4.1725,-19.3138,-1.8095,0.76231,2.5515,-0.25354,11.9075,4.5671,
9.1428,-1.123,-4.0075,-2.8392,29.5591,9.157,-4.2728,-19.601,-0.25444,2.1626,0.95235,2.654,-1.3402,1.8832,
-5.5058,-13.5888,-1.8386,-8.9356,14.6499,-5.4924,-3.0524,-28.548,-0.72134,1.0687,7.1619,4.4231,2.5968,-3.5322,
-19.2754,-26.5121,8.1539,-15.3891,-0.32908,-19.2628,0.74643,-29.0041,-2.3651,1.2458,6.491,7.2915,11.3589,-5.0073,
-4.8621,-16.9676,2.121,-8.9221,11.3803,-10.7557,-1.9499,-25.0947,0.42794,6.7147,3.9324,4.6844,3.2055,7.1033,
-2.4014,-15.7088,-6.4426,-10.0742,16.2409,-6.0133,-6.8944,-32.5073,-0.8028,2.2142,2.9733,-2.1044,-3.9765,4.5077,
-11.4161,-16.2118,-1.717,-6.577,9.964,-19.6315,-3.5884,-32.0024,-0.27247,2.0816,-2.5075,5.2529,-5.1839,-7.3321,
-9.0442,-14.5165,0.072979,-4.0135,7.6792,-17.2486,1.2064,-31.7697,-0.49732,2.6798,-5.4903,6.6248,-13.7912,-6.1691,
-2.9579,-7.6195,-0.17237,-3.0493,16.6184,-2.1137,-2.9633,-30.5865,-0.70844,1.7957,0.38274,0.20172,-12.2403,3.6011,
-5.1908,-3.7881,-0.16225,-1.4203,19.4775,1.5081,-6.6421,-26.8233,-4.0402,3.134,3.2521,-0.77448,-0.90085,3.3852,
-8.013,-11.9972,1.5345,-5.4327,12.283,-8.9469,-2.1465,-27.3833,-8.3777,1.2589,0.40516,2.8872,-2.5343,-2.3617,
-2.9525,-12.0002,4.5759,-1.9732,19.4998,-8.1692,1.1158,-28.8736,-3.2953,0.94243,0.13989,2.9549,-5.5157,-2.9434,
-7.5959,-12.2443,2.3734,1.0374,19.7763,-11.5352,-3.2893,-30.9975,1.7229,5.2244,4.47,-0.11467,-4.2202,-7.1049,
-10.5146,-15.848,-4.9999,-1.4349,8.9488,-14.6994,-9.3589,-30.1018,0.17325,11.6594,5.6481,-0.10779,-10.234,-6.6786,
-11.5707,-18.0303,-1.0847,-4.9645,-0.506,-11.1662,-8.0742,-29.5007,1.8503,12.6473,4.5861,0.62181,-10.3426,5.5325,
-20.0355,-22.7331,8.6218,-8.0406,-5.7783,-15.7988,-5.6613,-29.6589,3.6675,6.5858,5.2752,2.9946,-5.8656,7.1287,
-12.8073,-16.7898,2.5609,-2.9789,4.9323,-12.1994,-6.5267,-20.8895,2.2421,3.0572,1.8252,2.092,-7.6829,-4.6272,
-8.1827,-15.7827,2.889,-1.8361,3.1903,-7.6112,-1.3151,-13.8518,5.4818,4.8017,4.608,-1.4082,-2.8838,-12.0626,
-10.5841,-15.3174,8.5004,-0.7618,-3.2679,-5.2261,0.2103,-16.3946,3.7074,6.4425,6.7419,4.4611,4.0384,-7.0003,
-6.5746,-9.5777,-1.1686,-0.23416,2.2309,-1.5386,-9.9254,-20.2317,-8.0847,2.1991,0.5528,4.1935,-6.3273,0.16821,
-3.7702,-9.9676,-6.4009,-5.0406,4.025,-2.4104,-14.6326,-22.8744,-8.5637,0.62113,0.037471,2.0139,-16.0708,-2.2518,
-3.785,-9.1281,1.9369,-1.1227,3.0606,-4.9168,-7.2469,-20.2966,-0.096153,1.3068,3.6506,1.6521,-1.0065,-2.3576,
-8.1371,-12.1958,11.2207,-0.81441,-4.5949,-8.7192,1.1417,-10.161,1.5968,-0.94081,1.7444,1.7935,13.1538,0.43491,
-2.8282,-7.1257,10.5474,0.68072,-2.391,-1.9295,0.59122,-5.6947,0.53716,-2.8126,0.67585,6.989,-0.40983,-1.0374,
7.7051,3.6659,-1.8958,3.2912,10.0448,3.7296,-5.4698,-18.6097,-2.1468,-4.3308,2.8042,2.4721,-8.3392,-4.1085,
-1.9158,-4.2668,-3.2283,-5.101,2.2112,-4.2064,-2.2491,-25.6878,-3.9458,-2.1428,10.3487,0.39554,6.2611,-3.38,
-10.2369,-9.5544,7.3297,-0.69757,-5.8752,-3.7136,2.4649,-12.8186,0.38833,4.4933,9.9688,3.0229,10.8264,4.2946,
-2.874,-5.6069,8.8184,6.093,-9.3788,-3.0081,1.8351,-8.6748,1.8111,3.2596,1.6581,0.43163,6.3207,3.0728,
1.8777,-8.8859,6.1196,0.18331,-8.5756,-5.4792,-1.4085,-18.0367,0.4971,-2.9615,1.7996,4.0207,14.8591,-7.9578,
-1.368,-7.6294,1.1732,-2.4788,4.2315,2.8033,-5.4214,-19.1234,-0.25562,-3.0248,3.3788,7.3949,9.3882,-6.275,
-7.3115,-5.9668,4.2358,1.2854,-4.9405,4.8043,-0.51655,-13.3965,0.00068033,-1.1561,6.7915,1.4076,2.7994,4.4658,
-3.2574,-10.67,5.187,0.0034105,-14.0441,-1.9915,-0.24459,-12.8339,-3.1328,-3.2559,3.2506,0.11828,10.5852,6.367,
2.2403,-10.0298,-0.90884,-5.7814,-0.18599,-2.3539,-9.3887,-13.0279,-7.2832,-3.5429,-3.6929,5.8958,10.4324,7.9132,
-4.6428,-8.464,1.0737,-1.5783,0.78927,0.19722,-9.3076,-11.2822,-4.4358,-1.8839,0.86674,3.1317,4.0217,7.9205,
1.9025,-5.5462,6.794,6.2294,0.74214,7.8984,-6.3388,-9.159,-1.2774,-0.80673,1.7788,-0.43046,5.7088,0.69617,
8.5372,-6.1773,6.3864,0.071027,1.1795,7.9064,-6.4406,-4.7531,-3.6109,0.68748,1.6721,4.8976,6.8121,-6.576,
-0.16993,-3.3963,-0.26353,-0.89733,-9.0144,1.1653,-7.9823,-0.61149,-7.7328,2.5747,-0.35618,5.5678,-0.82725,-4.2535,
-2.8111,-0.059281,1.4397,4.6999,-14.4993,-0.59162,-4.3701,-4.6724,-5.0994,4.1072,-2.9861,3.5467,0.90938,9.7403,
-4.0884,-9.215,6.1738,-2.8127,-16.5216,-10.6793,-7.0002,-11.6227,-4.7937,-0.95974,-6.1812,0.92357,-2.5194,8.6737,
-5.2894,-8.1797,6.2853,-2.6439,-7.3351,-5.7002,-9.4725,-4.1766,-3.0598,0.5441,-2.9183,5.2065,-4.7784,-2.452,
-15.0951,-12.9913,5.9085,-3.9313,-9.3054,1.391,-5.5297,-9.7106,-7.6967,0.51168,2.0773,4.8943,7.5597,-3.2685,
-10.333,-12.6942,6.0359,1.6067,-7.3008,-1.585,-6.162,-16.3588,-9.1631,0.48098,-0.45745,1.2262,8.0699,1.7479,
3.0616,-6.8711,-1.7983,5.6079,-3.7295,-2.695,-12.3,-6.9414,-2.5875,0.69286,0.77506,1.8758,-6.5143,-5.3467,
-1.4609,-14.1716,-1.6904,-3.8876,-17.6057,-5.4258,-3.3671,-0.74031,-1.4684,-2.7232,7.4775,4.1733,-12.5104,-5.5078,
-5.7118,-14.2854,6.6059,-0.76206,-16.4289,-3.1718,0.20918,-2.6241,-4.2726,-2.5595,2.6903,-1.3795,0.77349,6.8735,
-3.4406,-3.3052,5.2455,7.4786,-1.3432,2.3209,-9.9265,-3.9129,0.3223,-0.95994,2.5286,-4.189,-11.3242,7.9076,
-1.5472,-3.3476,-2.5408,1.4865,8.981,-1.9155,-10.5357,-4.883,0.06177,-3.5537,3.5824,0.15993,-19.5626,-0.52081,
1.4379,-5.0752,0.98586,-3.4232,-1.681,-2.2827,0.2193,-1.6977,-5.2444,-0.93009,0.95713,-1.7781,-4.8913,-0.0074023,
3.0386,-2.1193,5.9882,-0.56692,-5.6777,6.7721,-3.8914,3.4654,-6.6171,1.2946,0.17657,-7.6972,-13.0342,5.0545,
12.739,6.4437,3.9419,9.3497,6.9557,17.6942,-0.52424,4.9452,-1.1582,5.315,-0.55716,0.23668,-21.6517,16.5616,
8.359,1.96,-1.3561,4.2092,-6.2363,6.2684,7.4612,-3.7877,-6.6321,3.3087,-3.657,3.3557,-16.7371,9.0602,
-1.3016,-3.9427,-3.2034,-6.1667,-19.9621,-5.6773,7.495,-4.0426,-12.0192,-0.74625,-1.0274,1.7081,-20.0717,-5.4632,
-0.25918,-5.6343,-2.0468,-7.7249,-20.5719,-4.8543,12.3479,0.056352,-1.1747,-0.21955,0.9624,-1.2864,-21.2775,4.988,
0.2383,-13.009,5.3068,-0.51248,-33.4376,-5.0454,22.6943,-2.8391,7.0905,2.6861,-1.0235,-0.72729,-9.8777,14.8116,
6.2498,-5.2388,4.2653,8.918,-20.4648,3.6932,16.2712,-0.98175,-4.6634,0.35559,-4.0954,0.039473,-9.0441,6.4513,
10.2133,5.1986,2.0814,5.0087,-5.1369,11.6666,11.4388,5.3439,-7.7578,-4.4862,3.381,1.0012,-8.9836,5.1001,
5.5027,2.2356,3.1613,2.539,6.8612,12.6538,15.3317,2.8539,2.1077,-4.94,6.7935,0.70016,-5.3111,9.8554,
-1.0939,1.6195,1.5259,9.6175,-7.6505,11.8946,18.2682,1.2366,2.9455,-2.2334,3.4938,-0.78811,-5.4744,14.5667,
-15.1283,-8.1188,7.2187,3.2557,-21.2915,-2.9191,19.1001,-1.2479,-2.5341,-4.5098,3.284,6.9722,-1.7719,10.8004,
-10.0028,-3.0524,7.0265,1.855,-7.9629,1.4739,14.3386,2.4424,0.26907,-2.07,0.43585,11.6151,-6.7271,7.9832,
4.6974,8.9411,-4.7231,4.3951,6.6149,15.4855,9.8631,4.9471,1.4585,1.1879,1.6148,-3.1818,-15.7232,10.1555,
4.7772,4.7894,0.13985,6.7827,-6.4355,6.7233,16.7434,0.071024,4.0223,1.3573,10.4357,-4.7984,-2.4875,13.1619,
-6.1147,-3.2112,4.4698,1.555,-20.1494,-7.7801,13.3282,-4.754,-0.075912,-4.0267,2.5787,-0.17218,-0.89247,4.177,
1.2421,2.5256,4.9245,-1.6713,-8.938,6.0638,17.1082,3.0031,1.1344,-2.5798,2.183,-4.7411,-8.7924,1.2753,
1.8904,-0.2775,0.53167,-4.7045,-16.3557,2.5665,20.1791,1.6178,1.3073,-4.1123,2.7754,-6.6258,-12.3625,-0.97041,
-6.1765,-6.7686,1.2229,-3.2172,-29.4743,-11.6875,16.317,-4.9869,6.7722,-1.2142,2.8496,4.6178,-11.8617,-2.5996,
-12.5546,-10.2186,-4.6353,-7.8446,-39.8777,-11.107,3.2867,-11.4364,7.8119,-0.6592,2.1965,-1.4441,-20.309,1.8949,
-10.8372,-9.1233,-2.9107,-6.8918,-34.5925,-5.6201,11.2844,-4.4835,9.7536,3.2365,5.9213,-4.7317,-9.4493,10.4581,
-8.0181,-14.6017,2.3254,-5.7552,-40.4709,-14.6826,22.8997,-2.0453,1.6968,-2.0191,9.6636,0.13172,-2.3746,-1.4974,
3.3091,-7.7003,-0.94783,-0.83079,-29.1248,-7.2944,13.0898,2.1745,-9.2515,-8.4057,4.9862,-1.0812,-9.7042,-7.9157,
6.244,5.0538,0.31433,6.2089,-23.7622,7.2432,9.6528,10.48,-3.1528,-2.3577,-0.85657,5.4911,-0.68625,6.6592,
-6.1817,0.4127,3.6699,8.7289,-36.4364,-0.78341,15.3406,4.0668,-0.071118,-0.28808,-2.7334,5.1621,-1.1268,12.165,
2.3839,8.1003,-1.371,16.3999,-29.7912,4.5662,10.5638,2.8587,-1.5131,-0.2708,1.769,-2.3789,-12.6286,5.6505,
6.0972,9.5429,-5.1451,8.1851,-18.8447,13.9332,5.5917,5.0973,-1.4223,0.22738,7.9298,-1.7538,-15.2451,1.937,
-7.2838,-3.081,1.4303,-2.4287,-31.814,0.56398,10.0766,-0.029003,-2.3011,-0.75036,6.4899,2.2076,-8.0636,2.7849,
-10.4622,-10.8499,4.9599,-1.0782,-41.1127,-12.2443,16.4619,1.178,-4.3322,-1.4282,1.0388,-2.9861,-1.5543,6.7156,
-3.5677,-11.6454,3.6982,-0.53131,-28.0408,-9.0993,14.992,3.9996,-2.6262,-0.37844,0.97673,-2.3248,-0.97884,0.045925,
-1.9076,-9.0182,-4.7181,-0.9816,-22.9839,-6.143,6.3795,-6.3635,-4.879,-4.2119,0.43597,-0.25731,-7.1869,-7.6698,
-9.9883,-10.4058,-1.061,-1.4046,-31.2463,-13.0057,10.817,-5.5,-5.5506,0.86107,3.3019,-1.6881,-5.3096,6.7696,
-9.8707,-13.1552,1.8949,-4.6946,-31.7814,-11.7427,13.0607,-0.34902,-1.8429,3.7017,-2.1987,-2.5509,-6.919,8.7738,
1.0852,-9.2331,-2.7983,-7.0647,-16.1362,-0.1926,6.2513,-8.2823,-0.52723,-1.0999,-0.86168,-1.6748,-9.6376,-4.5268,
0.056405,-7.7146,-0.70198,-10.497,-13.2396,-4.5191,7.8047,-9.2311,-7.2443,-3.4443,7.385,-2.0564,-3.7564,-4.255,
5.3554,-0.50301,0.30423,-5.0467,-6.6609,-5.694,10.2282,2.4097,-11.1482,-2.7555,-1.735,-2.8971,-5.4595,-1.1079,
4.5522,-4.3292,-2.1246,-4.7439,-6.7432,-5.3524,8.6506,-4.0016,-6.6229,-0.66194,-3.0772,-2.2414,-9.4702,-7.7898,
-9.821,-18.1695,-3.4432,-11.6898,-20.4386,-19.1312,3.3111,-16.7767,-8.1535,0.34187,4.3381,4.1598,-9.384,-12.1429,
-12.4854,-14.5485,0.13765,-9.0605,-28.2508,-22.6834,4.0766,-10.4677,-13.4491,-0.64274,1.6679,2.4642,-4.0004,0.15458,
-2.3365,-7.6502,5.6732,-7.7937,-18.602,-11.9226,9.3753,-2.3678,-14.3294,-1.3273,-0.60157,-3.7094,1.301,8.0993,
-4.3655,-6.9502,1.2355,-2.7464,-18.2088,-11.4482,0.85908,-1.5026,-11.7824,2.3678,-0.80644,1.0929,-8.177,-1.7867,
-4.3448,-6.292,-0.043704,1.5155,-18.8035,-14.3765,-5.2182,-5.992,-3.6036,3.9127,1.8933,9.4632,-13.7122,-7.2229,
-8.9043,-10.7348,6.2254,-3.8776,-10.9264,-11.5857,-0.084433,-11.417,-4.3515,-3.0705,6.5999,6.0029,-1.3201,-1.9692,
-10.0571,-6.9574,5.1288,-4.368,3.8292,-2.9366,1.1257,-5.6703,-9.1519,-2.1632,1.1425,0.099362,4.3028,0.80024,
-6.3206,-3.8889,1.2056,0.47332,-0.85983,-3.9662,-0.14714,-0.75105,-4.0232,2.064,-2.0596,2.7445,-4.8735,-4.3095,
-4.2542,-6.3066,2.8205,4.5427,-8.7618,-5.8969,-0.86121,-1.4287,-1.1303,0.25292,3.6081,8.1234,-0.0013166,-4.7738,
-2.5529,-5.9285,5.0616,5.7162,-0.041338,-0.72259,0.15456,2.5132,-8.7757,-2.1726,5.8015,3.7799,6.7472,4.6714,
-0.47174,-2.1985,1.8652,0.55229,10.5662,-3.572,3.0376,1.3983,-7.7672,0.3681,2.5611,-2.2317,-3.2986,10.176,
-9.602,-10.7433,-2.585,-9.6038,4.1477,-11.5524,-0.51913,-12.1829,2.3402,5.6487,-1.9309,0.7947,-13.2238,-0.55749,
-11.9182,-14.4372,3.3549,-6.1352,0.52457,-8.9308,0.95851,-7.1134,2.682,9.1664,5.4156,8.942,-10.9841,-10.1652,
-4.9363,-1.5197,0.26129,1.4639,10.6162,-2.6102,0.41883,2.9546,-11.5789,1.3853,2.1984,3.1026,-9.8429,-10.5194,
-9.4607,2.9101,-3.611,0.41201,6.6048,-0.52558,-0.088461,-2.0434,-10.282,1.7844,-0.34389,4.3624,-11.1808,-0.24706,
-22.6318,-10.039,-1.2252,-6.1206,-7.8915,-10.8584,-0.32412,-4.0902,-3.6395,3.3641,2.3278,9.1624,-14.1253,-2.4019,
-18.6226,-8.7138,1.4999,-5.0305,-10.672,-11.4117,-2.4738,2.6632,-8.9646,0.029187,-3.355,3.5509,-12.0725,-3.4626,
-6.6592,-0.23719,2.1328,-1.5952,4.0683,-0.36313,-2.0844,-1.1123,-4.8115,2.1966,-5.3228,4.0612,-15.9277,6.6271,
2.4172,1.7055,-1.3694,2.3571,12.6216,5.4435,0.45099,-7.7942,3.1902,5.9214,-3.0755,6.7099,-25.0952,7.6755,
-1.5842,-6.1096,-3.6978,-4.0513,3.1874,-3.5602,2.8341,-7.3266,-6.6422,-1.6647,-3.3729,-2.8518,-16.8408,-2.426,
-7.9966,-7.4301,3.0322,-6.4591,-3.5113,-7.9261,1.4589,-6.1636,-10.341,-1.806,0.92704,1.8989,-1.7303,-3.0031,
-1.732,3.1386,0.92209,5.4977,9.7146,0.2622,-3.9312,-2.4196,-3.454,0.23053,1.3534,10.4616,-6.8084,1.9973,
0.058915,-0.66486,0.62557,2.9984,14.6755,1.452,0.88415,1.8232,0.36863,0.4579,3.4415,6.7011,-7.605,3.565,
-10.0675,-14.725,2.0343,-7.7863,3.1897,-7.7942,2.7593,-3.5888,-3.9918,3.8049,0.82492,3.4065,0.56408,0.45854,
-4.4018,-6.7313,-2.1851,1.5985,9.506,-0.81903,-1.0217,-0.24026,-0.13688,8.6383,4.3904,-0.89525,-0.19289,-0.77426,
-0.040328,-6.0865,-1.3311,-2.1129,3.8742,-2.4571,2.1731,-1.4309,3.9687,-0.7981,9.1886,-5.4213,-0.42229,-6.2714,
-2.2075,-13.1931,3.8104,-9.9398,-8.6507,-9.7815,7.1039,-8.3349,3.9713,-3.4018,-1.727,7.1965,5.6286,-2.7616,
0.33528,-4.6885,1.1715,-3.5586,0.5454,-1.4816,-0.55291,-1.5681,4.2154,7.8898,-4.9976,12.0671,-1.9397,8.0091,
7.787,3.0646,-7.3345,0.2703,14.6127,7.5254,-9.9193,-0.75087,3.7215,10.0675,-3.0105,-2.7569,-15.0797,0.53915,
15.0325,1.4345,-6.8944,-2.1565,13.8564,5.6276,-0.16554,-8.9008,3.9802,7.0533,-3.3118,-8.4968,-7.9084,-11.5447,
3.7662,-6.1239,-6.2403,-7.5707,-1.075,-4.1105,1.5316,-8.126,-7.5873,-2.2879,-3.3545,-0.51515,-4.7828,-9.6472,
7.6381,4.1259,-5.6249,-2.0548,13.0895,7.9467,-7.9603,6.4616,-10.7472,-3.8379,-2.4299,2.1668,-9.5573,5.0316,
7.1796,-1.4245,-4.8052,-7.7163,22.427,4.0957,-8.4468,0.41003,-8.6562,-2.6435,-5.1764,-1.8193,-7.0557,1.9581,
-1.4459,-8.0875,0.3038,-7.2533,6.9814,-9.6479,3.1473,-3.9531,-3.3163,0.40715,2.847,8.4127,4.4549,-5.3902,
1.2924,-1.0943,0.044607,0.17172,6.9242,-4.4893,1.7531,0.86381,-4.3224,-1.304,4.8453,7.1851,9.2493,4.8156,
5.071,1.8637,2.4523,0.64358,17.5962,0.60102,2.1301,4.1864,-4.0628,-1.708,-0.74784,0.96962,7.7304,4.0445,
5.2487,3.1981,-2.0332,0.60497,24.253,-2.3276,3.4486,3.935,-4.3014,-2.0874,-7.9338,-0.052883,-6.8334,-9.6955,
-4.466,-2.0557,-5.5268,-0.63639,11.9516,-7.7317,3.4824,-2.8088,-1.874,-3.1672,-2.3963,-2.2191,-7.9903,-1.1603,
-12.1522,-13.2608,3.2407,-0.8394,-0.093964,-12.3293,4.9604,-6.2559,5.2279,-1.2902,5.701,-0.39896,6.5891,9.7554,
2.6769,-2.5827,-0.56918,4.7546,14.0117,2.5105,0.56547,-0.81888,3.2272,-0.97183,2.2259,1.3127,15.232,3.6264,
5.7702,4.5616,-5.1148,1.8177,22.6919,8.5061,-1.1552,-0.52855,2.7926,-1.6364,5.2258,1.9568,5.8822,-2.1348,
-8.676,-7.281,1.4589,-1.1836,7.2304,-6.1043,2.2883,-2.9072,7.4455,-1.5385,6.8402,4.2498,11.3141,-2.0064,
3.5342,-6.8441,1.8537,2.2619,10.7732,-7.0638,5.0431,-1.7687,7.4807,-1.9281,-1.7649,1.5846,8.7071,-2.8499,
17.4222,7.6665,-5.9705,3.0902,24.2268,7.46,1.3663,-3.1086,2.2114,-4.2228,-5.9976,-3.8133,3.3639,0.21336,
26.8617,12.8706,-10.9149,1.459,36.8732,19.9074,-7.3924,-4.3681,1.1149,-4.4513,-6.1196,-5.9946,8.4647,8.8772,
14.6451,3.4218,-3.9931,-2.4849,24.297,4.6129,-5.0206,-3.1419,5.8687,-2.738,-2.378,-5.153,13.2595,8.827,
23.1664,3.4574,1.7901,-0.64858,25.9726,3.7335,-0.14009,2.1081,6.2395,-2.3327,-2.4763,-5.0848,18.0075,3.2357,
24.9095,7.8293,0.95937,-0.85109,25.6191,11.9456,1.0736,7.5252,3.6959,-2.4337,-3.0511,-1.6462,20.0606,4.7287,
21.9689,10.7337,-2.4724,-4.6566,22.1535,13.6388,-1.4012,4.6631,2.0277,-0.84169,-4.314,-1.0658,6.8052,10.7113,
34.7507,20.9362,-2.0829,3.0948,34.9243,18.8462,-1.0759,4.6247,4.5574,3.7883,-4.7783,-7.991,7.6024,14.6486,
30.376,14.3774,1.4161,3.8734,29.0934,9.5208,1.3988,5.3111,6.2121,2.1148,-2.5634,-9.9221,21.1255,3.1644,
22.0458,8.4533,-0.35587,1.4716,24.2141,7.7444,-3.2647,3.3052,4.6343,0.30088,0.72363,-6.1935,18.171,-5.9433,
18.7946,4.5714,2.0758,-1.027,10.228,2.4593,-1.6228,-0.26732,1.464,1.2469,1.1624,-6.786,17.5629,-1.7306,
15.2566,5.7431,5.8074,1.9269,-3.883,-9.74,2.8132,-4.5898,-2.9624,-1.2382,-5.656,-5.8967,16.5089,3.1938,
28.4412,19.4986,4.4949,15.9113,10.4499,4.9444,1.6803,8.701,4.4464,4.6209,-4.3526,-3.1325,16.0005,14.0896,
40.8347,32.4286,-1.0772,14.8363,23.9229,18.7477,-5.6516,12.9994,2.2512,0.96893,-5.5375,-10.1757,10.7019,4.085,
48.026,44.5829,4.531,10.3307,36.5876,27.7462,-0.73277,6.6758,1.3932,-1.2584,-5.4462,-6.4316,7.8907,-10.2601,
44.4214,51.1879,4.9823,11.8803,35.9593,20.538,1.9625,-0.71437,4.4429,-1.906,-3.4324,-10.6253,9.5866,-7.5954,
47.5402,55.829,5.1653,13.5771,34.7656,18.8234,-1.5297,3.1847,3.6939,-3.2379,-3.2265,-16.7366,15.2779,0.57264,
58.7878,66.5792,2.6862,22.6449,46.7797,31.794,-2.1608,9.5013,0.33925,0.089863,-9.5404,-12.117,9.7815,-2.1128,
65.0222,74.2743,-1.3313,11.1633,46.9857,38.2017,-0.10296,4.111,-0.16304,2.0127,-7.0397,-11.8719,5.3382,-1.0217,
47.0209,55.7179,4.051,-3.6065,30.0665,21.8096,1.3492,-0.47425,2.739,-1.4823,-2.7612,-9.2312,16.5873,0.48562,
38.5355,38.2748,4.7722,6.3714,17.2958,10.9806,0.78636,6.785,0.6465,-2.3577,-8.862,-1.4465,16.5564,-11.1127,
40.321,37.4246,-3.4681,8.1585,26.1402,17.7938,1.4623,7.1011,-3.0079,0.43508,-8.0891,-1.119,2.3064,-9.2409,
23.922,21.6818,-5.1882,-0.044279,10.4718,11.9054,4.2666,4.7468,3.4391,3.7834,-1.3373,-3.9443,4.0962,5.4136,
11.1587,6.6423,0.66695,0.68197,-4.2565,-2.9089,2.3236,-2.0457,5.8845,2.3514,0.42997,-3.9484,6.9837,9.0657,
9.2841,2.1462,2.3139,3.7738,-5.6884,-16.8344,-0.94904,-5.5384,0.9519,1.4871,1.6092,-0.57826,6.8059,-5.5783,
3.6656,-5.9366,0.48764,-2.4779,-5.5883,-14.3783,-1.1333,-0.62679,1.6175,1.6391,-0.17432,2.1078,14.351,-8.0154,
-10.6543,-19.6804,2.1458,-5.4625,-19.353,-23.3973,1.586,-3.2401,1.7621,-0.62862,1.5236,0.77623,15.6598,-0.54437,
-3.6283,-14.5224,1.7759,7.1571,-13.7327,-23.6809,1.2497,-3.2871,-1.4774,-1.314,1.191,1.4528,7.7301,-6.5379,
3.5793,-6.6612,-0.98176,6.9691,-2.0625,-15.7526,-0.99447,0.5258,-2.1121,-1.4762,-0.085765,2.0885,7.9892,-4.4584,
-9.4095,-20.3616,2.6926,-2.3671,-16.0388,-28.9074,3.1625,-2.6392,0.66619,-2.1105,1.6066,-2.6161,14.0178,-3.4676,
-9.8092,-26.491,2.531,-1.7432,-17.6073,-33.0778,2.9728,-6.3373,-0.33811,0.9082,-1.8642,-3.9054,11.7305,-8.0802,
-0.061885,-17.189,-0.99553,-1.6383,-2.4508,-19.0418,-0.097861,-7.4033,0.64628,3.746,2.1042,-0.77876,10.5445,-5.667,
-7.0476,-21.7008,-1.1763,-3.2273,-4.5934,-23.9248,-0.3325,-8.6459,3.7414,-0.57612,3.1833,-5.3113,16.9017,-3.6398,
-19.6404,-29.558,1.7861,-6.4083,-15.8872,-35.505,2.0974,-3.789,0.62421,-8.2546,-0.38241,-11.7418,17.8156,-12.5806,
-7.8567,-19.5898,5.5353,-2.167,-0.83399,-23.7337,1.9715,7.0436,-0.37711,-1.4923,2.5331,-0.91391,11.9264,-12.3077,
2.0147,-11.4245,-0.82234,3.9886,11.8698,-15.8018,-4.1723,-4.2253,1.8147,2.2127,-1.2343,3.7202,7.5954,-5.0618,
-12.2061,-20.6212,-0.049871,-7.0972,-2.9424,-22.3257,0.65707,-16.2643,2.9109,-3.4639,0.52671,1.81,15.5755,-2.5887,
-20.994,-24.9273,1.1582,-16.0711,-12.768,-25.0833,0.37691,-8.7805,-3.7715,-3.9788,2.1826,4.3527,11.9897,0.21796,
-11.7809,-22.709,-4.9371,-11.0098,-4.5304,-21.8913,-7.1177,-2.2281,-3.3045,2.7672,0.36415,1.4402,2.3525,1.4099,
-16.1357,-26.4077,-2.4712,-9.6258,-9.8022,-22.747,-4.5211,-3.2995,2.9198,3.3245,2.0295,1.5948,10.1651,-6.6284,
-29.2676,-30.6078,2.9792,-10.4945,-16.9268,-23.3103,2.4987,-0.20921,3.7085,-1.6957,0.4615,2.4634,20.6424,-6.2307,
-30.2833,-31.1819,3.2829,-4.0803,-9.6445,-23.358,2.8311,-3.5711,2.0397,-0.6296,-1.0125,-2.0232,13.1373,2.8203,
-14.3663,-17.9824,1.3987,6.5289,5.0342,-13.0384,-0.95416,-4.0797,0.71249,4.4694,0.73552,0.26739,7.2874,1.9277,
-0.12724,-11.3603,-0.85488,2.0393,8.4681,-8.1588,-0.65641,-1.666,-2.9457,-4.2349,-0.031509,1.4566,12.3938,-6.6241,
-11.689,-15.4991,0.64291,-4.3493,-3.6094,-12.4897,-0.1344,-2.0478,-3.733,-14.5854,1.4164,-1.523,11.168,-0.92379,
1.5456,-3.4817,1.5684,9.4088,10.1047,2.3596,-1.0909,9.1621,-0.13483,-2.6233,3.2594,0.014367,9.5338,7.3266,
-6.7418,-10.0217,-0.45387,1.6139,7.0883,-3.2051,-2.4712,8.6126,-1.573,3.3187,-4.1666,-1.4328,11.3719,-5.1646,
-20.4373,-23.5204,6.322,-7.6422,-6.8346,-17.1128,2.4975,-1.0632,4.7881,0.70921,-1.5062,-4.2391,15.0281,-10.1571,
-21.7417,-22.2297,2.8092,-1.6401,5.3856,-22.473,0.17851,-9.9175,6.67,-0.53817,7.5018,-2.7794,10.993,-9.3067,
-20.9194,-19.4494,-4.5899,-5.8798,19.042,-12.4477,-7.0628,-12.6966,0.0035146,2.3864,4.1598,4.6184,4.0671,-12.1225,
-13.1567,-16.5957,-0.21718,-10.5887,18.1405,-8.0855,-1.5778,1.3213,-0.72006,7.3044,-2.5977,3.6179,4.064,-0.54893,
-3.6902,-18.492,1.2421,-11.8815,3.5547,-15.3131,3.3376,3.1705,-2.605,2.0459,-0.51364,-8.6502,4.7841,4.7867,
-8.2893,-14.4902,1.6497,-2.9737,13.4645,-12.9483,1.2089,-0.87616,3.818,-0.0052551,7.7121,-0.90061,12.692,-2.2497,
-21.8919,-12.4157,0.34569,-2.5545,25.9133,-18.1972,-1.9969,0.86364,8.6504,-0.24568,5.5619,8.0713,16.9924,-9.1043,
-28.6529,-15.7684,2.012,-6.4989,14.9582,-24.095,2.7024,3.9448,4.9981,-1.4365,3.0588,2.5255,13.321,-6.3887,
-13.1951,-8.7965,-4.1345,-2.0109,17.1945,-8.5493,-6.3776,-2.3172,-1.3271,-1.591,-4.5963,-1.7231,6.9784,-1.4259,
-12.1625,-8.0277,-7.02,-5.0242,22.1879,5.8225,-14.431,-2.4196,-0.52504,-1.7365,-5.5258,-0.89683,4.8725,0.82885,
-15.0481,-13.5716,1.3554,-5.4456,16.2773,-8.6269,0.53482,8.0899,3.1223,-2.3557,1.3137,-1.084,15.4264,1.502,
-15.5913,-12.2752,4.6483,-0.78034,18.193,-20.2808,3.9977,5.6764,1.4885,-2.2141,-2.1394,0.42708,26.0697,-2.4443,
-20.1994,-14.1902,2.6822,-4.3489,19.7525,-14.0028,-10.3422,2.2023,2.6045,-1.8403,-0.32422,2.0887,17.5161,-7.3593,
-12.9619,-12.1335,-1.5761,-5.7752,32.3061,-0.87008,-12.0115,9.5422,2.6892,-3.4171,2.3468,1.7224,8.029,-2.3384,
-8.5688,-9.2363,-5.0969,-6.634,44.4678,6.6539,-4.301,14.9952,-0.60565,-2.4892,0.51875,-0.068177,14.5372,3.8279,
-11.1879,-9.8872,-3.5861,-5.0304,53.7303,1.6752,-5.7299,11.9266,2.0825,-0.65237,0.24689,-0.78722,17.7625,1.4288,
-5.9373,-5.679,-4.0942,0.81454,48.3373,-4.9333,-10.4478,2.7748,7.0187,1.074,-2.4195,-3.3915,6.3324,-1.7904,
-5.5811,-6.7841,-5.2944,-2.6083,40.1344,-8.4932,-8.8571,-0.76611,4.1875,1.9734,-3.2382,-7.5264,4.0243,-5.057,
-7.6564,-7.3414,-6.423,-9.2007,46.8854,-4.1272,-6.8794,6.9926,3.4539,2.3374,-1.5981,-2.7365,12.4599,-6.6817,
-7.197,-8.8291,-8.9297,-13.9513,41.6622,-1.9514,-7.4305,11.3938,3.729,0.26897,-1.9841,2.7304,9.3018,-2.9068,
-9.1753,-6.8526,-4.5375,-5.883,28.5576,-6.1726,-6.5027,16.0128,1.0951,1.6991,-1.8651,0.15642,6.8159,2.5707,
-11.0351,0.30677,-3.7835,2.1826,26.8439,-5.8025,-6.1128,17.9439,-0.89899,1.5969,-2.7173,0.14681,8.3349,1.9338,
-16.6398,-6.4603,-5.9664,-6.6253,12.7,-9.311,-1.4075,3.852,0.11905,-0.90925,-0.14388,6.4052,4.4606,-3.9666,
-14.4363,-8.2416,-4.8853,-7.4328,14.5889,-11.4036,-2.5281,0.48766,0.83504,0.83276,0.10594,4.3334,2.0236,-7.3442,
-4.6521,0.20661,-6.2794,-1.4437,27.8135,-8.0679,-5.5099,10.8223,-1.3842,-1.8688,-3.9982,-2.9164,8.4096,0.56823,
-0.99849,2.6043,-8.7952,0.089194,30.6038,-3.2455,-2.7687,8.7271,-5.1576,-8.0231,-6.6504,-1.7771,6.9412,4.3905,
2.1949,6.5459,-11.8829,5.1455,27.5627,6.3493,-3.8079,7.9625,-5.5715,-5.3726,-10.3487,-7.2141,3.3917,-0.45219,
0.61672,5.1886,-9.7239,1.9445,27.355,5.0042,-5.5078,14.233,-3.3092,-4.0861,-9.728,-14.0123,4.6338,-1.3892,
-1.5892,1.2621,-5.0429,-3.7156,22.098,-5.1782,-2.0436,11.2101,-2.3871,-2.6359,-4.0829,-3.2894,4.5969,2.3094,
-1.4941,-3.6341,-1.848,-0.60079,21.2543,-4.3854,3.3814,5.2351,-0.79782,0.89646,1.465,2.6927,12.5161,6.5094,
-4.2967,-12.5753,2.6014,-0.56451,13.2304,-7.0145,2.6963,4.4388,2.1423,-1.0853,3.305,-2.7717,17.5499,5.1547,
4.3967,-2.4208,4.1326,4.0486,10.7493,-5.8708,4.2218,11.1619,6.5931,1.149,0.93756,-0.91817,10.9533,1.7119,
9.6768,7.1247,-1.6592,1.6368,17.094,-4.7954,4.6916,7.3589,4.5105,-0.12501,-3.2163,-0.62189,0.41394,-5.8624,
7.8909,5.4919,-9.5134,-3.0412,23.0582,-2.3385,-1.6154,-2.0007,1.1064,-1.8047,-6.6387,-4.2,1.5939,-3.8234,
4.0437,-0.14005,-13.2807,-2.3761,12.034,-1.7156,-3.9289,0.048241,-1.8518,-0.73236,-10.0966,-10.2143,6.3192,1.227,
4.0416,0.10932,-3.0843,-0.54673,4.3221,-3.3003,4.2606,9.4449,-1.5002,-0.92938,-4.4295,-5.0221,11.9656,0.42998,
12.2352,6.1283,-4.1041,-3.6474,17.3192,6.2977,-0.57431,7.6734,-4.5432,-4.0071,-5.8505,-3.0336,3.294,-1.283,
11.983,0.94036,-6.7504,-11.6233,10.4954,5.4379,-2.95,-1.4641,-3.7887,-1.8385,-4.0532,-6.708,-4.1345,0.2402,
6.4438,-1.0443,1.3679,-10.4435,-1.2215,-8.3857,3.9755,-2.3402,-0.66885,-2.692,1.4921,0.92537,6.2364,0.22579,
0.031146,-0.74063,-1.8477,-10.0583,-4.2817,-12.4623,-0.36041,-0.99492,-4.2441,-11.4486,-1.2485,5.4491,5.1394,-6.2957,
-8.6476,-8.4092,1.1555,-12.829,-16.5581,-13.1606,4.4817,3.4033,-1.0972,-6.4231,9.4315,8.4964,4.3488,-6.8821,
-10.5389,-14.1712,3.9782,-8.2029,-21.8311,-22.4939,8.0692,-0.17532,-3.442,-4.1095,7.4193,7.9866,5.5342,-5.0229,
3.1091,-7.5361,2.7759,1.9305,-6.4212,-19.2158,5.6571,-3.0566,-5.6453,-8.6835,1.6718,4.6151,1.346,-2.7931,
6.7785,-3.2275,2.1269,-0.59595,3.0026,-6.4937,4.3533,3.8752,-5.789,-11.055,2.0534,3.8563,3.6753,0.7485,
-7.7282,-11.711,3.4456,-5.3804,-11.2776,-17.1913,6.9846,6.0528,-4.4773,-5.571,2.4121,3.6249,14.0596,1.1855,
-21.3645,-22.3365,10.2283,-5.781,-24.7009,-30.2598,7.7704,2.0742,0.85275,4.1633,13.1137,11.8431,11.0469,-8.7675,
-29.2415,-21.4783,10.5791,-4.952,-29.0037,-29.0471,4.8943,-2.8707,0.80158,5.3595,17.1473,20.7737,1.2253,-10.6514,
-29.4149,-25.492,8.98,-9.4751,-31.6018,-26.8219,5.5645,-11.8573,-0.69254,2.1459,12.2625,15.189,7.9007,0.59253,
-22.1066,-26.1318,8.2003,-7.7018,-40.5519,-31.7205,5.4716,-13.7972,2.9647,0.32992,5.0189,4.3957,0.91869,-2.576,
-6.6802,-10.4639,6.5032,2.1606,-24.0188,-15.7173,4.9025,1.1307,4.9557,4.4073,3.5127,5.337,-6.6085,-7.001,
-15.8001,-11.1619,1.7745,-7.1283,-12.3341,-10.3152,2.198,3.1115,-3.0546,-0.19574,3.7836,8.8729,7.888,0.64967,
-18.4673,-17.4818,0.94485,-5.0132,-18.5837,-21.9886,1.825,-2.1366,-0.70197,2.4673,3.3159,10.51,15.2482,8.0823,
-3.2593,-5.1049,-3.2094,-1.5791,-6.6226,-14.1616,-2.8641,-2.2494,3.9197,2.0786,1.9118,0.47914,0.23335,-6.5027,
5.4929,0.74497,1.081,-5.0998,-2.1279,-3.9119,-3.4151,-1.3915,7.2999,4.123,6.3764,-1.7188,-9.3011,-13.7048,
-8.9367,-10.6279,0.77468,-5.0348,-16.1002,-15.4873,-4.4155,-5.4054,2.7646,4.5985,-0.031716,1.9998,5.3569,-2.0363,
-12.1366,-10.2312,3.8617,0.81093,-27.547,-21.066,3.3212,3.3546,1.3934,5.5279,3.5856,8.8697,-3.7618,4.5934,
-2.7316,-5.7607,6.5223,-0.68375,-19.1455,-16.4274,4.0861,8.9381,2.7563,5.6784,5.7808,8.3377,-17.5156,-0.02029,
-11.0036,-13.369,4.9259,-5.2222,-17.2736,-19.0574,-1.2206,3.3404,4.2779,6.5428,1.3364,3.7399,-2.3647,-2.1885,
-17.5742,-17.8696,6.0766,-2.0168,-16.2372,-24.1809,-0.18345,1.2116,3.0569,5.6678,-0.19005,5.4432,11.8772,-3.5034,
-5.4325,-8.1203,4.2657,1.9605,-6.104,-19.8375,1.2738,2.5849,-1.4648,2.4357,-1.6249,8.0091,0.55949,-6.1853,
-1.4909,-7.3923,5.6968,-2.2547,-12.7274,-15.9959,1.9205,-5.5239,-2.1001,-0.84373,-0.32235,-0.42538,-9.3562,-1.2346,
1.4906,-4.5382,6.3193,2.7013,-10.0355,-8.7697,4.2154,-3.7462,1.8823,-3.6856,1.6252,-4.2562,-3.9742,1.2496,
6.9448,3.2059,-0.5678,7.1185,3.823,-4.1457,1.3114,2.9862,1.5284,-4.1874,2.733,2.989,-1.0846,-6.7791,
-7.5719,-4.9407,7.9022,-0.78016,-10.5064,-11.8509,6.2942,-0.80836,2.1598,-1.2848,11.0049,10.2812,5.0058,-3.7215,
-21.2176,-17.9004,6.7054,-4.8309,-23.976,-19.0938,4.2295,-7.7495,-2.0673,-8.6793,3.355,1.7109,1.0902,-1.3289,
-6.447,-10.8008,6.0619,2.4486,-18.1993,-13.3687,3.7345,-0.77705,-1.2202,-3.5795,0.50234,7.1516,2.2299,-1.0079,
4.5449,-0.51179,11.4829,1.338,-8.4301,-14.9769,3.9926,-1.2124,-1.6291,2.902,4.8107,16.8456,4.5065,-2.8759,
2.1028,1.6881,8.1422,-0.42972,-12.5042,-14.8014,0.13743,-4.755,-6.1109,-0.88775,2.3527,5.9527,-1.7897,0.91233,
4.1461,-2.0284,2.1103,1.2835,-11.0304,-8.8514,-0.11155,-5.1926,-7.9132,-4.9316,-1.8856,-1.876,-6.2614,-1.3118,
12.333,2.1907,1.7427,0.96508,-8.6818,-4.2235,3.9925,-5.6044,-3.3415,0.9079,-3.4601,3.7802,-4.1989,-3.4023,
-2.507,-5.8947,3.3251,-7.5287,-22.2609,-17.7081,2.5479,-7.9195,-2.4174,1.5766,-3.0113,3.3121,-0.33135,2.3453,
-15.7332,-15.9049,6.7415,-2.9792,-33.3378,-23.6355,0.70778,-11.5414,-2.0314,-1.6515,3.1954,5.283,7.1603,1.4817,
-2.256,-7.72,8.2647,5.8762,-17.2375,-13.0584,6.4499,-13.7415,0.98255,-1.5524,3.4856,7.3762,10.5871,-4.3918,
3.664,0.93811,4.8763,2.6311,-16.324,-10.3467,7.0268,-9.5428,-1.4865,-2.4236,-3.4725,5.4869,-2.0997,-3.6464,
8.5056,7.8715,1.9329,7.5352,-13.1751,-6.5926,-0.86642,-1.4982,-4.0487,1.3375,-5.9154,9.7377,-6.0708,5.9726,
4.1391,-1.7596,-0.1115,0.33437,-7.5642,-8.6069,-6.1168,-8.6391,-2.3597,1.7394,-3.6321,5.7792,0.077783,3.2039,
-5.9912,-11.536,1.5829,-7.6394,-7.3513,-10.7421,-5.0269,-12.7001,1.3978,1.876,-0.76307,-1.0755,0.79647,-0.60374,
-14.0679,-13.9773,1.2465,-3.0837,-21.0102,-14.1949,-2.0738,-8.8048,-0.85573,2.0044,-2.8864,-2.2158,0.50772,4.0122,
-9.8493,-16.5129,4.0642,-0.48857,-27.5828,-18.6454,2.389,-8.7584,-3.2145,-4.8643,-1.7489,-0.15468,-0.969,-0.56728,
4.8416,-1.4221,0.92806,3.3974,-11.8279,-3.4267,-1.611,-2.9305,0.35258,-4.0908,-1.1623,-0.62756,-5.2494,-2.9436,
11.9022,2.6401,-1.7789,0.54174,2.9816,6.0577,-4.1656,-1.5496,1.0546,1.6985,-0.36943,-6.1337,-1.8012,5.6689,
-2.9119,-11.6183,5.7996,-5.5163,-11.2973,-8.4057,1.6279,-8.4463,-1.66,-0.57255,2.7862,-5.0424,5.7787,5.0878,
0.99894,-8.1494,5.9336,-1.3285,-12.186,-6.0934,2.9765,-9.3858,-1.5602,-2.4664,3.101,6.8293,5.9144,-1.484,
10.0976,-2.3578,-0.20704,-4.1413,-2.7782,1.503,0.86971,-8.3407,-0.50273,-0.39021,2.433,8.8297,-2.6357,-2.8412,
-3.5232,-5.5908,2.2155,-7.7492,-16.7115,-12.5665,1.7819,-4.9477,1.4556,2.5253,0.84075,2.5153,-1.0313,-0.26059,
-10.7839,-8.8708,4.7341,-6.5614,-29.8086,-16.8741,-0.49422,-5.374,1.6097,1.6508,-1.3789,1.6415,1.6817,-0.0035298,
-2.665,-6.6513,0.3525,-1.1058,-13.9201,-12.7284,-4.0802,-10.113,1.2719,3.2388,-2.0193,4.6763,-6.8551,-2.1727,
6.6537,-0.46763,-7.8636,4.263,-7.1798,-12.4469,-5.2814,-11.9168,0.71346,4.9724,-4.7904,1.9854,-7.8898,-0.59632,
4.5674,-1.6451,-3.7766,0.8735,-14.221,-10.495,-1.8317,-2.284,1.3933,2.5052,-2.334,-1.2675,1.5014,3.0547,
3.3293,-2.9922,0.30663,1.7857,-13.3676,-7.455,-4.6137,5.0841,0.82802,-2.4656,-0.26557,-1.6731,-6.3012,1.9077,
6.9857,0.079399,-1.1578,5.0527,-6.2988,-8.4537,-4.819,-1.0055,4.1526,-2.3179,-0.24986,-0.12672,-12.6723,-1.5814,
1.7463,1.039,-1.0883,0.89318,-10.2594,-11.3209,0.77277,-5.2837,9.2061,3.1238,1.6938,7.1117,-0.34234,-1.4865,
-2.2151,4.8332,-1.9871,6.142,-3.3768,-2.4467,-4.0941,2.7461,6.2433,4.3829,-1.7825,3.3108,-3.2141,6.7976,
3.7026,8.8818,-0.42187,13.4865,10.9258,11.8001,-5.2945,5.956,6.8333,5.084,3.1454,-6.5286,-15.5545,12.6565,
8.7831,9.3128,-0.39655,7.8566,9.1854,17.2381,0.80778,0.296,4.977,1.8864,2.9566,-6.1373,-18.4776,2.7381,
2.7125,3.6923,1.3145,2.3235,-5.104,4.3937,4.8567,1.4833,0.098663,-1.3603,-0.35424,1.2208,-12.3077,-0.077311,
-4.1989,-3.2779,4.1279,3.1487,-7.2082,-7.9213,1.673,1.8762,-4.2456,-3.2066,-0.33322,5.4861,-4.3382,3.7835,
4.2477,8.006,-1.9044,6.3342,7.3243,5.5694,-5.6582,3.6921,-8.3294,-3.9781,-7.5436,-0.62766,-9.3806,6.449,
7.6085,14.9977,-3.9595,5.231,16.1644,14.1531,-4.1137,10.4602,-9.0347,-0.1242,-0.58374,-1.7951,-18.6999,8.2314,
6.9108,13.3747,-2.5169,6.6041,5.7943,14.027,-0.25121,14.894,-6.8056,4.4628,6.9233,1.4459,-16.8548,8.4602,
9.6294,15.7055,-1.1603,3.0746,9.5442,16.8011,0.96893,11.8312,-1.8178,2.5075,-0.48172,-2.2565,-9.3358,6.2656,
-1.7944,2.4708,5.417,-4.5814,-1.8745,1.693,4.044,-1.6529,-0.98511,-5.5964,-1.6579,0.048272,-7.0886,1.3102,
-0.96359,0.1532,9.6715,4.6113,-1.5208,-7.4473,2.5963,3.0256,-1.1674,-2.1274,7.3594,9.4456,-5.4582,4.8472,
4.8786,4.9645,2.3421,1.4419,0.98035,2.6407,-6.7187,11.5209,-5.9176,-5.3744,3.0612,5.0223,-10.9151,0.69976,
6.2731,5.3895,2.9249,0.15053,-0.7657,6.5796,-5.1103,9.1425,-3.3934,-10.1132,-0.73785,7.372,-10.0192,0.89874,
5.6557,5.3076,-0.38407,8.0952,-0.47833,3.5337,-2.6345,5.4609,-0.53872,-8.3011,0.029783,6.2068,-7.2489,3.9783,
7.9675,10.0503,-1.0839,11.2249,2.2015,9.8292,3.0672,15.4971,2.6271,-3.2237,7.4993,1.737,-6.0911,5.9088,
4.3564,6.3143,-0.29599,5.0078,4.2385,8.0346,2.1602,15.2904,-0.66402,-7.6096,3.9164,5.2482,-6.4485,1.4569,
-2.6539,-8.1646,3.5782,-2.5235,-4.6926,-6.5475,2.0306,2.8038,-2.5524,-3.779,1.7532,12.6461,-1.7233,-3.9332,
-9.2431,-20.0877,1.4353,-10.5668,-11.6419,-17.1216,-0.019402,-5.0772,-0.47104,3.6786,4.0581,2.7283,-4.03,-3.2153,
-4.3504,-5.867,-2.0251,-7.0405,3.1566,-6.4531,-1.4647,1.9761,7.2702,4.9039,6.225,2.0824,-0.89592,2.2801,
-8.4273,-5.0328,0.50656,-7.1,2.8469,-10.4042,-2.8226,3.3038,6.3521,2.1995,5.3696,11.1165,-2.7704,-3.1589,
-14.4298,-11.2388,3.1273,-9.8075,-8.6525,-15.806,-1.4485,0.45403,3.3192,7.6112,5.7703,8.7623,-4.7733,-5.6209,
-13.564,-9.6001,1.4936,-12.1113,-8.6153,-8.109,1.5307,-3.9115,3.6024,8.1186,11.2089,1.4879,-3.0409,-4.3196,
-7.6885,0.37564,2.6093,-6.3234,2.7476,6.4776,-1.6941,-1.5077,4.1092,2.0879,12.2231,7.9061,-3.0994,-2.8551,
0.0036685,10.4762,3.417,4.1794,9.3317,14.8867,-4.0026,5.3317,0.97056,-2.3757,3.295,7.9141,-0.98523,1.1726,
0.0034479,1.1708,0.3195,-2.3379,-3.2795,-0.10647,3.4679,-5.5935,-4.8725,-8.4997,-3.6511,-6.6607,1.0021,-0.34403,
5.3057,-4.6843,1.7464,-8.9468,-12.2418,-10.103,4.224,-15.381,-5.5445,-9.4362,-5.8429,-8.0688,-3.8785,-5.1439,
17.0384,5.238,3.0878,-3.1073,1.9901,-0.82014,-0.8502,-4.8172,0.57279,-0.67533,0.29273,6.5153,-5.574,-2.907,
12.1595,2.5133,-8.6668,-5.8132,15.9707,-0.7707,-5.1377,-0.67178,-2.8358,0.32928,1.2388,5.5215,-6.2037,-1.7685,
-0.37998,-2.6989,-12.2444,-3.7774,11.2767,-1.9295,-5.5521,-4.7291,-0.97866,5.371,-0.040587,-4.6919,-2.6982,2.9171,
-14.4572,-9.2856,1.5059,-3.5505,-3.4999,-12.4188,-2.3267,-9.7477,3.9008,6.0133,3.8185,1.3744,-4.9467,-1.1145,
-16.1204,-1.7386,10.8158,1.242,-13.5333,-5.6479,5.2849,-5.5472,7.2826,7.3395,9.1332,15.392,-2.4805,-4.6629,
-7.9223,-0.67045,-1.4025,-6.0631,1.3787,6.7423,-1.2989,-10.0351,2.0247,4.9711,1.3541,6.3944,-0.40322,-4.8653,
-12.7498,-5.4507,0.12741,-9.0738,0.21098,4.4091,-2.1853,-2.2022,2.8676,3.7085,3.6835,-0.73813,7.3338,3.1394,
-6.2003,4.0354,3.9762,1.1116,-1.7299,3.6626,-0.126,4.1965,-2.6074,-1.8166,1.0519,1.2343,1.5911,6.8075,
5.7411,15.3626,1.3275,3.9374,9.9431,17.5429,1.3278,1.5346,-7.7534,-2.1895,-2.8676,-1.7322,-3.807,7.8453,
3.7094,17.092,-1.4033,2.014,8.1417,26.252,4.3816,9.3965,-2.2265,1.0753,3.8124,-0.90494,8.7139,4.2415,
-10.6131,6.9076,-3.2473,-3.4095,-3.4341,10.5769,7.0108,10.2787,1.2813,-0.9174,9.8501,0.11368,11.0831,6.3972,
-21.6662,-1.9429,2.0088,-8.7486,-16.4846,-4.1578,3.4567,-3.1125,0.96326,4.1989,8.5362,2.758,-2.8382,13.0027,
-13.3764,-3.9955,6.9502,-7.9824,-22.003,-14.2724,0.59817,-9.4334,4.039,8.5264,2.4802,9.1002,-2.9091,-1.8774,
-8.7174,-10.9864,9.9074,-8.4678,-19.2366,-15.8264,6.3469,-1.6366,11.0275,5.6047,6.188,12.4103,11.3654,-15.8648,
-11.5686,-7.4349,0.15413,-9.406,-8.4414,-10.0563,-4.1571,-1.5384,5.5453,6.2323,3.8883,2.025,4.2963,-2.3792,
0.21254,7.1112,-2.7474,1.2815,6.0446,2.1164,-8.7281,-5.7844,1.356,13.5714,0.2808,1.4213,-4.6384,11.8636,
1.1641,2.7076,0.30949,-0.72315,-0.58485,-4.759,-1.9375,-10.2578,3.2033,5.0443,-2.1462,4.2286,-2.9138,-2.9482,
6.8786,0.13481,-3.0833,-4.5364,10.0551,2.2748,-0.3752,3.855,3.9747,1.8494,-6.356,0.11823,-1.7749,-5.6639,
6.7071,4.7062,-6.9959,-9.808,17.8881,7.6821,-3.9683,6.757,-4.6997,4.8717,-8.6259,-5.9146,-1.4272,8.776,
-3.577,2.7366,0.41397,-5.122,9.3428,-5.0711,-1.5608,-7.3868,-7.0688,-0.00014694,-4.4927,-0.98025,8.0587,3.3084,
6.0371,10.5264,-2.2624,6.5135,15.2902,-0.66948,-0.74384,1.4923,-0.13694,-3.1332,-2.5359,-0.68047,3.4773,-6.2901,
16.7624,9.8946,-10.3216,0.81985,16.7827,2.7449,-3.1096,7.1871,-0.12895,0.42905,-1.9021,-7.8702,-9.2646,-6.3948,
6.3564,-1.5451,-6.5691,-2.8445,10.2323,-8.7477,-2.6823,-7.3441,-0.84435,4.0185,-1.0648,-4.7467,-2.6829,-11.5545,
-5.5939,-3.3806,0.091829,-0.2635,8.6543,-7.7407,1.8172,-11.362,6.4374,8.1159,5.7478,2.7687,7.6012,-6.5227,
-3.5711,-0.044504,-2.5648,-3.3812,3.0733,0.19553,1.4672,3.4197,7.7384,5.9418,2.7518,2.3616,3.0478,7.9687,
4.5967,8.3941,-6.5085,1.8831,7.4685,5.7272,-3.2003,8.3962,5.1047,3.8978,-7.2955,-1.3957,2.1413,6.4057,
4.0799,12.4702,-6.8409,5.3856,16.4204,6.1065,-5.1775,-2.9536,-0.74522,1.0128,-6.6168,-7.3375,1.7719,-8.0786,
8.8968,11.4805,-8.5996,2.4113,15.6761,6.9454,-5.5902,-3.0173,-8.1723,-4.1092,-9.3533,-10.9946,-3.3957,-3.6168,
13.6654,13.2021,-3.2631,0.82064,7.5049,7.0108,-3.3263,1.9842,-11.0562,-6.7549,-10.2381,-9.8528,-3.1922,3.8308,
14.7739,21.5692,-0.17504,2.6994,12.839,12.8569,-5.0552,3.3112,-10.875,-10.2062,-6.2496,-6.8513,-6.8568,-7.0041,
21.3588,28.2288,0.55837,5.6709,25.8074,18.593,-2.5823,5.2817,-5.1608,-9.3529,-7.5618,-5.2354,-3.7943,-7.3072,
15.498,12.7967,0.2839,-1.6592,13.8951,3.3774,2.152,-4.9169,-4.6102,-8.5503,-17.472,-7.5723,-3.3257,-4.2172,
14.5679,13.475,-3.1078,0.85067,15.9532,1.1261,-0.3875,-6.0684,-2.4056,-1.771,-13.0495,-4.7076,-12.2849,-1.0719,
11.0427,12.9074,-9.4288,-4.744,13.7912,4.6739,-8.7999,-3.5349,-2.0199,-3.8339,-3.3484,-7.0763,-12.2707,-4.623,
8.2108,5.6253,3.9111,-10.0032,3.5635,-1.6323,-0.80035,4.6309,2.6804,-3.3631,5.2884,1.3018,2.5655,-7.9613,
6.0311,2.1545,6.3278,-6.7517,7.4473,-1.2932,3.8272,8.4506,2.7608,-1.9558,2.8017,3.3931,-0.11926,-5.3142,
-1.0794,-3.7596,1.61,-6.8283,6.0363,-2.1797,2.6339,1.6771,4.0416,1.5358,4.562,-3.0772,-7.8251,7.056,
-0.77367,-5.7032,-0.6562,-6.1776,2.0587,-10.485,-1.6219,-7.8238,2.5938,1.2027,-3.6659,-7.4723,-0.84812,-0.35726,
11.0831,2.593,1.5526,0.70075,9.4068,-6.7227,0.16238,-5.1852,5.0895,0.40737,-9.4713,-3.4084,-0.074104,-12.6281,
11.6232,1.7143,0.73628,-0.54635,6.1911,-0.29352,2.322,-1.2586,4.5429,-3.2323,-1.9133,-2.4807,-10.9157,-2.4702,
20.0851,6.4319,-1.2359,-2.442,14.9789,10.3292,4.1111,3.1554,-1.032,-1.1104,3.5043,-6.1885,-4.4759,8.765,
24.6645,6.046,-2.608,-8.0801,18.9008,9.2275,1.4539,-1.8544,-2.4164,-2.0076,-2.0086,-9.1912,0.61287,0.044404,
20.5333,6.4064,1.1637,-1.5695,12.223,3.13,-0.32035,-1.0202,5.2002,-1.6464,-5.5037,-5.9888,-4.0034,6.0675,
13.5165,7.468,-0.35215,0.93459,4.2585,3.4243,-2.2296,1.9333,1.9959,-0.58354,-6.6195,-9.0037,-6.1736,2.8107,
9.3315,1.7177,3.0434,-8.762,1.1109,1.7731,5.6174,-1.0748,-1.4979,0.89774,-2.366,-6.0529,0.94575,-11.4579,
10.4586,1.3735,5.5121,-8.4775,7.552,-2.9128,3.5929,-1.2515,1.2429,5.4234,-3.4291,7.5664,-2.7262,-2.2138,
8.6261,2.9781,-0.36243,-4.3536,0.59116,-4.9074,-10.7226,2.439,-0.036311,9.1956,-2.5002,6.8712,-12.4448,10.6937,
8.5904,4.2457,-4.1971,-0.23603,-2.3364,1.1716,-20.3227,4.2209,-0.99846,6.7156,0.54234,-3.182,-8.3236,-4.0479,
3.2543,1.0984,-0.57079,-1.1857,-3.1605,-0.34497,-11.8729,0.11124,0.98964,5.3484,-3.347,3.7578,3.2626,-3.6848,
-7.546,-6.6801,6.2121,-5.4531,-11.6478,-9.4831,-6.3396,1.0687,0.4481,7.9198,-4.5923,11.7273,5.4772,9.5515,
4.2352,1.1923,-0.6683,0.89983,3.1511,0.48568,-12.4669,8.9585,-3.194,0.45493,-10.3425,0.65954,-5.2156,-0.42139,
18.081,15.2208,-3.0386,11.4509,17.062,14.5565,-4.9702,11.7952,-0.59244,-4.8752,-6.3477,-7.575,-3.9385,3.9424,
19.0449,17.8025,-3.0972,4.7383,24.474,17.1781,-4.4311,0.24125,-3.208,-6.2695,-5.2435,-11.7002,2.8057,10.2134,
5.1275,4.924,-2.6702,-3.5,8.9056,5.7833,-8.2628,-1.9424,-7.1131,-8.0627,-7.5802,-8.3469,3.3605,0.2008,
9.6406,8.4854,1.3464,-0.39745,19.8204,12.1852,-3.4282,6.3691,-4.2757,-9.0247,-4.7148,0.83104,-0.21558,-4.632,
7.1339,21.4731,-5.9652,4.9286,32.7311,21.0951,-7.0794,5.0226,-2.5734,-1.7348,-11.6632,-4.5215,-2.1308,-0.49765,
-7.3941,19.7026,-8.982,-0.66955,23.4155,19.8291,-8.5826,3.2752,1.9196,5.1179,-11.9275,-11.4813,-0.55696,7.2447,
-19.3632,11.7722,0.7162,-4.4855,16.7086,18.6396,-2.7648,9.3455,3.7328,5.293,-0.60635,1.2594,1.8868,13.0773,
-17.9602,9.8608,-7.2803,-0.60121,19.3213,16.3162,-10.5528,11.4361,-6.8552,0.39594,-6.1138,-7.2521,1.5324,6.7488,
-14.4725,13.1256,-3.9514,1.845,15.2695,15.3372,-7.0276,12.1962,-1.1413,6.6387,-2.3725,-13.5658,9.6356,12.6108,
-19.6297,4.8662,0.38303,-7.1838,4.4714,8.8734,-3.4725,1.1001,3.5065,2.143,-2.9531,-2.87,3.9958,14.5053,
-9.5343,5.7791,-0.84524,-2.173,16.0132,12.4383,1.3152,2.2393,4.019,0.80914,-5.4274,6.7022,4.9609,11.4658,
-2.6957,7.8425,-11.8818,-3.4889,18.4269,13.6202,-4.0664,4.5151,-2.9711,0.27866,-9.9225,-4.7871,-0.15701,-2.72,
5.9021,16.29,-12.3737,-1.1104,11.7777,16.9003,-7.4378,4.4852,2.2689,5.3232,-7.6399,-7.151,-6.1731,-0.86954,
3.861,11.215,-8.0161,1.6076,5.5272,5.5222,-6.7504,4.9392,2.8559,0.42472,-5.0122,-6.9631,-3.1514,8.1009,
5.7983,5.4807,-10.1864,3.68,18.4521,3.0215,-4.1764,7.2942,-6.2333,-5.6265,-4.4702,-6.3041,0.65285,5.9274,
4.4863,0.33133,-7.1649,1.5313,16.3809,2.8404,-1.9974,-4.7129,-3.9313,-2.8786,-2.756,-0.14155,-2.7605,-3.587,
1.0839,0.55265,1.219,3.6088,2.6238,-5.284,-5.4927,-14.312,0.88452,-1.0189,-4.2776,-2.302,-5.2462,-6.5051,
8.9726,12.3296,-3.4339,9.8997,11.8664,3.9512,-6.8504,-3.0892,-2.302,-1.1987,-7.6364,-10.6,2.5403,2.3209,
4.5778,1.4669,-10.4583,-2.2634,12.6007,6.1242,-4.5112,-2.9039,-9.8767,-6.9114,-11.0346,-5.1433,3.3518,-5.5311,
10.088,2.825,-8.8671,1.2466,18.5929,11.0596,-4.7227,-0.31928,-6.3918,-4.0863,-8.4445,1.914,-2.1517,-4.7171,
18.6417,16.7555,-6.4064,13.7053,26.1544,18.1088,-3.475,9.3408,-0.22371,3.8716,-3.5991,-11.6982,-2.0226,9.6659,
9.0873,8.6402,0.48565,4.4471,10.847,5.2119,2.2769,3.237,-1.4154,-0.94019,-1.6962,-13.1657,2.6782,8.2426,
6.3729,2.5777,3.59,-5.2197,9.4729,-2.0906,4.3094,-1.537,0.3568,-7.3913,-0.87148,-0.56517,2.2766,-4.0625,
10.5701,6.5207,-2.1692,-1.7728,21.6792,10.3275,2.8458,5.063,6.3612,-1.8863,5.2066,-6.0751,1.4169,4.6176,
1.7407,1.3087,-7.8241,-0.22067,8.3269,12.5999,-0.69939,3.3129,0.19445,-1.2912,-2.8186,-14.8696,5.1882,5.3039,
-3.6662,-0.21584,3.2508,0.27474,-6.2728,1.7208,2.2349,4.0783,0.66495,-3.1422,-7.47,-1.9261,10.1794,-8.5114,
-1.277,2.9306,2.8148,-0.94704,-1.6786,-6.3362,4.7523,4.5569,4.7224,-4.1585,-2.4425,5.1793,-1.2772,-7.2778,
12.8996,16.8548,-5.3078,8.9922,12.5222,8.144,3.7438,9.3452,3.2342,-0.77548,1.3195,-0.19313,-2.4059,7.2588,
15.1384,16.9281,-5.9537,4.5963,17.6761,20.3091,-4.1936,10.2303,-2.7444,-4.5853,-1.6517,-7.4124,4.9693,11.2823,
4.8303,9.4047,-4.8733,-0.25949,5.2871,5.8339,-4.6651,7.4475,3.928,-3.1052,-3.722,-2.3881,0.09165,-3.4946,
9.8429,7.3943,-5.0631,3.6127,4.9701,1.1458,3.8097,1.6978,3.6921,-0.026556,-2.0527,1.1294,-5.6987,-2.4413,
5.3959,-1.2445,1.0253,-3.8349,-2.5589,-5.1899,10.3301,0.14967,-4.7242,-6.2919,1.9269,-1.8304,4.7666,3.9717,
-4.5688,-5.5081,-1.4464,-5.533,-1.9234,-8.2525,3.4438,1.105,-2.0306,-12.1809,-5.9015,0.20759,9.3009,-2.5331,
7.0333,6.1508,-5.9391,5.6455,10.4843,6.3426,0.10341,3.69,1.2245,-6.8706,-7.2344,-0.046066,-2.5851,2.6808,
20.7113,17.5916,2.3712,11.3321,16.8453,17.4105,6.6049,12.8689,1.3922,4.3877,5.01,-1.7303,-2.1888,16.6199,
8.5021,2.4361,-2.5915,-0.91726,8.1216,2.2659,-1.022,6.7939,-1.5836,-2.6242,-1.5573,-5.0007,3.7268,5.1377,
-0.20294,-10.6047,-6.2927,-4.7184,2.8138,-10.7652,-3.371,-2.773,-1.9707,-9.6979,-5.8024,-0.8445,2.5391,-8.6682,
13.9092,4.1315,-2.2997,7.8572,14.9375,3.6195,0.92859,0.52729,1.281,-0.19745,-1.3569,-1.5167,-0.7467,-3.0864,
21.3901,10.2709,0.24889,5.9395,16.9333,8.7049,2.3191,0.49565,0.72173,2.7065,-3.6857,-6.2464,0.74437,4.3296,
18.4195,8.9313,2.885,1.9673,14.712,8.9056,2.9029,2.1527,-3.9009,-2.9995,-5.1517,-2.2562,0.45874,7.6853,
20.6888,15.1443,-2.1088,5.7061,19.1319,11.7457,0.31858,13.1107,-3.6668,-0.89138,1.9058,-0.6746,-1.015,11.5625,
5.3474,8.4511,-4.3924,1.9893,3.884,-2.4564,-1.1468,10.8778,-2.9649,0.60836,1.7919,-4.0086,2.4203,4.6022,
0.56732,12.0411,-0.031702,10.7878,-7.0748,-3.0322,-1.8011,5.6457,-5.4383,-3.5257,-6.752,-1.1167,-0.37623,-3.6279,
14.6333,19.7548,-1.717,10.8634,7.4497,7.0317,-1.4521,7.9585,-3.9067,-5.4833,-3.6953,2.5657,-3.9691,3.5797,
8.3326,6.7591,-3.7829,-0.63444,1.0976,-3.7543,2.2507,4.8296,0.42482,-4.9136,2.0698,-1.6858,0.36665,9.8726,
-1.8085,1.0512,0.78259,6.6347,-8.127,-12.6878,3.0797,1.1656,2.3278,-0.76217,-3.8387,-4.9589,3.7189,0.12143,
-1.7,4.3621,0.73518,11.0569,-7.6399,-9.5164,-0.47949,0.13137,3.6339,2.1756,-3.6089,5.4615,-2.2888,-10.4912,
-1.1161,3.6184,-10.3957,2.1988,1.4956,-7.4992,-6.2353,0.12349,1.0057,1.0812,-1.4637,5.1338,-10.3467,-6.4872,
-2.013,-1.4189,-3.5054,0.13863,6.2266,-10.9056,0.88772,3.4905,2.3916,1.9807,4.4087,-2.887,1.8437,4.9892,
-10.3279,-15.4338,6.1053,0.85367,-8.247,-23.9896,4.4499,-4.6726,4.4178,-3.6818,8.2416,-2.4723,11.1331,-2.7819,
-5.6111,-13.4234,-3.1793,5.8634,-13.4163,-17.9712,-3.2891,-5.5978,-2.8374,-4.184,-1.1708,-0.15506,-1.3452,-9.1227,
8.8256,1.482,-5.1575,9.6092,1.4887,-2.7929,-2.3687,8.8381,-5.8004,6.4311,-1.3417,-0.86889,-6.8079,-3.032,
4.3192,3.2008,0.69515,1.0789,4.171,6.4132,1.3889,9.6336,-4.7295,-1.4265,-0.05593,-7.3247,5.8926,-3.091,
-8.9556,-10.4884,4.0277,-2.3605,-10.1793,-8.0716,2.7516,-4.442,-3.9636,-10.0178,-5.3554,-4.9568,8.4314,1.433,
-1.1872,-1.6641,0.89417,4.5303,-1.735,-1.682,-1.7516,-1.7652,-3.7255,-0.25795,-5.5158,5.4637,-6.1745,-1.0633,
8.5252,12.5357,-3.98,6.6688,12.4691,11.9165,-2.6106,3.1617,-1.0916,3.6141,1.5638,2.7256,-7.6115,-6.302,
-6.0863,-1.1114,0.35619,-2.6494,-2.3791,-2.8985,1.6434,-5.9461,-0.78516,-5.5208,7.4955,-8.2842,0.79891,-0.86263,
-13.0727,-12.1319,1.2987,-1.5266,-16.3363,-16.8246,-2.7935,-7.0356,-3.6306,-3.2613,-1.1489,-2.4845,2.1972,6.9024,
-2.6474,-6.5833,-7.4559,-1.9169,-7.2815,-7.6204,-7.9286,-4.2033,-7.7511,2.237,-11.2033,0.075132,-0.34518,-4.599,
-4.6579,-4.9837,0.94499,-3.9713,-6.1219,-4.5118,6.6471,-1.2998,0.18558,5.718,3.2074,1.2757,5.2194,-12.7594,
-6.7883,-6.6126,-1.5216,-3.2508,-7.6826,-12.4361,1.0659,2.1524,1.6209,5.3751,1.5689,0.71698,-1.3605,-5.7267,
0.12646,-7.4207,-9.8664,-6.1893,-3.6062,-13.3771,-8.88,0.33651,-1.1279,5.7755,-5.0327,-3.9053,-1.5199,3.5345,
-0.3633,-8.9039,-1.0795,-4.3714,-3.3901,-15.9487,-3.0448,-5.4685,1.3502,1.0904,-4.249,-4.6351,3.3918,-4.3901,
4.4792,2.7176,3.3236,9.3882,8.8649,-6.7971,1.9586,3.5367,7.5357,0.061138,-3.5121,4.3196,-0.66809,-8.9474,
-1.8149,0.86752,-8.2038,1.3533,10.9843,-3.2556,-4.1842,2.6014,-0.86999,-2.5939,-8.3624,2.8554,-3.2793,-2.3848,
-3.6344,0.33285,-11.5682,-5.9589,15.1453,2.7241,-7.7902,-3.3395,-6.1207,2.8642,-8.3433,-4.0646,1.256,1.6145,
3.0912,3.4464,-8.2226,-2.4679,16.4062,6.658,-10.4558,-1.4519,-3.5843,6.3078,-4.2273,-7.4361,-2.4348,-0.16961,
1.9418,4.2039,-7.2473,-0.87357,11.5654,0.95636,-8.3822,3.9379,-4.815,5.9293,-4.9375,-2.1693,-2.2887,10.9283,
-9.2621,1.0594,-12.1148,-5.1597,5.5686,-4.8858,-8.3615,-2.5652,-7.4184,3.1632,-10.908,-8.7882,0.25897,10.7543,
-3.6445,-1.6555,-6.3265,-3.6451,10.2964,-2.4233,-4.2441,-6.0264,0.016348,1.2864,-5.1916,-16.2145,1.9304,-1.7009,
10.6742,2.3002,-1.1267,0.43003,23.7786,3.0243,0.83078,-2.2909,3.8718,1.6911,-3.4343,-6.0826,1.3327,-1.1169,
14.2513,2.6441,-0.57667,-4.4165,19.8211,-2.9417,2.7091,-0.22522,3.1575,2.554,-2.7463,0.066978,0.28838,7.6267,
1.3449,2.4857,1.8678,-4.6332,4.6523,-9.032,0.13623,1.7167,4.4141,0.95427,-2.0994,-8.6139,5.0916,3.313,
5.8437,6.4337,-3.3057,-3.6325,9.4346,-2.9462,-5.4153,-0.073741,-0.9122,0.65628,-8.9631,-11.7127,7.4374,-6.286,
13.929,6.7708,-3.8305,-6.5478,14.8943,3.2563,-4.8492,0.17188,-3.0269,3.2682,-5.7739,-6.9124,0.48344,-5.6677,
14.0578,11.6674,-0.7079,0.59417,12.0727,5.4713,-2.6303,4.0182,1.4933,4.5182,-0.12509,-6.4974,-2.9198,1.4211,
-0.88564,2.2903,0.29844,-5.7085,-2.7517,-6.9085,-1.5082,-0.079294,1.8856,2.3189,-6.3841,-8.0358,4.4862,-0.59239,
-6.979,-2.1857,1.7266,-9.7045,-9.6974,-8.9044,-0.45357,-2.003,5.6291,6.5183,-4.0731,-3.2155,8.5556,-3.9311,
7.5398,5.8992,-6.8132,-3.0967,4.9845,1.5118,-5.9704,-5.9801,2.1579,4.44,-1.6595,-8.5662,-4.2502,-5.8648,
-0.50515,-0.72126,0.82647,-5.321,-0.49654,-7.256,3.0649,-3.2112,4.4385,2.7273,6.6347,-4.6778,-2.549,-1.6565,
-14.5748,-14.778,14.8769,-11.5097,-14.5668,-20.9206,9.8709,2.5251,11.644,5.2148,10.8164,8.3773,10.378,1.0944,
-21.2924,-16.6631,10.4896,-8.1676,-19.3566,-10.3856,-1.0857,-1.2418,8.7762,5.6252,3.6599,10.5258,4.2121,4.1622,
-5.9149,-5.299,2.8708,4.1331,-4.0952,0.11989,-5.5998,2.4481,5.1166,5.5287,-1.139,1.9405,-6.8869,13.7944,
-5.4395,-4.017,0.28817,0.028485,-2.2828,-12.4206,-3.8174,4.2296,2.3993,0.37649,-5.4092,-12.1554,-1.6532,4.7718,
-10.4153,-6.1861,12.322,-7.686,-12.7511,-12.6397,6.0526,-0.84486,9.4862,5.6565,1.1819,-2.2671,12.546,-8.5299,
2.2605,-0.99443,8.6904,-4.3325,-1.8629,-3.2044,0.86854,-7.5428,6.0247,5.7993,-3.2276,6.0639,2.0318,-8.5003,
16.2248,12.8036,1.1791,8.2199,12.3489,5.9059,0.093529,-3.9568,2.5297,4.2461,-2.3106,-0.80743,-7.0082,5.7485,
11.9974,5.7686,1.1086,-1.4325,9.3178,-0.71517,1.5339,-8.5399,3.342,-2.2754,-1.6902,-5.098,2.5711,0.58267,
10.5546,7.1097,4.1751,-5.4439,11.8923,1.015,0.71901,-3.9301,11.5772,0.99457,-0.38351,1.7158,13.7455,-2.5853,
2.9317,2.5855,2.2376,-3.9122,9.4917,-5.5536,1.8809,1.8491,5.8211,0.6937,2.7728,-4.8948,5.9307,-5.0815,
-4.4753,-6.7284,4.9956,-2.7134,2.1731,-10.5233,8.5168,1.256,1.1333,-0.31202,3.0886,0.70127,1.2363,-4.2949,
-2.0371,-6.5657,6.3831,-3.7559,-1.0903,-10.1329,5.3547,-0.024229,2.7525,-3.9087,-1.1941,7.1671,0.43922,0.54251,
2.1827,-0.14594,8.6514,-0.87922,-0.30177,-7.3555,5.2746,4.0748,2.8286,-3.433,3.4571,2.1576,2.5823,1.2331,
-0.11766,0.58549,-1.2679,0.3786,2.3677,-5.2272,0.37812,0.21467,-3.8489,-0.57569,-3.2581,-1.5875,-1.1883,-6.7949,
-4.9311,-2.8239,-3.6017,-5.4285,-1.1486,-5.3953,-1.0906,-6.065,0.72063,3.315,-7.4011,-0.045774,-1.1168,-4.9407,
-1.9841,-1.4491,-1.6984,-4.3799,5.9102,-2.4204,-4.1582,-3.0495,5.2567,2.3932,-4.7879,-7.9968,1.1194,0.89937,
9.945,9.4836,-10.5145,1.9085,19.6556,6.1605,-8.9708,4.1229,-3.9768,-3.7759,-10.5262,-14.0249,-0.15309,0.60398,
17.5435,18.0736,-4.0991,1.312,21.9709,12.5397,4.1014,6.2861,-4.7021,-3.0674,-4.592,0.91659,2.7486,3.9422,
7.3316,8.7943,5.3057,-0.69465,10.0471,4.0743,10.1216,3.9805,2.8107,-1.4374,1.9498,5.5614,8.368,3.2235,
-2.99,-3.0613,2.8184,1.034,3.9009,-10.2701,2.5246,-0.35545,1.437,-2.5562,0.14584,-8.0285,7.1433,-2.5133,
7.3123,9.6558,-0.24323,4.8284,7.5233,-4.4717,0.92689,-0.81651,-3.9519,0.97163,-1.3092,-5.1366,-5.3369,-6.2189,
11.2119,13.4148,2.1815,2.6105,1.2873,4.4737,4.2457,3.0889,-1.7866,1.8772,0.69758,5.7769,-5.9805,-4.8819,
3.5498,-1.4901,6.1484,-2.6078,-10.6001,-9.8948,8.0883,4.5908,3.8642,0.55974,5.7174,6.1531,5.2246,1.919,
10.3264,-3.6903,5.5383,-2.2102,-3.4564,-14.4832,3.9878,-0.74614,0.017183,0.28496,3.205,-3.1339,-2.5609,0.11684,
6.0912,2.0745,10.2675,-2.8007,-10.2391,-15.3012,4.4717,-0.46017,2.1851,3.4011,4.2177,-0.29453,-5.0586,-2.0596,
-8.3743,-12.15,5.0719,-5.284,-23.7247,-28.4832,-0.37611,-2.602,-0.59689,-0.41814,-0.13245,10.5692,-2.1038,-6.0336,
-5.8234,-7.9263,-2.2225,-2.3156,-29.8938,-14.6028,-4.4511,-0.27691,-4.6591,0.81201,-4.2221,11.1401,-8.4857,-2.0564,
1.2749,2.1903,5.6241,-3.6229,-14.6023,-4.5676,4.0106,8.8987,-1.0047,7.5122,6.1541,7.5796,-7.9761,9.1542,
-12.9016,-12.0412,4.3225,-6.7798,-24.8132,-18.3936,3.2883,3.0624,-3.8367,1.2767,3.375,6.1607,-4.1233,1.3744,
-19.9607,-19.6339,6.2323,0.13449,-25.0116,-31.39,3.332,0.22756,-0.47344,-0.9691,6.3055,12.2986,-2.1887,-4.7336,
-12.9783,-14.5992,10.1969,-0.83768,-22.5468,-21.3114,1.6856,-1.2326,-1.8911,-6.6958,8.3375,7.2221,-10.7342,-3.9675,
-16.2972,-11.5543,10.7902,0.41811,-21.4352,-28.4686,4.7181,-3.3276,-6.3571,-9.9092,-1.0805,3.1736,-14.6697,-5.8988,
-13.8733,-8.9331,17.3734,6.1774,-17.7387,-29.1708,13.5939,4.1027,-3.5658,-2.084,3.8048,11.6601,-5.1126,-10.8477,
-9.1845,-2.6121,8.6182,5.3248,-9.4436,-16.8158,-1.3218,5.7847,-8.1721,-8.7079,6.4685,7.1041,-12.0367,-8.2682,
-9.1154,0.43669,5.2091,4.5234,-4.0567,-7.1297,-4.9786,3.5095,-5.7536,-8.185,6.0804,3.3034,-18.063,6.3279,
-13.3892,-11.6406,9.2348,-1.5331,-10.5618,-15.379,3.5153,0.40637,-0.58765,-0.4635,3.7874,2.6232,-14.0871,2.453,
-1.0162,-7.0858,2.4142,-0.47676,1.6411,-13.01,1.3762,7.6128,1.8577,2.4568,2.1139,2.4658,-13.7238,-5.4069,
5.5525,1.7753,2.0282,1.2388,7.5684,-7.6499,0.57047,7.3973,2.4694,0.62242,4.1565,4.0049,-14.5874,0.94327,
-5.3862,-2.6698,6.245,-2.2097,-3.0093,-12.4933,0.054082,0.20475,-1.0534,-3.2715,1.9787,2.8005,-11.3023,-5.862,
-4.8218,-0.82215,5.6291,1.0561,-6.9258,-8.6105,3.1841,8.6284,2.6254,0.53994,7.8857,6.2481,-3.1521,-6.7153,
-9.353,-3.6656,1.4348,-0.45327,-16.6334,-10.5042,2.029,6.6646,1.9857,-2.3847,9.341,6.3549,-9.7116,-2.9382,
-12.648,-7.3018,2.7952,-0.42584,-17.0814,-16.6226,-1.467,-3.3764,-5.846,-4.6516,1.5499,2.1175,-22.1446,-3.2441,
-9.238,-7.1047,5.761,-1.1237,-9.5491,-16.3482,-0.65609,-4.8611,-6.7005,-4.1315,5.0719,4.6415,-18.1644,-5.7005,
-10.6121,-8.6068,3.4869,-1.5384,-8.9759,-12.475,1.3117,3.6255,-2.9242,-5.812,7.6599,11.1117,-6.4694,-4.3944,
-16.4829,-8.8133,7.375,4.0975,-8.6783,-15.8238,10.1511,14.2542,2.3129,1.5266,6.4774,10.204,5.2469,2.3767,
-14.5296,-8.7664,9.825,4.3341,-4.7832,-20.1771,10.0239,4.24,3.1384,3.3632,6.5711,7.6641,3.0039,-3.068,
0.44218,2.1237,2.7278,7.6892,9.2419,-4.8664,3.3967,0.37037,2.7089,1.9563,5.9357,10.8194,-4.166,-4.5714,
-5.9718,-4.9936,0.39499,-1.6902,-3.1227,-6.6231,2.47,6.8556,0.85918,-1.2946,6.3024,4.1442,-4.1574,0.76455,
-19.7135,-10.2376,9.2894,-0.3835,-8.479,-16.5896,8.8298,10.5416,3.9411,1.9166,9.5397,4.137,2.118,6.2623,
-13.1076,-5.0439,1.26,5.1829,0.46566,-12.9434,1.7918,0.99131,-3.7674,-3.2598,-2.3607,5.5758,-4.0348,0.8251,
-7.0187,-1.8489,-1.7079,2.4616,-2.937,-6.3824,2.1665,-0.032725,-10.29,-4.9927,-10.4144,7.1692,-5.2392,-1.1528,
-2.018,3.8054,-0.40039,7.3758,0.85491,0.99063,3.7235,2.1391,-8.9495,-2.0418,-10.9941,-1.2145,-2.2731,-0.36053,
7.9852,13.9412,0.34677,14.8867,14.9036,8.4028,4.7056,5.144,3.3978,2.6602,3.7655,-1.8647,-0.44972,3.2763,
-5.5093,1.5355,-5.941,-0.10646,6.4171,-4.6349,2.0127,2.4248,1.7477,-1.3562,7.9984,1.6212,-6.2073,-3.1868,
-15.0607,-3.6178,0.44145,-4.5587,-8.0679,-2.1872,9.3637,8.3053,2.3657,6.1974,8.2414,7.5499,6.9396,0.61983,
-18.7366,-9.4265,3.0663,1.2583,-19.0325,-10.9738,5.6686,2.2631,-1.3914,3.1742,6.0599,2.0354,7.7283,0.34144,
-3.5124,-5.9686,0.95389,2.1469,-3.7906,-16.5821,-0.45584,1.6452,4.4769,3.466,6.6604,6.2519,-2.3766,0.32119,
4.0497,-5.3696,-3.2007,-6.9,2.8239,-9.0797,-1.1518,4.198,11.1977,8.8016,6.0198,7.0816,-4.4032,1.9891,
-1.9783,-5.5293,-3.0087,-5.0398,-6.0222,-0.82213,0.84546,2.0175,7.1514,10.6836,5.6582,0.87212,2.6094,-1.9871,
-2.3413,3.4793,-6.6848,2.0113,-7.1069,-1.7369,-3.5438,-2.4417,-0.99024,4.2578,-3.3577,-2.0725,2.9355,-6.2059,
-4.8522,5.4399,-10.8627,-2.6889,-7.8856,-6.6937,-6.9464,-1.572,-3.1002,0.38715,-6.2895,-3.1532,-2.3021,-2.2184,
-9.1406,1.016,-9.4883,-4.2146,-7.1717,-0.74867,-1.4681,8.8864,-1.2272,3.9791,-0.36878,-3.2052,-2.8875,2.4942,
-10.7613,-4.5886,-3.8573,-0.34672,-9.8749,1.9473,4.6455,9.0761,-1.8765,5.9095,1.3401,2.0488,-0.063195,1.6212,
-8.1874,-4.7952,-4.5897,-1.2893,-9.2819,-6.8461,-3.828,-2.0733,-1.2815,0.7347,-4.0425,3.3721,-3.4334,-0.88571,
1.2217,2.9641,-9.8582,1.9213,5.375,-4.7484,-11.0699,2.1482,3.3749,-0.51444,-6.4513,-2.856,-2.0223,5.1927,
1.3893,0.61706,-8.0614,0.60072,9.2703,5.4185,0.44014,9.4911,2.931,2.1675,-0.038631,-5.3357,5.0889,8.4966,
1.0652,1.7851,-9.2652,-0.64039,4.6165,15.4574,5.4756,3.8602,-2.7883,-1.5777,-0.27705,-1.4004,1.6503,4.3716,
0.036987,5.5344,-9.1912,-0.12003,0.96508,12.1199,-1.6018,1.7004,-0.21083,-1.4831,-1.7067,-1.3164,-0.37692,-0.71139,
-8.4011,-1.3054,-3.0964,-3.2461,-4.6362,-0.41767,-2.2288,7.1418,4.8633,5.1136,2.0109,-1.4786,2.297,-3.802,
-7.8971,-1.2271,-2.9106,-3.0513,2.3904,-0.39261,1.7613,0.44676,4.0895,7.2169,1.8902,0.53832,0.23101,1.2464,
-6.2182,-3.3224,-1.0485,-4.0733,2.9701,-0.12786,1.4144,-4.6415,5.0492,4.1326,5.3925,2.6754,0.45788,6.2335,
-6.809,-6.4975,-0.98557,-2.3831,-5.8852,-2.0488,-4.455,4.796,2.8181,0.99213,7.4791,1.5506,-0.051524,5.8591,
-0.61607,-1.2872,-1.8905,1.1346,-7.46,-5.3001,-2.7412,2.5798,-5.0635,-3.4055,4.62,-1.4343,-0.048662,0.2051,
6.411,2.8877,6.1769,3.2359,-4.3611,-9.5612,11.5232,-2.154,-3.0727,-5.3706,1.2095,4.1951,7.9082,-6.3145,
8.6774,3.4373,2.6728,1.8364,0.96223,0.89442,8.3008,9.7854,-4.5756,-3.843,-7.2987,6.1126,-0.038073,-1.8382,
8.1568,4.1949,-3.2722,-2.6125,1.3864,8.5535,0.57189,14.0185,-8.1574,-0.23799,-1.5586,2.3714,-12.0869,5.0205,
7.1852,1.0509,-0.18356,-0.045424,-0.14278,-6.0597,0.055871,3.0543,-3.8114,-1.6702,3.8378,1.7474,-5.5773,-2.9933,
1.2107,-6.0013,7.7814,-0.28344,0.10698,-19.3137,7.0422,3.1122,4.3713,0.5994,3.8487,6.704,4.1576,-4.9831,
-12.6005,-15.5238,9.0015,-10.1486,-9.2997,-12.6115,10.2348,4.1305,4.3497,3.6967,7.233,9.917,1.7387,1.8236,
-4.6136,-9.2898,-1.6615,-3.2732,-3.9214,-1.25,0.94409,-1.9019,1.6786,2.0286,6.799,1.6092,2.1163,0.74989,
6.5092,3.078,-4.695,8.2516,4.7498,-1.8981,-1.7639,1.3455,1.3367,0.70185,4.7041,-4.0308,0.78428,-5.3204,
-3.2815,-2.1682,-1.2805,0.76645,-7.3456,-9.2558,0.99282,6.8081,0.53337,-0.54532,-1.122,2.7183,-4.3242,-3.7961,
-5.2536,-6.6176,0.48376,-0.0026699,-5.2174,-5.5672,6.959,10.0153,6.5271,5.5132,3.0429,10.5092,4.3711,10.5316,
-9.0359,-10.8,6.4805,-0.72518,-1.7711,-6.9202,1.9624,-1.9136,-1.3365,1.0848,4.5473,1.9251,2.4219,7.3689,
-6.5654,-3.4034,20.1917,1.2463,-1.6651,-0.23867,-3.9401,-2.2809,0.19016,0.055614,1.8641,0.84553,-2.062,-7.1732,
-9.7871,-7.2967,33.0802,-3.8899,-10.0006,-2.8752,-0.57046,6.7738,11.0248,7.5243,5.8498,5.8562,0.71304,-1.5609,
-12.3329,-12.4021,45.1954,-1.4874,-7.2314,-11.6208,5.4893,2.27,8.1941,10.6883,11.0425,5.2639,4.2857,8.4151,
-4.8442,-2.0172,47.4248,4.3867,1.3974,-4.1748,-0.14246,-3.6506,-5.3127,-0.55809,2.185,-3.7288,-3.6845,-5.5874,
-1.9023,1.2375,49.1589,0.99022,-7.1223,-1.755,2.5174,5.9682,-4.2708,-3.6583,-1.0794,3.0026,-6.1143,-9.8316,
-5.4036,-2.9345,44.0397,1.6537,-10.3104,-8.6395,5.4998,10.1894,2.011,5.4792,-2.7018,13.1863,-1.1681,4.8583,
-5.0793,-4.6867,35.6128,1.0725,-8.7279,-7.6392,-2.061,-0.062901,0.926,6.1148,-3.986,5.1643,-6.4007,-0.13323,
1.4919,-4.8874,39.7425,-0.92046,-12.5426,-7.6628,-2.4197,-1.0235,6.1731,4.3017,3.484,3.8906,-9.873,-10.7305,
2.8484,-5.0763,38.3225,1.0632,-7.4515,-9.6134,3.9922,7.7153,8.2131,5.0077,5.6853,7.9957,2.7707,-7.1944,
-1.6608,-7.6638,33.1306,-1.8927,-5.0762,-8.5547,4.717,3.8779,2.4176,-1.0774,1.9698,-3.5713,9.8353,-4.8345,
2.7774,-1.4196,30.6606,2.5595,-3.8075,-3.7028,1.0598,-1.1752,-1.1017,-7.2795,-3.4509,-7.6955,0.085901,-2.1341,
4.057,1.0757,27.8571,6.2623,-0.687,-3.9626,-1.4144,4.1979,-2.9637,-9.7352,-6.6183,6.2636,-5.2214,-4.8981,
7.1876,3.4217,26.6676,7.8143,9.4776,2.0597,0.11671,9.7306,-1.3401,-6.2586,-2.8467,6.8516,-1.0522,-7.0148,
8.9257,6.3497,17.1136,4.6945,11.5602,6.0337,-5.9161,1.1928,-1.5009,-4.678,-3.881,-7.6595,-9.425,-0.08623,
-2.938,-1.0212,14.4,-2.577,-2.3898,-7.1027,-2.4276,-3.458,2.205,-2.7101,0.93118,-6.597,-7.1718,2.5705,
-4.9309,-7.4674,22.4536,-0.73515,-5.3799,-14.1484,8.5643,3.7393,7.6163,2.5142,5.4551,5.6094,7.3585,-4.0912,
-2.4659,-8.2246,25.6862,2.4424,-8.1906,-10.6479,5.8813,3.7559,9.3285,7.4246,4.4044,0.69306,7.7606,-2.6409,
-6.1743,-8.695,20.7705,0.36724,-13.0018,-9.0452,-0.73857,-3.2183,9.2507,6.4971,7.5146,-3.2049,-6.6848,-2.0005,
-0.5012,-2.8711,15.1855,1.7915,-1.1344,-7.0567,2.6802,0.83115,7.2494,2.2509,5.1355,3.2539,-3.8736,-9.1113,
1.4568,-0.77044,18.6129,2.6481,-2.9943,-5.6692,8.7861,8.9762,5.3684,0.66938,0.97077,4.9866,5.5177,-2.2979,
-2.9691,-0.72445,15.0858,2.4894,-10.0457,-3.8825,0.54596,3.6172,-1.2204,-1.2987,-5.3542,-3.0251,-4.9361,3.1424,
1.3068,0.52431,13.9402,1.1348,-1.4888,-3.4086,0.27224,-1.1792,-3.7983,-3.8719,-2.3814,-1.1564,-2.9527,0.30275,
-2.146,-9.1481,21.2985,-4.7179,-5.2559,-10.4349,6.0405,1.3017,-3.5704,-9.9066,4.9923,5.6614,9.2756,-0.67928,
1.116,-3.0558,18.8155,5.4473,-0.36099,-4.7474,4.473,10.1415,0.25903,-6.1785,5.4159,8.9374,3.1756,2.0128,
7.3155,2.9121,9.0095,10.4227,2.0708,-3.0163,3.7227,6.6404,2.1717,0.45876,2.1984,7.9188,-7.6202,-3.893,
6.6356,0.086271,9.6737,4.2537,-6.4896,-3.0763,5.1861,6.0011,-2.056,0.6722,1.8256,9.1309,-2.1018,-0.52594,
0.93509,-2.3293,10.5398,-0.3396,-10.9207,0.00058868,0.054894,4.6769,-7.7174,-6.1168,0.75192,2.3167,3.8092,6.2543,
-1.7721,-5.8049,13.0409,3.7781,-12.9165,-9.3994,5.5952,-5.0037,1.1818,-1.1705,7.6967,3.3826,8.1604,-1.1108,
-4.0761,-8.3489,9.3661,6.9257,-13.5876,-14.6198,5.7412,-3.7394,1.593,5.1665,5.7889,6.0719,3.3322,-8.2748,
-4.5547,-4.2328,8.0806,3.8588,-8.6752,-0.48648,1.2991,8.7773,-3.5645,3.6514,-0.10232,1.1281,-0.48339,1.6215,
-3.7995,1.8062,9.042,3.6273,-0.44192,5.3273,2.1855,4.8762,0.50578,-1.8703,-2.9887,-0.8678,-1.9006,5.863,
-2.3665,1.4566,1.9918,7.0253,4.6465,7.177,4.7057,-3.3699,5.0549,0.41129,-0.15806,1.3537,-7.33,-7.263,
-3.6705,-2.0054,-4.8764,-2.5555,-1.8995,8.6744,-4.2535,-0.27589,-2.9614,1.3507,1.7798,-6.4406,-12.675,-14.5403,
-0.79871,7.5153,0.47786,-3.607,-12.6313,3.5746,-6.6494,1.9103,-5.4343,-0.89949,-3.3882,-8.2228,-3.9603,-0.41147,
6.4798,16.2232,6.234,4.322,-16.6939,4.8062,4.8366,-1.5786,3.0862,0.60051,-4.6314,4.8033,-1.3123,-3.2791,
15.9732,19.3474,-8.24,0.44746,-1.5923,15.3638,-7.7459,-5.0995,-7.463,-7.8714,-11.8255,-1.5102,-15.3336,-17.1823,
29.1148,32.2866,-8.1075,3.5541,12.6033,25.7702,-9.4503,-0.69617,-10.1487,-3.7837,-10.3926,-8.8914,-14.7755,-2.0514,
24.3547,42.2802,2.2608,-0.27457,15.7032,10.9676,0.51671,-7.6443,-11.227,-5.2439,-9.0462,-11.4914,0.21105,2.6512,
30.1245,44.0815,-1.249,3.5981,15.7251,18.0226,-0.47839,0.045452,-8.625,-7.3396,-8.5032,-2.125,-5.9476,-11.6079,
34.8249,44.5706,-7.6816,-0.71518,16.4693,19.5928,-7.4396,6.0683,-6.9022,-7.1402,-7.752,-2.7204,-18.3648,-22.1191,
28.8784,42.86,2.902,-0.19056,4.8756,8.7755,0.71936,3.2938,-3.5962,-2.3733,-1.0206,-4.9676,-5.212,-6.692,
25.4589,42.4575,2.4874,7.7751,3.8602,9.4543,3.8097,3.8195,-2.6571,-2.9538,-3.6105,-5.3924,-0.80196,-6.17,
13.5673,30.9922,-4.6515,3.2114,4.8336,5.7538,-0.99796,4.7954,-4.1847,-6.3922,-9.4192,-1.4537,-14.8538,-10.8612,
9.138,22.1431,-11.3625,1.8132,7.1949,6.1317,-7.9282,1.8564,-6.5849,-5.7675,-11.5053,-0.16139,-16.252,-11.8965,
14.1329,20.0911,-8.5116,7.2481,12.7888,11.3074,-6.7296,3.9142,-4.0207,-1.3241,-3.3437,-4.2491,-2.9848,-0.33694,
-0.45361,4.7856,-1.0113,-0.65841,4.0675,-3.471,-0.78197,0.064126,-4.5026,-2.9321,-0.49172,-6.6454,-3.0469,3.7809,
-9.1028,-9.6015,6.7624,-3.0293,-3.4072,-12.5421,7.4599,2.9526,0.58808,3.0287,0.019948,0.020031,5.8132,-2.7127,
-14.3414,-18.1842,2.5005,-4.2935,-9.9514,-9.3797,3.6381,3.2576,3.9275,2.8472,2.4291,4.8393,10.2849,-4.9603,
-12.9993,-10.3445,-2.9524,3.1947,-1.1594,-6.8885,-3.8113,2.58,5.1379,0.74791,4.6937,7.9232,-0.45533,1.604,
-11.014,-10.9286,-3.9801,6.1365,1.5613,-12.0188,-1.8954,7.9688,3.6243,2.8722,6.0993,0.94031,0.77682,-0.66136,
-15.8968,-19.6734,2.2843,-0.73964,-6.0042,-11.5386,4.2439,9.6598,4.1297,6.3153,10.3126,4.9812,14.8302,-0.86265,
-15.1837,-17.7699,0.45974,-0.93645,-6.3671,-3.8566,-0.59026,1.1263,0.7487,4.7313,2.2219,11.672,6.5891,6.6607,
-10.1753,-17.9085,-0.29074,3.2175,-8.6362,-9.1689,-0.31388,1.7816,0.46281,4.2065,2.33,5.9105,2.0964,8.9126,
-10.2879,-25.2699,1.8961,0.8551,-11.2513,-19.9467,3.3206,6.2542,2.6044,5.6411,9.6617,6.7609,11.3708,0.42387,
-10.1526,-26.1638,1.7823,-2.0883,-2.8634,-18.7499,4.0857,3.4688,4.3764,8.1951,10.0464,15.9962,11.1705,-1.0478,
-11.7128,-27.2453,-0.012067,-2.6861,-1.4865,-16.9022,2.635,-0.83689,1.4625,6.4984,4.8641,9.4926,5.9208,6.0047,
-7.3949,-22.4773,-3.6265,0.60833,1.7359,-13.2368,1.2719,6.6854,2.0978,5.3853,2.4028,6.7541,7.253,5.4037,
-10.0844,-21.3699,-6.0603,-3.0438,-1.9834,-14.6115,-1.9377,10.3818,2.2127,1.4466,3.9461,7.072,5.1303,-9.0205,
-10.2023,-20.3287,-1.5993,-2.1378,-4.9979,-13.4938,-0.13422,8.5536,6.1773,4.4932,4.4323,0.62167,7.956,-1.6104,
-9.1082,-19.1089,2.353,3.775,-4.698,-12.6842,4.6945,4.184,9.6635,8.08,2.2381,3.9588,10.8531,11.9841,
-14.828,-21.3366,4.1403,5.9589,-7.3084,-15.7793,6.8228,2.005,7.6377,3.7391,6.9243,13.8444,3.9352,3.0701,
-15.6258,-13.5487,-1.1696,4.8782,6.3867,-4.9508,2.3163,8.8744,3.0818,1.3453,9.1602,3.614,4.9041,1.1984,
-22.1598,-17.3153,-6.6432,-2.8865,-0.022299,-6.8232,-3.3665,5.6906,-0.71874,-0.90477,1.6209,-7.9313,9.6713,5.706,
-16.9741,-15.3123,-2.3885,6.4455,-5.8058,-11.2343,-0.27225,8.2414,5.5911,2.0418,1.5234,6.5241,7.1631,3.4357,
-10.8942,-8.8502,-7.3062,7.7462,4.9067,-0.19612,-3.3892,8.4701,2.6043,1.1962,1.6732,4.9276,-1.2207,2.9884,
-21.5687,-16.7548,-11.4476,-6.8186,-4.7873,2.4672,-3.4268,-2.4025,-6.4695,1.3658,2.2957,-8.1425,-4.2805,8.8351,
-22.4437,-15.9905,-7.1453,-1.4685,-10.0441,-4.1888,2.8044,4.2496,-0.055813,5.3812,2.399,-1.1465,-1.3725,9.5098,
-15.0716,-10.9337,-4.0655,3.6813,-1.9697,-8.9991,4.3233,10.5021,9.8295,2.8887,1.5321,4.9479,2.3248,-1.9071,
-4.5259,-7.8676,-1.411,2.4966,7.308,-5.5667,3.1001,4.0874,8.2758,1.7515,6.2609,6.0977,8.4523,-7.5772,
-3.0492,-8.1187,-5.4239,1.1412,8.5565,-3.5457,0.26273,-0.73734,0.30725,3.3335,3.7159,2.5981,7.7039,2.2777,
-11.7846,-13.1749,-4.3753,-3.5068,-1.839,-4.538,4.3441,3.4045,1.9758,4.8209,1.3235,1.7191,3.1446,13.9509,
-8.6671,-11.4203,-3.1487,0.56027,-7.0316,-9.0862,5.0475,2.2361,7.1601,2.6032,1.2443,4.5083,-1.3827,7.3295,
-1.6394,-6.638,-1.7547,3.6599,-3.9583,-13.1205,4.9859,-0.067441,6.9713,2.2058,7.195,9.2992,4.2437,0.86394,
-12.6283,-12.9882,-3.0957,-3.7905,-8.0592,-9.4408,2.7585,-0.063394,-1.1598,1.1096,2.425,3.921,2.5433,4.1866,
-11.6291,-10.0397,-2.1866,4.3911,-5.406,1.49,1.3877,6.9303,2.5252,5.1409,-3.7461,1.5166,-1.7067,7.0689,
-3.9422,-11.6067,-6.153,4.3684,-3.877,-5.5895,-3.275,4.3451,6.9532,2.663,0.093889,5.5232,-0.39968,0.13701,
-17.8057,-10.187,-10.3631,0.0089212,2.8635,-3.5669,-4.2834,-3.8694,3.403,-0.63026,1.2935,4.9508,6.1322,7.1187,
-30.8373,-2.1042,-8.0543,3.1416,8.7175,10.7471,-1.8574,-6.2885,-1.3807,-0.83364,-2.3993,-4.7465,3.5949,9.8248,
-43.0871,0.19148,-6.366,4.1587,2.6511,9.5001,-0.54047,-1.3317,3.2817,0.4219,-0.5683,-5.1848,-0.23597,-0.16492,
-54.6019,-2.2304,-6.4662,2.4627,-7.1497,-2.1574,-0.50828,3.0868,6.459,2.3246,0.91183,2.3569,4.5987,-0.63719,
-65.4258,-9.3272,-4.1496,-0.095228,-10.5766,-9.2583,0.48655,-1.4368,2.2151,0.73928,2.3038,-0.19419,6.2509,-1.0809,
-75.6002,-9.0087,-3.1779,-1.2946,-1.0242,-8.9442,1.18,-5.9301,4.7335,3.3458,7.2266,-2.3519,7.5629,-5.1136,
-85.1642,-14.7347,-6.3615,-11.34,-5.3013,-10.8179,0.62752,-7.9846,6.8594,1.2171,4.3831,-3.6573,9.5195,-5.2885,
-94.1544,-11.9224,-5.0157,-11.1418,-8.3574,-6.3125,3.4822,-3.6494,6.448,-3.1945,1.7098,-0.54557,6.5384,-1.115,
-102.6051,2.0488,-7.8485,1.3366,-1.8307,1.5378,0.62145,-6.0818,5.338,0.13043,-0.56222,1.6566,-1.3259,1.1208,
-110.5488,-2.6534,-4.726,0.05158,-13.049,-9.8822,1.3075,-13.6706,5.2587,4.7019,5.0151,0.8338,4.2972,0.33065,
-118.0159,-3.6992,1.1012,1.2538,-9.6145,-6.6381,3.3982,1.2496,4.7022,3.6969,7.8477,5.3635,11.5112,-0.41209,
-125.0349,7.1275,-4.2678,4.5523,5.0624,7.7397,-0.18035,9.0079,2.0097,-3.2736,1.1096,3.1133,1.1793,-4.244,
-131.6328,7.4233,-0.39583,2.1105,2.9509,0.28542,3.4464,-4.307,5.9865,-2.8362,4.6589,5.0961,1.3495,-4.2303,
-134.9421,5.773,-0.13111,2.7067,2.051,0.027324,3.4805,-2.8433,4.9044,-2.907,4.1384,4.5494,1.0276,-4.2175,
-127.3277,4.9445,-0.12347,3.5084,1.9277,0.025915,3.2715,-1.7086,4.6104,-2.2504,3.8899,4.7581,0.96618,-3.4822,
-120.4114,4.4066,0.12513,4.503,1.5708,0.2651,3.3164,0.080912,4.0926,-1.3927,3.8972,5.1958,1.1489,-3.0326,
-113.4277,3.9013,0.35859,5.92,1.7175,0.49016,3.3584,1.2814,3.606,-0.58582,3.9048,5.6069,1.321,-2.1273,
-107.5861,2.7031,0.33685,6.5289,1.1323,0.94291,3.639,2.6505,2.9075,-0.5509,3.6703,5.2707,1.2415,-1.9999,
-102.0951,1.5766,0.79903,7.1015,1.0644,0.88634,3.4207,3.9377,2.7331,0.44648,3.4501,5.9184,1.6494,-1.3979,
-95.7282,5.0974,-0.45421,8.8446,0.75954,1.0741,1.5282,2.0142,1.3638,-1.2675,0.11007,0.98396,-1.1007,2.3018,
-92.8768,-3.8849,-0.90866,2.0472,-10.855,-4.2927,-0.49144,-12.2066,3.6923,-2.1556,0.58563,-4.3775,-8.7476,3.6097,
-85.3762,-2.6879,2.0379,2.8882,-2.009,-3.0713,0.50192,-12.3176,4.917,3.2764,3.4425,-7.4893,-5.8126,-5.2839,
-86.0382,-4.455,3.3617,-2.1056,-6.7089,-9.6357,0.95396,-2.9017,4.1399,4.5258,3.7182,-3.6657,-5.9456,-8.8231,
-72.9219,-1.5362,5.3291,4.5287,-17.6346,-7.3703,3.0659,-0.55842,6.543,7.3878,-0.12035,5.4723,-10.1686,1.5883,
-57.7004,0.72514,4.7684,8.8367,-13.9249,0.061755,3.6053,-3.176,1.0888,4.2934,-1.3184,-2.8098,-10.7633,1.7339,
-52.5514,1.4048,6.1698,3.7266,-0.31521,3.6732,2.1835,-0.81651,-0.18164,2.3484,1.8939,-4.8106,-4.5741,1.8711,
-46.265,8.3099,-0.70835,5.1902,2.8367,3.6938,-1.081,0.9197,2.4804,3.8947,-4.7272,0.53973,-7.4332,4.4099,
-43.4889,7.3296,-3.5581,5.3609,-7.9381,-2.3122,3.3228,1.8291,1.3674,2.215,-2.5151,-4.3131,-9.3971,0.7711,
-42.0848,0.86404,1.2349,3.8342,-7.703,0.47789,6.7387,3.8883,0.080327,1.8409,4.143,-3.8136,2.9766,1.9299,
-37.6313,-1.116,1.6427,1.676,-6.2769,6.7157,2.4779,3.173,-1.8527,-0.6797,0.52046,2.2002,0.38792,6.1524,
-28.3838,8.351,-2.0708,7.119,-2.2849,9.4463,0.64204,2.7417,-5.8389,-3.7724,-6.0187,3.755,-10.9636,3.1322,
-26.4396,9.5371,-7.9721,8.3791,2.9139,7.1923,-2.5295,-2.0021,-7.6577,-2.3408,-10.7188,-2.0135,-8.6185,2.2214,
-30.6378,-2.1221,0.70069,4.0197,-1.5995,3.3865,2.4423,2.4561,0.99669,2.6202,-2.8451,0.035314,2.5037,10.283,
-21.3279,0.17416,2.3456,3.0554,6.4504,7.2804,4.4651,6.4063,0.2133,-5.0091,-4.3618,-4.5463,-6.0825,7.4966,
-8.4791,9.8049,-6.472,0.94414,18.1147,16.9667,-0.14132,1.201,-6.0658,-11.9391,-7.4743,-13.4328,-9.5741,4.1545,
-13.7549,3.9142,-7.0477,0.40533,8.8329,17.3952,-1.5789,3.0574,-6.184,-3.0279,-2.2054,-6.3596,4.4979,3.905,
-22.5706,-4.5156,-10.481,-2.9932,-3.7484,6.2279,-3.8945,5.2843,-5.8132,0.046099,-5.4473,-4.532,0.8538,-1.1497,
-19.5291,-5.4497,-9.611,-7.3931,-3.2823,0.31087,1.4006,-2.9867,-0.88442,-0.19786,-0.54094,-6.9114,-2.3307,6.3913,
-14.26,-4.8818,-7.3476,-5.7447,0.5296,-0.91262,2.5219,-8.8331,-2.5186,0.53737,-1.7138,-4.3276,2.3884,5.7664,
-7.3787,-1.4554,-2.327,-0.82028,5.0776,3.2395,2.6115,0.61497,-2.1265,4.6025,-1.8519,3.4039,4.4148,-1.0871,
-2.8388,-4.9837,-4.8387,-4.3867,2.1216,0.87573,1.7317,-3.0376,0.65196,3.1208,-1.0177,-2.3442,-2.8402,3.5577,
9.1421,1.823,-8.1635,1.4203,8.502,3.4745,1.869,-6.4705,2.7822,-0.68163,-1.6797,-9.6751,-0.018493,15.6365,
9.3165,5.3291,-8.879,2.058,7.7509,3.0251,2.4798,-0.53867,-1.964,0.082627,-2.3019,-5.9611,6.0082,9.1547,
11.6498,2.599,-8.3465,0.97043,5.3574,2.8433,1.8488,1.4216,-3.2922,8.2726,-1.682,4.5197,7.0942,6.195,
24.4481,1.9609,-8.8098,1.8763,9.8565,2.673,1.7381,-3.4842,0.27957,7.2941,-1.099,6.6584,4.7401,14.0183,
21.0533,-0.08475,-8.281,-1.1281,5.8909,0.58463,0.66973,-7.6132,0.26303,-3.2667,-0.06892,-2.4175,-1.8106,8.8391,
13.7643,3.5358,-7.5432,0.14441,4.8145,5.1288,-3.9497,-2.5771,-0.95805,-2.3478,-1.752,-6.3703,2.3954,7.1035,
8.3589,1.6364,-4.4395,-0.58715,-2.9462,-2.1688,-1.5436,-4.1097,-1.6239,2.8548,-1.4059,-1.4088,8.2772,10.7746,
8.8215,-1.3541,-4.6548,1.858,-3.2516,-8.7873,1.9232,-11.0938,-2.0087,-1.6551,-0.83941,-3.2522,3.442,4.3433,
17.9334,4.5117,-7.268,6.0853,11.0435,4.2734,0.84353,-6.5717,1.4863,-2.0377,-1.271,-7.8778,4.6818,1.6726,
16.3752,-2.0255,-4.9038,-2.4745,3.9937,2.5707,-1.1348,-4.2492,-1.9769,-1.9154,-2.641,-2.5844,7.2929,3.5004,
27.685,3.6394,-1.9582,5.6274,4.9591,4.1035,0.62027,-5.6817,-4.0276,1.8147,-1.2775,6.4885,4.686,4.0135,
32.2907,6.3134,-14.374,5.29,14.7847,8.6782,-7.13,-14.4996,-6.1963,-3.5966,-5.057,-5.4698,-1.3795,-1.0478,
28.6662,5.6938,-13.2703,2.3213,15.5851,12.7371,-6.461,-8.5682,-2.2089,-4.104,-3.0665,-10.203,5.2109,4.5589,
24.7769,4.6291,-8.8589,4.3514,5.2498,9.3215,-1.0119,-3.9565,-8.5841,-5.0628,-6.0158,-8.3858,6.1033,1.6341,
28.3517,9.4123,-6.6404,6.2593,3.7297,8.521,0.73586,-7.3348,-11.2027,-5.0002,-5.4141,-2.3392,4.5321,-7.3823,
32.9171,19.4529,-12.5085,2.0273,8.3262,12.83,-7.503,-8.341,-10.5306,-5.1821,-7.4994,-5.0914,-0.56056,-5.4931,
28.7731,25.758,-11.5166,-2.6736,1.8015,14.7118,-5.8475,-3.7427,-8.693,-5.1122,-5.8441,-9.3652,-4.1419,1.3445,
29.4569,31.925,-10.8258,-0.1033,2.6571,19.6134,-2.6044,-3.5184,-7.2078,-6.2515,-10.7959,-7.3573,-9.6782,-2.1109,
41.7895,44.1095,-16.684,9.7851,16.5976,32.5366,-7.51,-2.1022,-6.5341,-3.2251,-12.7995,-9.5672,-9.8206,-0.29724,
53.3821,55.5629,-8.9342,12.5722,19.5789,36.4897,-3.6847,3.8087,-7.1062,-1.1036,2.0685,-11.4035,1.8556,5.5054,
55.4816,56.5675,-5.9881,7.4795,15.9936,28.9977,-2.9817,1.652,-14.393,-12.6065,-2.9968,-6.8624,3.6725,-4.4659,
66.2527,67.2734,-2.7365,14.7438,25.6395,37.8629,2.982,2.9989,-8.2266,-10.4041,-7.1556,3.6724,3.4523,-6.1264,
73.2443,76.6141,-6.4289,20.6078,23.6189,32.6988,1.3566,0.89103,-7.2508,-6.8876,-6.2441,-5.7072,-2.0577,-4.3123,
78.2496,80.9351,-7.7302,23.4685,30.6377,36.7627,1.5164,7.8272,-3.6825,0.51578,-4.1824,-9.4623,2.6453,2.4542,
79.098,70.053,-8.4717,12.1784,31.4505,42.0287,3.5946,5.188,-2.2567,-2.6491,-5.6187,-8.1712,1.2813,-3.2372,
80.6189,61.0298,-6.9993,15.7863,35.8303,38.061,4.343,0.53859,-5.0136,-8.2745,-2.8712,-8.645,0.72272,-2.5608,
70.4793,52.5471,-8.5073,23.516,32.7163,27.5819,3.1183,1.4704,-9.0513,-8.7421,-1.7349,-12.9473,5.0179,3.3777,
56.6098,38.7896,-5.5865,23.5515,19.6664,19.1788,3.4134,5.7207,-4.6512,-5.8073,-1.1486,-11.6878,4.2347,3.1753,
47.6694,25.6158,-6.4568,18.0404,12.9425,9.5917,1.0392,-1.1303,-0.75738,-5.7,-6.1411,-3.9969,-3.0091,-4.4873,
33.2401,10.0998,-5.5868,13.1018,3.4891,1.3036,3.3872,-7.8111,2.6627,-1.9833,-4.8086,1.0634,-0.90009,-7.1103,
25.943,4.6731,-5.734,17.1364,-2.9867,2.6717,0.29143,-3.968,2.9849,-0.41853,2.7108,-3.3387,3.0098,-0.41721,
26.3146,-0.42779,-8.7642,13.6979,-5.6998,-1.3452,-5.0285,-2.2839,0.87785,-2.3214,5.4404,-4.5849,3.3114,2.9825,
26.423,-14.1409,-9.4436,2.9936,-14.2759,-12.1108,-4.0039,-6.7266,-2.7902,-0.49488,-1.8759,-0.21245,-0.020757,-3.2225,
24.5964,-16.9076,-9.6001,3.0552,-13.6605,-9.2147,-3.0405,-8.01,-0.93583,5.0782,-10.1992,-6.225,-4.1166,-3.2698,
14.9262,-19.2674,-2.275,6.2465,-17.179,-8.1797,0.51661,-6.0829,7.3153,3.3275,-2.8381,-8.7438,2.879,7.0495,
11.62,-27.2704,-5.9953,1.533,-23.3791,-14.9198,-2.8888,-8.6105,0.60983,-7.4775,-4.5965,-0.98834,1.742,2.2877,
25.0228,-17.1983,-8.7689,5.5386,-12.5766,-4.6243,-1.0285,-5.9244,-4.4882,0.44322,-4.5614,7.0245,1.3967,1.4278,
22.9188,-16.4073,-8.4837,2.0728,-17.3656,-7.4804,-3.6179,-12.5593,-8.3167,0.17566,-5.9754,-1.8327,3.4821,1.1007,
