"AF3","AF4","F3","F4","F7","F8","FC5","FC6","O1","O2","P7","P8","T7","T8",
158.3537,121.2361,-75.9229,-24.3436,200.7745,194.0255,-31.5745,11.3282,-32.5383,-11.3282,-29.1639,-261.5128,47,47,
158.0118,120.7106,-76.188,-20.9546,190.6559,185.2763,-28.7159,11.6126,-31.0682,-11.6126,-20.1834,-247.2683,45.1441,47.5542,
150.4593,114.9138,-73.5449,-19.6973,182.1091,174.6421,-28.9211,7.0595,-27.2759,-7.0595,-20.9006,-233.8782,55.9328,43.7371,
146.7341,108.5011,-66.7223,-22.3721,181.7876,168.5017,-25.7398,3.7436,-27.5678,-3.7436,-22.0569,-223.7021,64.1462,44.0052,
136.966,95.2424,-54.0421,-21.9938,163.6498,152.6072,-17.9287,4.0011,-21.0932,-4.0011,-15.913,-205.4593,58.369,44.7391,
130.1941,90.01,-55.1377,-14.8899,154.7949,147.7889,-18.7809,4.7252,-15.4891,-4.7252,-17.8505,-188.7934,51.0107,42.0545,
117.5617,85.0913,-60.5065,-22.1912,147.9173,145.1885,-24.8849,5.4055,-18.4161,-5.4055,-20.154,-184.2145,43.1294,40.9775,
102.3133,81.4321,-61.2145,-27.1262,133.7396,136.9591,-25.802,5.0812,-18.7574,-5.0812,-17.0165,-179.4284,38.6134,37.555,
102.2,81.6074,-53.4442,-18.5088,125.9562,129.9469,-19.6746,3.0891,-13.5342,-3.0891,-12.3801,-164.0831,45.2147,34.5783,
110.168,83.942,-61.807,-20.7729,132.4988,136.2501,-23.3146,0.011464,-16.0963,-0.011464,-18.8679,-154.7201,50.6967,34.914,
117.658,93.0055,-72.1985,-30.6138,138.6489,142.1751,-36.0157,0.010776,-28.1464,-0.010776,-31.8358,-159.5369,56.3316,45.3526,
124.6985,101.5252,-81.9666,-34.3203,144.43,147.7446,-29.6369,-0.23061,-29.109,0.23061,-36.7951,-164.0647,67.0517,53.4775,
131.3166,109.5337,-80.9048,-34.6712,149.8642,152.9799,-19.6635,-3.5912,-24.4699,3.5912,-29.7667,-159.5232,68.9341,50.7512,
137.5376,106.9383,-81.1124,-39.0987,154.9723,157.9011,-24.0276,-2.6526,-26.6169,2.6526,-32.0783,-146.3366,55.8798,53.7315,
128.9239,102.6912,-74.0765,-35.066,159.774,162.527,-22.8269,0.15763,-26.2252,-0.15763,-24.6099,-143.582,53.7323,55.0869,
121.912,102.5559,-66.4982,-28.3821,156.6955,147.2318,-22.1799,0.8713,-29.2312,-0.8713,-20.482,-135.2078,50.7495,46.2387,
106.1609,89.8944,-61.3032,-31.2591,133.1938,132.854,-19.6445,1.5422,-29.6467,-1.5422,-22.8687,-118.6599,41.1964,38.8844,
91.1142,76.788,-53.2867,-25.5272,115.4402,125.8471,-15.5733,5.306,-21.119,-5.306,-21.0147,-102.3813,38.2427,38.9615,
79.3808,69.7706,-47.197,-19.6568,101.7654,109.6192,-18.9773,3.5414,-18.8875,-3.5414,-21.6815,-96.2384,32.5741,33.7318,
72.2078,62.2099,-39.5449,-17.9954,97.5876,93.883,-13.5003,-4.3839,-17.7547,4.3839,-13.6322,-87.572,21.4606,30.2616,
73.9009,63.057,-45.6079,-12.8179,105.8324,97.6505,-10.0387,-2.4336,-17.4124,2.4336,-9.6808,-83.5225,29.0911,33.0256,
60.0669,52.7657,-44.0767,-13.7365,85.3824,83.3553,-8.714,4.7023,-13.7165,-4.7023,-14.6436,-81.6447,41.4456,27.4287,
49.473,43.5742,-37.3348,-15.0815,66.1595,69.9179,-9.8779,3.6968,-15.0627,-3.6968,-20.2724,-76.505,31.6073,20.7213,
60.0024,53.0113,-40.8788,-12.2479,76.2899,79.8228,-10.2495,-0.38141,-17.051,0.38141,-12.7896,-77.6988,18.6236,21.4062,
52.0637,43.5639,-32.1598,-10.5494,78.7022,74.431,-3.8498,-0.35829,-8.7973,0.35829,1.4754,-72.0733,17.9884,22.5322,
40.9862,27.2112,-29.5068,-12.5675,59.88,55.8652,-5.7879,0.86804,-7.0642,-0.86804,-6.0849,-59.7947,19.5602,20.4569,
46.2395,27.507,-33.0393,-16.634,62.4333,49.5002,-4.959,0.33425,-8.5688,-0.33425,-9.0945,-54.761,23.689,16.3372,
39.8502,25.1337,-27.4411,-17.3232,54.108,48.6999,-2.4918,-2.8193,-6.8493,2.8193,-1.0766,-49.3061,26.3655,17.0446,
26.1308,13.7435,-27.0001,-16.0426,36.7615,31.6779,-6.9218,-3.3733,-6.1972,3.3733,-3.6638,-42.7326,22.6141,14.8164,
23.1169,9.0623,-26.8262,-15.5622,33.4712,20.4979,-6.5067,3.0959,-6.7894,-3.0959,-6.3358,-40.1684,20.7756,1.8766,
35.4682,22.2569,-28.832,-11.013,45.563,33.368,-4.911,3.633,-11.4438,-3.633,-7.1609,-36.553,18.8057,2.9688,
25.8685,18.7525,-25.4146,-11.5573,28.7292,31.7274,-2.9289,-5.5028,-8.1058,5.5028,-6.0081,-31.2266,11.652,16.8907,
10.2164,3.5274,-14.0083,-12.5511,12.9054,15.7238,-3.4765,-4.9317,-0.14766,4.9317,-6.371,-25.738,10.7115,6.1153,
6.1083,-3.5534,-14.1316,-2.1571,5.2617,0.68033,-3.7499,2.1131,-3.0313,-2.1131,-7.9169,-22.2651,19.7098,-5.8203,
13.2133,4.1313,-15.4531,-1.3045,7.1154,1.8446,1.0542,1.2632,-5.9827,-1.2632,-2.3805,-21.6523,10.5737,-1.8559,
6.154,-0.93725,-14.526,-5.0826,-6.8089,-8.8714,-0.45488,-0.74076,-4.6594,0.74076,-2.7196,-21.3175,-4.1608,-3.6727,
4.0978,-7.8707,-8.1106,-1.6444,-4.7133,-8.5803,-0.18685,0.50875,-2.2109,-0.50875,0.094918,-15.9409,-1.1395,-1.7653,
-1.6919,-16.3163,1.2939,1.5875,-9.0101,-13.1269,4.8858,-0.72684,1.5369,0.72684,8.5251,-3.1741,13.0288,3.8844,
-11.4726,-17.9886,0.011221,-1.641,-19.7974,-25.1135,2.4237,-3.3346,-0.24228,3.3346,1.9878,-2.7429,10.6806,-0.44623,
-19.9432,-16.4274,6.759,-2.5069,-25.3585,-25.053,3.2422,-5.0627,2.1824,5.0627,1.3866,-4.0246,1.3627,-3.312,
-15.1312,-12.3082,2.738,1.7409,-17.8114,-14.1498,1.3604,-2.5898,3.7387,2.5898,2.0263,-4.0241,0.07561,-0.94364,
-6.5101,-8.6772,-8.513,-3.1838,-13.8502,-11.8546,-4.9877,1.422,-3.716,-1.422,-5.8076,-12.4592,-1.8567,0.077304,
-9.012,-10.0848,-3.6639,-5.4029,-19.2857,-15.4816,-4.2061,0.85477,-6.8675,-0.85477,-1.1208,-7.3734,-9.458,-0.40973,
-5.8198,-5.8647,-4.6494,0.46488,-11.1392,-11.9016,-3.2308,-0.40181,-4.2863,0.40181,4.972,0.058902,-11.5421,-3.0362,
-6.9171,-9.369,-7.7446,-3.4196,-15.2913,-20.3463,-2.0729,0.58639,-4.9932,-0.58639,1.2995,-1.8731,-13.2599,-10.5671,
-14.4556,-15.3146,-3.6643,-7.3116,-25.2199,-27.5615,-1.7073,-0.65386,-4.4524,0.65386,-1.4298,0.89065,-10.7769,-12.1024,
-22.9887,-17.0472,-1.7577,-5.1861,-36.4811,-29.0413,1.0462,-0.85559,1.3579,0.85559,0.34319,5.8989,-1.2127,-10.171,
-26.9115,-22.2909,-1.1698,-3.4287,-47.7896,-39.3499,2.9117,1.6059,0.79445,-1.6059,-2.5699,8.9194,-1.1399,-17.2735,
-14.2101,-15.1689,-9.7767,-4.1873,-30.8222,-31.2048,-6.904,1.5095,-8.4122,-1.5095,-9.6466,6.938,-9.7486,-16.7195,
-11.9112,-13.7768,-3.8875,-3.4537,-26.2011,-24.0298,-3.5977,0.45508,-0.19474,-0.45508,0.5732,4.1111,-9.1637,-3.1828,
-16.258,-16.5654,4.2997,5.6714,-37.8856,-30.5415,3.1259,3.0791,1.9863,-3.0791,4.1545,0.73166,-7.4083,1.1057,
-12.6312,-11.9558,-6.8043,6.0542,-30.0687,-34.7348,-3.087,4.5814,-12.2328,-4.5814,-5.4946,-4.3737,-14.9178,-10.771,
-24.8885,-20.3977,-3.9861,-2.9859,-37.4233,-41.3276,-1.9377,5.2706,-14.0293,-5.2706,2.0657,2.155,-13.5406,-24.2247,
-33.0364,-25.4406,6.8581,2.0138,-47.7117,-35.4737,2.5167,5.9184,0.9125,-5.9184,6.7618,14.077,-8.872,-19.2765,
-32.5005,-27.2882,16.0876,12.0163,-52.0793,-37.2017,6.7044,3.6351,4.1113,-3.6351,3.464,18.5351,-15.5701,-7.9966,
-33.4425,-30.9535,17.0505,11.2949,-48.4726,-49.0696,7.266,2.9351,-0.47373,-2.9351,3.7381,16.4586,-14.6363,-13.7833,
-29.0258,-22.3479,6.3865,4.8326,-32.0669,-40.7021,2.4918,5.1691,-5.748,-5.1691,3.0319,9.2046,-11.8295,-18.7409,
-26.0792,-20.2839,11.0648,5.2658,-35.6868,-29.8245,4.5112,5.5821,-5.1623,-5.5821,5.9832,9.3755,-22.4481,-14.4832,
-22.1041,-26.2975,14.7394,12.6628,-45.5969,-42.135,5.2046,4.2831,0.93221,-4.2831,2.25,14.5973,-23.0297,-13.1325,
-20.5367,-24.9608,8.3117,7.8055,-42.1375,-47.4399,2.2415,2.821,2.5637,-2.821,-3.4284,15.8913,-13.6935,-14.5135,
-16.6536,-14.5453,2.7511,0.82942,-38.4046,-30.4935,0.41953,2.4106,-2.652,-2.4106,-1.5357,11.3222,-14.0774,-12.4376,
-12.039,-11.021,2.3451,2.4669,-39.7158,-14.5639,2.0816,3.9532,-0.80566,-3.9532,0.72563,8.9556,-13.9561,-9.5222,
-25.4166,-24.4598,11.8455,5.2112,-48.4198,-27.7901,7.2591,2.2699,8.8839,-2.2699,3.0924,20.9515,-9.744,-14.2533,
-30.7608,-27.4512,7.0372,6.1036,-36.1144,-40.2227,0.31585,-0.035647,3.7713,0.035647,2.1838,26.6841,-14.7032,-15.0855,
-26.2638,-26.0454,-1.339,-1.2523,-39.0094,-28.6508,-5.2465,2.1359,-4.4089,-2.1359,3.7397,16.6471,-23.2208,-11.5291,
-32.4008,-33.6412,4.5264,-5.0336,-50.7689,-34.644,2.2991,2.4897,-1.2519,-2.4897,3.0334,11.7919,-21.8276,-12.7655,
-29.975,-30.6591,3.2903,0.088946,-36.515,-38.8326,2.161,-0.55201,-0.69505,0.55201,-4.3797,13.0124,-11.841,-13.4456,
-37.3351,-33.6398,0.68272,0.083609,-36.2523,-35.5383,-3.2713,-0.036954,-0.17095,0.036954,-3.1525,17.5343,-9.6843,-16.0133,
-46.6641,-33.5496,-1.286,-2.3315,-43.7177,-25.6928,-6.4491,1.4115,-0.64263,-1.4115,-3.4453,20.3391,-15.8517,-16.0164,
-39.7669,-25.993,0.95988,-0.022482,-33.6233,-25.8389,-2.4471,-2.2886,0.60076,2.2886,-6.3721,19.8416,-11.2856,-4.2096,
-38.5858,-33.8334,3.5538,2.63,-35.7032,-38.3886,2.7618,-2.8742,5.6264,2.8742,-2.3739,23.2309,-4.1006,0.62271,
-42.2966,-38.3114,0.68906,-0.66132,-42.961,-45.1236,-1.0198,1.3956,5.5298,-1.3956,1.8654,20.1493,-9.3986,-9.297,
-40.241,-35.0481,5.4687,-3.5135,-54.4834,-43.3802,-1.4403,0.82973,6.1621,-0.82973,5.6101,17.0124,-17.5111,-17.898,
-42.8877,-38.0069,8.2736,-3.0617,-62.4221,-49.6955,-1.1129,1.5033,5.5514,-1.5033,5.5145,19.6071,-19.112,-17.547,
-45.6171,-41.0292,10.1873,-2.878,-67.3539,-55.8728,-1.0461,2.377,5.2183,-2.377,5.6656,22.287,-20.3754,-17.4585,
-48.6644,-43.3879,12.4688,-2.2232,-71.989,-61.6792,-0.98313,3.1985,4.9054,-3.1985,5.3258,24.3245,-21.5628,-17.3747,
-50.8063,-45.8463,14.3718,-1.8488,-76.5878,-66.8961,-0.68318,4.2118,4.8521,-4.2118,5.7292,26.9624,-22.4386,-17.0556,
-52.8196,-48.1572,16.6429,-1.4969,-80.4286,-71.8004,-0.40122,4.682,4.3195,-4.682,5.6264,28.9596,-23.7434,-16.7551,
-55.194,-50.329,18.2955,-1.1661,-84.521,-76.4104,-0.61857,5.6064,3.8194,-5.6064,6.0122,31.3194,-24.4884,-17.4375,
-52.8462,-46.8273,21.0541,6.6166,-79.4493,-79.5386,5.2036,2.3775,5.5184,-2.3775,4.2052,35.7072,-28.3213,-23.6216,
-52.0858,-48.8382,21.7193,13.4502,-79.0209,-77.1766,9.2299,-2.1032,7.1157,3.0676,7.8095,42.2416,-27.1042,-30.3993,
-47.9968,-46.3903,13.6672,11.6789,-73.3157,-62.4231,-0.48337,2.8432,1.3857,-0.97287,3.966,37.7789,-33.6731,-24.7189,
-45.5989,-41.1963,18.6318,9.5324,-69.3987,-55.3033,5.8126,14.7242,3.7131,-0.9145,4.2105,36.9585,-34.5448,-11.6666,
-48.8885,-40.8936,24.5037,14.0221,-63.5476,-59.4569,12.4537,10.2253,8.0701,-0.61866,7.0913,41.2484,-32.7131,-14.0997,
-42.3398,-36.7528,15.5617,18.242,-49.8528,-51.3097,6.1629,-1.7169,9.755,0.14182,10.2813,42.3889,-29.063,-16.3872,
-33.7739,-32.3785,13.4227,14.9783,-43.2462,-50.4008,6.9979,1.5196,10.3746,0.85621,8.941,42.0148,-30.4527,-17.0912,
-17.6474,-16.3358,15.7508,19.6232,-26.5514,-38.4587,13.5679,15.5284,10.9574,6.3485,7.6817,44.5556,-34.1692,-9.5582,
-16.2269,-13.0657,22.2776,20.1331,-20.7403,-26.7511,14.923,15.9227,17.2898,11.9931,15.6569,46.462,-38.1446,2.8259,
-26.8225,-26.3818,26.2436,16.5149,-33.5959,-30.4483,12.0995,10.6286,19.145,11.2735,18.0919,50.4227,-35.8559,6.0308,
-19.429,-18.4121,12.1355,13.1135,-25.6753,-26.2117,10.4092,10.4728,9.3192,5.2944,6.8831,40.1665,-28.4019,-1.5624,
-18.9859,-17.0662,10.2023,7.7476,-21.4834,-29.7004,13.8822,9.6037,8.0369,1.3616,4.7826,31.2488,-23.0826,-8.9402,
-27.2472,-23.514,13.2056,4.6312,-31.5226,-32.4977,7.5056,2.0376,7.7956,3.4491,4.2547,37.81,-23.8668,-9.1267,
-30.6736,-26.6825,3.4952,-1.1903,-33.2467,-35.6095,-3.7905,-8.449,-1.1082,0.59102,1.8302,34.3361,-16.4093,-7.8562,
-27.3872,-26.0456,2.3214,-2.5649,-34.1442,-43.1137,-2.117,-4.5673,-3.4516,-2.8191,2.6845,26.0092,-14.4606,-8.3489,
-11.6439,-10.3829,16.2821,11.689,-25.5876,-26.4269,12.11,9.8067,10.8555,11.45,9.9953,38.5487,-27.693,3.9621,
-16.3684,-8.4346,21.9336,13.2773,-32.9706,-25.4441,15.6012,14.4,11.0475,14.017,8.1905,47.6844,-40.1314,-4.2291,
-12.494,-0.69745,18.2072,19.7113,-20.3873,-25.8454,14.6649,14.5001,12.3126,10.7656,15.894,51.0901,-51.8235,-2.5293,
-12.9492,-4.7534,16.8738,17.8057,-27.5998,-27.9101,10.652,14.8354,13.2611,7.4686,17.5914,45.8555,-62.8141,-0.69034,
-15.3058,-13.8678,20.4407,14.0863,-34.3794,-25.9946,12.664,8.884,9.3324,10.6359,12.9205,46.2377,-73.1453,-0.40795,
-11.2542,-7.4923,16.081,14.4461,-18.2167,-15.999,12.1453,5.2173,3.711,11.6847,5.1557,42.2584,-80.9281,-0.14228,
-17.0866,-3.9095,22.5877,17.1946,-18.6907,-18.1723,11.6578,14.3045,9.9961,9.2967,9.9078,38.9997,-74.8674,1.5533,
-19.4354,-6.0851,23.1611,19.5373,-31.5485,-21.9022,11.9222,15.8563,8.432,5.3644,11.242,37.6236,-64.1088,2.9063,
-15.1363,-5.479,20.0837,18.1241,-15.5556,-20.3476,14.8223,6.9508,6.2388,5.2835,9.8436,32.2327,-46.1623,2.0086,
-16.6384,-0.81217,18.8789,14.6263,-6.3071,-20.5728,12.9689,3.1595,12.1312,5.9306,10.6995,29.3346,-37.9694,-1.9685,
-3.5888,11.2883,15.8182,13.2666,-1.5901,-13.0716,7.8522,5.3803,10.4393,6.0569,11.0216,28.0567,-43.8862,0.077987,
-1.2046,3.6209,17.52,7.8911,-3.1821,-22.1695,11.9606,5.2987,2.3409,3.0422,13.0116,24.2039,-46.3145,0.3145,
-8.8451,-1.4166,15.5049,9.3458,-3.9551,-20.3574,13.1711,5.9446,-0.69164,2.8596,7.8926,21.7878,-36.3048,-2.115,
-8.0732,6.14,15.2978,9.9906,-7.333,-11.6639,12.6221,2.9366,2.4831,2.4469,2.8396,22.1676,-22.7985,-6.0852,
-11.204,-2.6643,17.5132,4.3292,-14.847,-25.0641,13.0698,-1.3367,4.9855,1.095,7.7306,29.7558,-18.7793,-11.7458,
-11.0137,-7.3247,9.2315,7.9263,-11.546,-28.019,6.501,3.5637,3.7225,4.8857,8.7131,30.8625,-15.2419,-8.1486,
-13.7275,-3.0291,6.7497,9.3787,-10.3711,-20.5536,6.5931,8.6528,3.9808,5.5566,7.2262,23.2264,-9.5069,-4.7674,
-11.4574,1.4912,12.611,9.2982,1.3382,-24.6228,8.1255,6.2052,5.6704,3.7772,3.4179,25.2071,3.5967,-7.3736,
-9.0829,1.643,8.7211,10.4273,1.4991,-22.4223,4.0228,1.7353,4.607,4.2737,1.5258,31.1662,9.8886,-4.2799,
-20.1073,-8.0968,6.7518,7.3913,-12.6909,-22.523,7.1556,0.18515,2.4027,3.5351,6.2548,28.8145,3.5105,-3.059,
-22.2751,-12.9134,4.4187,6.4661,-15.6651,-25.9921,8.1723,1.1381,-0.6338,1.877,2.0233,24.1934,12.9411,-5.7677,
-30.8206,-25.8769,-3.8006,-2.8399,-19.7869,-38.5325,-4.6101,-10.2583,-8.55,-6.6718,-10.8725,15.7519,24.9391,-8.5552,
-26.3202,-24.5657,-8.6343,-5.803,-19.323,-32.7259,-8.9132,-13.7402,-9.2423,-8.9226,-9.4973,15.0477,26.0938,-6.3546,
-13.8948,-8.9918,-13.1774,-6.6597,-4.0636,-16.6623,-8.1375,-6.4078,-9.4106,-7.6643,-3.3838,12.9396,23.8053,-5.2504,
-27.1611,-11.4651,-7.3256,-10.8399,-12.6172,-22.5322,-7.4082,-8.6749,-12.4614,-11.3018,-8.7244,8.5478,30.3307,-11.4429,
-14.8056,-16.8025,-3.2704,-3.1994,-25.9601,-26.2413,-2.3838,-8.8776,-10.0263,-10.3825,-12.2981,9.2404,42.6109,-10.9975,
0.18271,-18.6869,-1.146,-1.5611,-19.7023,-22.2567,-1.2769,-3.5242,-5.5683,-9.2776,-3.3655,11.5785,41.139,-10.8196,
14.2717,-12.2632,5.1895,-0.50383,-8.8794,-21.8854,-1.6824,1.5077,-5.7164,-7.7569,2.1389,20.5246,40.1167,-11.1345,
24.9844,-4.5376,-3.558,-3.1247,0.57141,-16.4749,-4.715,-0.75188,-14.7734,-11.3888,-12.0895,13.2671,36.9864,-6.3691,
19.6289,-12.9424,-0.9339,-10.1681,-13.5629,-19.8247,-1.0576,-3.1174,-11.9588,-13.1156,-13.4125,11.5072,26.5725,-3.0944,
20.8615,-15.0577,8.7629,-3.7732,-22.7515,-21.0456,1.8981,-1.9658,-4.9745,-9.9188,-3.9309,23.35,29.3167,-5.8011,
28.2872,-8.3699,9.6836,3.2019,-10.299,-20.7469,4.1946,-1.3656,-2.7476,-7.8771,2.5717,27.7338,41.0553,-7.8634,
31.169,-10.0371,6.4512,-0.12392,-13.7786,-22.6354,1.7735,-2.4892,-3.3064,-10.0558,3.1401,27.7568,30.156,-5.2222,
25.9246,-9.4346,2.6895,-0.59865,-21.6292,-17.903,0.22109,-3.7859,-6.9641,-11.8628,-4.279,24.6454,18.2231,-2.9809,
12.7998,-13.689,7.3486,0.88376,-28.5264,-27.4344,6.4746,-3.077,-7.0284,-10.187,-4.9863,25.5765,23.8784,-9.5507,
15.4065,-13.3498,11.2462,6.6155,-26.3322,-28.1982,3.1938,2.4104,-3.2321,-7.6473,-1.3125,35.6118,27.7485,-6.0854,
14.9638,-14.4773,9.6074,2.8439,-32.4653,-18.3114,-2.7826,1.7837,-2.0745,-11.5275,-1.7163,33.4749,16.9244,1.0284,
5.3891,-17.4648,7.5849,2.1911,-31.4815,-15.7667,1.2409,3.6051,-0.98593,-8.4255,4.6534,31.4661,14.9453,-0.4793,
2.1735,-14.0066,0.86306,5.9163,-21.8796,-19.6412,0.20239,0.9784,-4.7829,-6.9554,3.8925,31.0247,22.2435,-4.7891,
-0.12634,-17.7457,12.1392,10.6227,-34.6668,-24.0061,6.698,1.6428,0.083559,-6.7793,4.864,36.1528,21.6316,-3.2967,
-1.3234,-17.886,13.5807,12.1548,-35.841,-16.058,4.6091,4.1956,0.80168,-7.5776,0.95697,37.5993,9.97,-5.7497,
0.20184,-11.9926,6.0165,9.9792,-19.5905,-7.8641,0.47569,2.9795,-1.1751,-4.7128,2.3454,33.8966,4.5506,-9.7435,
-4.3896,-17.2986,15.056,11.5496,-22.6327,-21.4923,7.437,2.5598,4.4395,-0.81462,11.6046,38.3708,11.7499,-11.3281,
-6.5363,-18.1889,13.6707,10.8567,-31.88,-24.1794,7.4732,3.3705,4.1731,-1.7296,8.0163,41.8531,16.3475,-5.8277,
-5.6624,-9.3845,13.3322,12.6156,-32.3776,-8.6286,7.5065,7.0244,5.3688,1.7484,8.9813,44.6443,9.0999,-0.17561,
-6.7689,-8.3395,6.2653,11.8587,-27.0609,-9.1957,2.2354,5.1567,-1.2203,-0.28517,4.1037,38.1093,-5.5461,-12.6986,
-1.0602,-7.8391,2.0334,8.737,-24.473,-12.5004,4.0299,4.8473,-3.0753,1.6606,5.7861,43.0536,-1.2367,-9.5265,
-3.1657,-11.4662,12.2753,8.4538,-30.9583,-13.4376,12.2238,4.3155,2.6528,4.2121,13.3927,54.5704,12.9375,2.8552,
-5.6269,-8.609,14.6722,11.562,-26.9317,-12.8723,5.9468,3.3337,3.699,2.2721,10.42,53.1041,11.0772,3.4072,
-10.3507,-7.8513,12.1049,12.0733,-31.3411,-20.5354,3.421,9.1594,5.6464,3.3413,11.4818,49.1947,2.4586,-0.89431,
-9.248,-10.7549,11.3784,10.3848,-37.1736,-21.7141,7.0719,12.466,7.7175,3.1406,11.757,55.4018,7.1311,-0.84088,
-5.3189,-10.1094,14.5523,10.2439,-35.4254,-12.6982,7.1298,10.272,8.701,1.9881,10.5694,59.7907,11.5242,0.17367,
-15.6048,-17.2158,18.4996,10.111,-42.4586,-23.9877,7.6661,6.281,7.2148,-0.059646,12.8275,58.6132,3.6016,-4.1753,
-12.2581,-15.7007,12.5692,11.4327,-33.6444,-26.887,8.1702,5.9044,7.2641,0.4261,10.6118,57.9891,-0.47062,0.41376,
-12.0044,-17.169,14.7073,8.8188,-32.5898,-20.9352,8.6441,5.5504,11.6487,0.88269,10.4573,59.3303,2.9318,6.6557,
-18.7559,-20.7182,20.3324,14.3152,-40.9988,-21.3663,9.8127,10.761,15.0471,5.409,15.8554,63.2423,6.3714,1.1947,
-22.4513,-20.9213,12.364,14.9026,-38.0564,-28.761,8.2601,10.5972,13.1805,6.5307,14.4221,58.4838,6.9534,-11.8924,
-29.0579,-24.7277,17.6477,9.4287,-42.281,-35.4714,7.523,1.5253,16.005,7.8261,14.7621,58.5898,8.2234,-12.8661,
-27.5556,-21.0747,17.7939,14.4068,-35.6465,-27.3174,3.9384,-1.2176,12.8754,8.5616,14.1171,58.2077,4.5963,-2.212,
-29.5175,-21.4977,10.7005,16.1932,-35.6771,-28.3297,6.8353,3.435,7.0409,4.9147,13.5113,54.4745,-6.5255,-9.0689,
-31.1214,-21.1717,17.2893,16.6679,-42.6955,-31.4506,11.2455,9.9778,9.511,6.548,14.1464,57.9544,-11.9186,-17.6843,
-28.0486,-13.3936,17.457,14.9447,-35.5543,-21.6096,4.5454,9.6199,6.7709,10.2522,8.2362,55.2003,-7.1063,-10.115,
-36.2478,-23.9185,10.8662,7.5403,-46.1953,-32.6053,4.5139,2.053,1.7852,6.0219,4.6087,49.237,-6.4387,-9.2674,
-29.9756,-25.6164,8.0446,9.739,-40.2905,-36.6745,6.4122,2.1708,-1.4554,1.0808,2.645,55.2008,-10.6317,-7.988,
-16.8489,-12.7517,9.7311,12.2881,-23.7731,-22.6639,2.894,6.6203,-8.3575,2.2213,3.6916,56.95,-10.7172,1.8908,
-19.935,-11.263,5.532,9.3819,-23.9134,-21.5453,1.0334,1.6436,-9.5435,0.40101,5.1571,48.4715,-9.8329,-0.87349,
-25.97,-13.9619,6.6466,11.7113,-36.4577,-31.8215,4.8275,0.098936,-2.2218,-2.0334,1.9554,47.4917,-8.7608,-7.5698,
-33.8116,-19.1495,20.3478,16.552,-44.6343,-43.6508,12.9738,8.5289,5.3831,0.73992,4.9713,57.8983,-11.3684,-10.2488,
-32.0239,-19.6877,17.5602,15.8003,-31.11,-35.0057,12.4368,10.6683,2.891,2.3827,5.8783,56.1121,-11.8916,-13.2493,
-33.2357,-23.5679,10.4808,7.3802,-30.4489,-27.362,11.9313,3.0385,-0.41575,-4.7499,2.8743,45.2733,-9.973,-7.3929,
-40.1598,-26.2514,19.2522,8.6244,-42.722,-37.0487,9.5284,-0.27704,-2.0778,-9.0444,3.425,46.6545,-12.9898,0.52224,
-31.7245,-14.3122,15.9277,17.5072,-31.3609,-27.8357,3.4129,2.8728,-4.1225,-3.4403,5.8708,47.4704,-14.8618,-1.1961,
-26.2058,-13.6947,19.0691,19.1076,-23.9363,-23.5147,11.644,5.3513,4.5603,2.3095,10.58,50.1656,-10.8368,-5.7038,
-31.1409,-19.8624,23.951,17.7207,-31.4177,-35.3597,15.5251,4.3078,6.9387,0.0022557,4.884,58.9662,-6.5712,-8.977,
-31.2007,-18.6712,18.6571,16.657,-35.3172,-34.6848,11.2187,3.5669,2.6655,-0.48027,6.0367,54.9459,-7.6232,-6.5102,
-26.9185,-18.5148,19.4663,14.2117,-31.27,-28.265,11.5099,7.2093,6.362,1.4767,15.7974,51.1672,-9.5759,-4.1914,
-21.9287,-14.0296,15.888,11.913,-23.609,-22.7129,8.4094,6.777,6.9443,1.3884,10.0296,55.8102,-8.5192,-4.4221,
-22.3005,-13.4286,20.4785,12.8852,-29.1821,-22.0728,11.52,7.0935,10.1433,4.4383,14.9712,61.3794,-7.7673,-4.8794,
-19.5164,-14.5513,26.4804,17.8965,-23.0931,-24.1231,15.6493,9.0778,10.9808,6.1,18.8934,58.6607,-9.2292,-9.4076,
-17.1401,-14.4011,21.7581,13.6896,-18.574,-32.5577,14.4694,2.9895,4.7783,3.5648,4.0215,53.9358,-6.5063,-11.4942,
-24.0657,-21.491,25.0322,10.2165,-31.5596,-39.5225,15.2882,-2.2513,3.7685,0.21722,-1.7637,60.0994,-6.8391,-8.1537,
-17.8013,-14.8992,22.5661,17.3165,-28.8224,-23.0512,12.443,3.6686,7.8809,0.68681,7.5014,61.3144,-13.6593,-0.91537,
-16.7332,-14.9691,20.7302,14.3493,-19.3803,-25.6445,11.2145,4.8943,11.7464,2.0914,16.6923,51.8509,-13.3222,-0.37851,
-23.2008,-22.5068,27.4399,10.837,-27.1357,-38.2058,13.1925,2.9136,10.3185,2.689,11.5932,48.9806,-4.5689,-2.0428,
-25.1834,-17.3003,31.5783,14.5254,-25.9893,-31.6959,16.2575,8.5231,10.1815,2.5279,6.559,52.7905,-5.7408,-0.4742,
-31.1437,-17.949,32.3352,19.6798,-32.8656,-20.8761,20.3437,15.966,17.0424,2.6172,17.0118,57.5772,-17.6884,-6.4713,
-31.4445,-24.3441,23.8874,21.6323,-36.9195,-30.9515,13.5797,11.8747,16.743,1.7371,13.3402,54.8457,-21.6885,-10.6625,
-31.9682,-24.8119,22.9358,14.0676,-33.7402,-35.8435,8.4259,2.9673,13.81,3.5613,6.2726,53.483,-16.5311,-3.2741,
-37.5221,-20.1895,19.8727,7.1978,-28.1006,-25.7389,6.7153,-1.3083,10.8125,3.5883,7.5837,51.479,-19.1548,-0.90827,
-34.3063,-15.1219,19.6444,13.0327,-18.7016,-15.0353,7.7589,2.6268,11.6098,3.8552,11.9491,46.4623,-13.1851,-1.8179,
-34.4173,-22.1681,29.7942,15.8664,-31.318,-27.8718,11.3909,6.0844,12.1182,2.4188,12.9192,46.8079,-13.599,-8.6984,
-31.3881,-21.8021,27.5244,14.9141,-36.1876,-31.5023,11.6711,6.6834,11.8733,1.7915,11.6619,43.9996,-20.4956,-8.6587,
-40.5918,-30.1352,22.4982,9.6808,-42.2113,-39.7351,12.4169,2.4263,12.125,0.71993,9.9981,39.4312,-18.7842,-6.6931,
-42.7361,-36.2808,26.21,10.3052,-47.1504,-44.8228,10.949,1.5573,10.1922,1.882,8.6753,45.9834,-15.4875,-9.425,
-29.3259,-23.258,21.9861,12.8201,-36.3677,-30.8052,8.1226,1.2231,7.4118,3.938,8.8779,45.8757,-17.692,-10.0646,
-33.3509,-23.7907,17.7749,7.7126,-38.5239,-34.7415,4.2613,-3.189,9.3772,1.2916,10.2734,40.2307,-23.3789,-11.3889,
-29.4214,-20.9172,17.1905,8.214,-31.3918,-26.8722,2.5596,3.2691,7.8504,2.1782,7.729,42.6373,-26.3147,-6.849,
-23.5588,-14.1186,17.8459,10.3722,-24.447,-12.0039,9.8774,9.0985,5.2103,4.2167,9.434,44.6584,-20.6385,-5.7151,
-32.2686,-17.6098,20.6315,10.2318,-26.8366,-18.5143,8.8028,3.2499,5.3796,3.4818,8.868,41.9789,-8.313,-11.1568,
-36.599,-19.9276,14.5729,9.6179,-30.0471,-26.5625,-0.88442,-2.2477,5.0568,3.2729,3.0332,34.1575,-6.8503,-9.0416,
-48.5031,-31.0245,16.832,3.9791,-42.3443,-39.0687,1.8202,-4.764,6.9226,0.90732,5.0209,30.4213,-15.3569,-10.6678,
-51.4977,-32.0551,18.7146,3.7409,-43.7803,-34.9167,6.0493,-1.1037,5.5433,1.8167,3.7553,33.4167,-9.1328,-10.5097,
-37.3206,-19.0445,14.2173,7.3728,-27.0535,-18.7217,2.7943,5.2295,3.7645,3.154,2.0842,36.2319,-1.354,-0.23812,
-34.5997,-17.9021,12.4001,8.3765,-24.1047,-18.2012,0.69821,6.3613,4.5027,2.0007,10.6355,35.5041,-9.4682,0.73981,
-35.657,-20.4432,14.3075,7.1507,-16.1507,-27.473,2.3433,0.91866,5.9195,0.19363,15.0593,28.3124,-8.177,-7.2581,
-39.5431,-27.6527,19.4746,4.0701,-24.5817,-32.8145,3.408,-5.1625,7.2516,-1.5052,13.4324,24.9264,-4.5529,-14.2944,
-39.3397,-29.6087,9.3885,5.5136,-28.1682,-29.1582,-3.304,-5.0937,4.6473,0.75426,7.5652,29.9388,-5.4845,-13.1958,
-35.2923,-23.7349,9.0659,4.4592,-13.7039,-20.9012,-1.4187,-2.6187,3.1634,1.9141,4.9419,31.2757,-0.57639,-5.4144,
-30.5234,-19.1773,22.622,3.9509,-12.1583,-18.924,9.5124,-1.2565,5.6249,-0.8521,7.7787,30.6042,4.5201,-0.028079,
-19.7742,-8.6266,20.1801,9.2573,-10.2237,-10.7989,3.8802,0.50589,3.6,0.88648,5.6249,26.1166,2.5614,0.69674,
-22.2027,-12.6883,7.1591,5.0869,-11.7795,-12.8021,-5.7526,-2.1756,-0.71336,4.9306,5.5284,14.6677,-6.5099,-7.2988,
-17.0144,-14.8198,7.6937,4.2995,-12.519,-12.9983,-2.0332,-3.4911,0.29354,3.6707,7.1251,12.3411,-9.012,-16.0197,
-6.1114,-8.3868,14.2217,4.7642,-21.1681,-12.4594,3.1502,-2.5589,4.3735,-0.64711,8.3846,18.1084,-10.1583,-14.3358,
-16.109,-15.8375,16.5014,1.3453,-32.1903,-24.0041,1.7564,-2.6463,4.3521,-0.84926,8.6044,22.0836,-14.1285,-6.4858,
-19.2398,-16.0923,7.5576,5.3619,-16.5203,-16.5381,-0.51815,-1.7642,2.4037,0.88893,3.9908,19.5533,-8.2191,-1.5169,
-23.1471,-17.2962,7.8275,3.8349,-18.1804,-18.1973,0.71778,-4.3099,4.4287,-1.3336,5.9205,16.6928,-3.6286,-7.9338,
-31.3992,-23.0071,13.6241,1.6769,-31.1896,-29.6388,1.6388,-6.9436,4.6451,-1.7357,5.0831,22.4399,-4.375,-9.8682,
-26.864,-24.7601,8.7096,5.6734,-31.3669,-24.7272,3.2275,-4.3576,1.7151,1.0197,-1.2472,20.8528,-6.7638,-4.2146,
-24.529,-24.9615,9.3921,6.5385,-26.8336,-24.9305,1.3468,-4.3373,2.8172,-0.2465,1.9609,10.2014,-15.2758,-10.9514,
-21.37,-15.0279,7.1415,7.8332,-11.485,-14.0347,-6.688,-5.7641,4.3357,-1.9192,8.351,10.3125,-14.6,-11.0174,
-21.5341,-11.7161,5.2668,5.9169,-5.0115,-3.0697,-1.9479,-3.4901,3.1112,-0.83969,8.8138,12.5862,-3.6011,-4.0894,
-24.5801,-13.4231,11.6997,7.9725,-11.4593,-12.5263,6.8461,-0.38813,2.9245,-0.78931,2.9828,7.9747,1.9176,-13.967,
-25.9978,-13.0998,9.5514,8.4585,-11.7358,-20.9335,3.5428,-3.2574,4.1953,-2.1882,1.3575,3.6398,-2.5358,-21.3241,
-28.0534,-18.8216,11.1475,1.443,-18.0216,-17.9907,3.0893,-9.0875,4.6665,-2.7798,8.266,9.9289,-6.9634,-9.1984,
-21.7907,-17.9332,9.2738,-1.777,-14.7709,-9.4392,-1.6754,-13.6039,2.2173,-0.44387,5.1189,12.4666,-6.7866,-2.1386,
-22.8936,-15.4112,6.3068,-1.1885,-11.9564,-17.0678,-5.9136,-11.3414,2.0843,-0.41724,1.4373,8.3442,-7.8256,-8.7591,
-21.7609,-7.9788,7.1337,6.3551,-3.2853,-16.2847,-0.49714,-1.7429,3.1645,-1.5975,5.4484,12.4233,-5.1865,-6.5464,
-16.3579,-1.4746,3.572,4.7683,0.045075,-1.2076,-1.1904,-2.8438,1.2872,0.18581,1.5059,9.9904,-1.7425,-3.9847,
-26.9456,-14.8834,7.6964,-3.7125,-14.0576,-13.548,-4.0115,-14.2423,1.6924,-0.30773,0.45166,5.5346,-5.9763,-13.3865,
-23.8826,-10.134,8.6807,3.7408,-11.6474,-18.0377,0.56771,-6.1567,3.0369,-1.7353,3.3169,12.9155,-3.6893,-6.7985,
-18.5935,-0.84913,10.57,5.4446,3.1514,-3.9403,3.4257,6.7457,3.3366,-2.1131,2.6354,17.4428,-1.5397,3.2503,
-24.4675,-7.7878,11.141,-3.3178,-1.2555,-6.8371,-0.3948,1.2797,5.3055,-4.1555,3.2007,14.7095,-1.6883,-5.3804,
-15.2865,-2.5001,9.5085,2.6656,-4.0725,-6.4267,0.11105,-3.6175,4.9874,-3.9064,5.9009,16.7192,5.6436,-7.9498,
-15.3334,-3.7961,11.3483,10.7006,-12.0231,-7.4873,4.9249,0.45568,4.688,-3.6718,8.4392,18.6083,0.48452,-4.581,
-21.8852,-5.2556,4.1595,8.8538,-3.3477,-2.9407,4.8703,2.5975,4.1657,-3.2105,6.2456,15.8046,-7.4983,-1.6546,
-18.6441,-1.566,4.3919,4.9481,6.9761,-2.7643,5.542,0.51346,2.4695,-1.5716,6.8352,13.4101,1.6282,-0.10906,
-17.5252,-9.1848,8.9493,4.651,-7.5425,-13.6854,5.2097,-2.8916,2.8035,-1.9595,6.9068,14.052,3.459,-2.5129,
-18.1612,-11.7672,3.8326,1.7204,-8.6569,-9.2493,-0.16456,-6.8159,2.3943,-1.6009,-0.49751,10.0749,-3.2565,-3.5674,
-26.7123,-16.8455,6.9769,-3.6848,-2.8346,-11.1043,2.7376,-11.227,3.2148,-2.469,0.97883,9.4706,-0.65076,-9.6201,
-27.5199,-20.1733,7.0406,-1.0536,-7.9672,-14.7766,1.6095,-11.9996,3.0219,-2.3208,0.43817,12.2768,0.35261,-15.3094,
-19.361,-11.009,5.8953,0.69684,-10.1403,-1.1155,-0.65625,-4.7717,1.1533,-0.49437,0.17091,6.479,-1.8377,-3.5446,
-18.6815,-3.1178,11.8081,1.137,-5.1935,2.3256,1.3109,2.745,0.60221,0.01723,3.5347,3.6797,-1.2455,4.8628,
-9.8476,3.8181,6.7613,5.4071,9.2181,-1.6703,0.75028,1.1345,-1.3621,1.9444,2.3587,7.7977,-4.5452,-1.2135,
-9.9799,-1.4726,2.74,0.50313,4.4472,-3.7392,0.46452,-2.5492,-0.075328,0.62266,3.4222,8.5349,-5.9595,-6.6841,
-20.2273,-8.8561,3.7809,-5.0707,-9.5582,-1.8277,-2.6968,-6.0117,2.0984,-1.5839,-0.88044,8.2638,-2.9508,-6.524,
-21.6648,-10.4939,-3.918,-5.4891,-15.9744,-8.2257,-5.6683,-14.5688,1.2493,-0.7657,-6.3715,3.6703,-5.9071,-9.7482,
-23.7393,-12.7565,-5.1287,-5.6417,-23.2106,-16.891,-3.8819,-12.2484,0.69243,-0.23782,-2.6147,2.4863,-9.409,-14.9479,
-16.7714,-2.5911,-3.1343,0.23996,-12.4182,-1.7775,-7.2644,2.5865,1.8562,-1.4288,-4.1451,4.9882,-9.5678,-11.8819,
-11.4268,-0.98963,-4.3922,-4.113,2.4269,5.6802,-11.1671,-0.82269,3.1908,-2.7891,-8.2349,1.3147,-17.1882,-7.7948,
-10.5002,-3.5816,-2.9239,-6.0354,5.776,-4.5427,-6.3997,-9.6914,0.83022,-0.45264,-7.4998,-1.4158,-15.916,-2.7473,
-9.8702,-1.9204,-2.7484,1.5576,-6.1397,-2.8241,-0.7131,1.9773,-0.18391,0.53885,-5.1217,-1.8128,-3.8743,-1.1367,
-18.437,-7.59,-0.17317,-0.94622,-12.0381,0.23759,-3.5631,1.8584,2.2375,-1.9038,-2.8859,-2.6681,-7.9799,-11.1912,
-15.4024,-5.2062,0.31961,-4.2634,2.7842,5.0441,-3.3488,-1.1451,0.17503,0.13859,-5.1229,-2.0261,-11.3575,-10.5197,
-11.8269,-7.063,6.326,-0.8746,-4.0108,-4.6586,6.734,6.8773,-0.55837,0.85317,-4.0926,1.229,-1.276,-2.8986,
-9.1893,-5.1932,9.3206,6.8904,-6.6627,-4.3793,6.8117,5.0187,0.92116,-0.64405,1.4553,5.0114,-1.1997,-3.2071,
2.2083,7.4107,1.2898,10.0926,7.8371,9.9835,1.342,-2.754,-0.8211,1.0816,3.5374,2.5418,-5.2248,-3.7376,
2.3168,4.7969,2.4173,4.9078,16.8873,10.2283,5.8408,0.54423,-1.9771,2.222,1.6379,0.70205,-1.7783,-5.2006,
3.1419,5.4732,2.7542,2.6851,14.4281,1.4197,3.0802,7.2605,-1.8585,2.0887,-0.38853,1.1419,4.5949,-6.3348,
3.6765,9.7243,3.7942,2.2831,15.7315,9.2884,1.6901,5.1376,1.3865,-1.1701,7.5885,0.35045,1.1862,-4.2675,
1.5277,6.2486,5.9769,3.5921,8.5211,11.1413,5.9272,-0.47305,2.7493,-2.546,5.2052,-0.63467,-7.0799,-2.083,
3.3642,4.9096,0.31566,0.48406,8.4918,7.0986,-0.21297,-1.409,-0.79008,0.98125,-8.1225,-4.453,-3.7626,-5.3325,
-3.8273,-1.8927,3.4302,-0.74982,1.4746,-0.31722,-1.8874,0.36277,-0.50171,0.68141,-3.0554,-2.4986,-1.3677,-10.5561,
-3.8388,-0.092165,7.3215,7.2487,6.9297,2.8351,5.2155,2.9923,0.25153,-0.082606,1.707,7.0511,-3.4553,-1.9693,
-5.5367,-0.086635,7.3646,3.4393,2.6575,-1.1914,6.3488,-0.079727,-1.2098,1.3686,-9.0003,6.628,-4.694,-1.3689,
-4.2404,1.3648,4.9943,-2.0695,-5.6968,0.80826,0.18306,1.3715,-1.137,1.2863,-10.3887,1.4099,-8.2687,-8.0355,
10.114,15.3829,-3.9822,5.2858,8.745,14.8598,-2.2378,9.9661,-2.9972,3.1375,1.804,-3.0133,-10.1827,6.4264,
8.6636,18.4368,2.7644,6.1737,22.3203,22.2836,2.9579,10.5732,-2.5762,2.7081,6.7572,1.747,-4.9925,15.4406,
0.91315,9.6178,8.8653,3.8748,16.1606,17.0902,0.852,4.6364,0.47068,-0.34671,-2.807,5.4988,1.5738,4.391,
-0.82887,5.4254,1.8257,1.473,13.5037,18.2339,-2.8148,-0.70368,1.6475,-1.531,-6.7362,-5.1956,-8.8847,-0.93389,
-5.3587,0.038154,1.4749,-0.78435,11.9704,5.8117,0.96977,2.4718,0.34359,-0.23405,-3.1987,-6.5709,-20.6439,-0.63666,
0.26551,2.4462,4.2787,-0.25512,18.483,8.3553,1.8757,5.6982,-0.64112,0.74409,-0.59645,-2.32,-18.4412,2.2938,
-9.1504,-6.6184,7.6374,-4.3372,8.4562,3.7566,2.4865,-2.1155,3.0128,-2.916,0.64463,-1.9399,-24.8063,0.95091,
-7.6375,-4.7753,5.251,1.2252,6.0204,2.5669,4.265,-1.5067,3.3139,-3.2229,-3.2509,2.5148,-37.4179,-3.4447,
6.9207,7.3218,2.2851,5.2493,14.0953,14.7056,5.2147,4.6095,-0.01816,0.10368,-4.7428,1.1589,-45.8984,-2.0327,
5.6623,-0.83047,5.522,-0.85022,6.983,3.7002,3.9375,0.95849,-1.4633,1.5437,-2.5301,-6.141,-43.1445,-5.285,
6.2867,2.5938,3.2627,2.5755,14.7588,3.9601,1.7732,-0.063117,-2.8216,2.8971,-2.378,-4.3265,-33.8071,-5.932,
15.0683,12.0792,4.031,4.3489,20.14,16.2557,4.5591,2.833,-1.6882,1.7592,2.5851,5.0919,-24.5481,-2.2018,
15.8514,7.2568,6.9224,-0.0096082,14.834,7.3267,5.9726,-0.47027,1.0644,-0.99767,2.1888,3.5813,-24.7624,-1.3466,
11.5261,1.0371,8.4353,-2.9011,13.9442,-7.2129,7.0605,-3.8165,3.4107,-3.3479,-4.209,-4.8283,-30.9892,-2.7118,
7.942,-2.3996,6.4829,0.16503,12.1432,-11.9623,7.6007,-3.1056,2.7241,-2.6651,-2.9926,-1.6465,-34.9147,-4.4775,
11.0809,3.2877,-2.3418,5.6987,16.9582,-2.3265,2.5654,-1.232,0.39152,-0.33606,-4.5003,4.4778,-29.2044,-3.9679,
5.3544,-0.52494,2.8602,2.2236,7.0227,-7.2486,3.6165,-2.8451,1.5731,-1.521,-3.5071,2.5221,-23.3548,-8.3094,
6.9615,-0.97515,11.8474,4.9824,6.6015,-5.3674,6.2918,0.21789,2.4428,-2.3938,0.077976,-0.52148,-24.3636,-7.3284,
14.9795,8.4831,7.5214,7.8168,20.3055,9.0546,5.6731,6.2306,1.5731,-1.527,-1.1322,-3.6239,-24.589,3.4752,
8.2962,8.938,7.552,1.0808,22.5818,10.5598,10.1535,3.9281,1.4787,-1.4354,0.8639,-2.4421,-21.1857,5.6768,
9.7266,11.7762,7.581,4.8725,27.0115,10.8905,10.9903,-0.16373,0.4259,-0.3852,-0.63396,2.5249,-15.0939,6.3003,
11.3124,8.4185,5.9211,6.2676,19.8474,5.1756,7.1976,-2.8052,0.15915,-0.12089,-4.693,-3.17,-19.7318,1.8249,
8.4643,7.1903,3.8784,0.82968,10.7026,3.6598,2.6682,-4.3239,-0.57353,0.60949,-2.2425,-12.38,-26.0197,-4.3101,
7.7152,9.41,3.8864,2.4669,20.4243,11.394,2.2669,-7.1982,-0.29792,0.33173,1.0253,-13.3247,-13.6125,1.9738,
-4.3166,-2.7236,7.0279,3.2834,8.1119,1.0696,6.9518,-9.6586,2.6122,-2.5805,-0.48227,-5.2941,-9.4213,7.1582,
-3.0935,-0.63197,0.33974,-0.28802,3.2868,-0.44085,4.6065,-10.0429,0.045382,-0.01551,-7.2018,-1.1201,-17.051,9.1391,
7.2152,10.011,-0.16258,-3.1628,15.1409,7.7805,0.95566,-8.9584,-2.8499,2.8779,-0.9851,-2.9811,-17.9559,5.6982,
7.5052,11.0974,10.693,2.5701,16.8836,8.5188,3.5494,-0.46719,-0.027316,0.053711,6.0634,1.2951,-10.3711,-0.18728,
7.5368,17.1802,8.123,5.3082,17.7988,12.346,6.7107,1.9712,-0.50784,0.53265,-0.085192,1.2172,-9.2669,4.6444,
1.0591,12.052,1.61,1.8567,6.3667,6.0616,5.1032,-7.5471,-1.6827,1.706,-2.7312,-0.060677,-13.2904,5.0889,
-3.3428,3.6164,0.54981,4.6376,-2.6919,1.8417,-1.4693,-7.094,0.34672,-0.3248,-4.0133,2.8353,-6.7079,-0.036682,
-8.6859,-0.21627,7.5065,-0.2202,-5.1819,2.4541,0.30588,0.8032,2.0129,-1.9923,-1.1212,0.49575,-4.1365,1.1704,
-15.1546,-6.711,9.7069,-3.8226,-8.4864,-1.3085,1.4926,-4.3064,2.6153,-2.5959,1.5974,-2.1853,-11.3601,-1.069,
-2.9169,0.19959,-1.2391,4.3607,1.423,6.724,-2.6945,-6.217,1.2533,-1.2351,-2.1136,-2.7769,-2.7245,-4.6201,
2.3196,7.1773,-1.8881,4.34,10.7376,11.8641,-4.702,-2.229,2.8653,-2.8482,-1.7459,-2.3693,9.2493,-0.72768,
4.1086,10.603,0.15335,1.1876,24.1933,18.8651,-8.7582,-4.5054,2.6934,-2.6773,-1.6411,-5.6016,6.284,4.6189,
2.657,9.2439,-3.4708,0.87534,19.488,14.118,-9.92,-7.3681,0.84457,-0.82945,-4.6761,-15.1474,1.3274,0.7263,
-1.359,7.2428,-2.7811,0.34042,13.4978,7.0039,-5.9508,-4.9983,0.79389,-0.77968,-4.3956,-11.8285,3.176,-1.2459,
10.7739,19.8237,-8.8807,-0.64387,26.7879,20.6837,-8.0039,-2.7702,-0.7,0.71336,-4.6142,-7.2624,9.7341,11.3623,
14.466,18.1523,-8.3477,-2.0513,38.0756,33.5427,-8.4877,-3.0861,-2.104,2.1166,-3.3733,-16.9497,13.9705,14.0548,
16.0084,19.9555,-1.5801,3.3742,33.3809,35.6277,-3.158,3.8482,-1.4956,1.5074,-4.6169,-16.8969,13.6145,15.1399,
16.4939,27.9172,-5.824,1.7255,42.4653,35.9001,-3.4504,2.171,-0.92395,0.93505,-6.75,-12.0267,11.8335,19.5342,
9.4785,21.6624,-8.1257,-4.8855,30.0352,22.9001,-5.4126,-7.3592,0.81871,-0.80828,-0.8014,-13.9562,12.3285,10.4079,
9.3922,19.8809,-8.6022,-5.0745,27.7512,24.4184,-7.4982,-3.0611,2.2156,-2.2058,0.21078,-11.6728,16.8915,1.589,
9.3106,20.1341,-4.2299,-3.806,31.8707,32.1123,-7.048,5.7995,0.63665,-0.62743,-3.1761,-7.5982,13.9496,3.9035,
21.0442,27.8439,-7.1094,1.0019,39.8404,34.7651,-6.8664,2.8002,-2.5348,2.5435,-4.673,-10.2755,13.3538,11.1414,
16.8891,22.7988,-13.4318,-2.9146,32.6292,27.8585,-9.8288,-7.4912,-1.4188,1.427,-8.249,-15.4436,18.8191,7.5804,
2.3786,9.862,-7.3227,-7.5604,19.5847,20.4026,-9.2391,-3.6673,0.59447,-0.58682,-11.6104,-11.6244,17.6902,-2.5154,
16.3359,23.3702,-12.9094,-2.0451,32.5096,33.2785,-11.8178,4.5065,-1.6104,1.6176,-10.1905,-13.0961,23.1362,2.2152,
29.4557,33.1757,-21.2934,-6.2607,44.659,45.3818,-12.073,-5.8868,-1.0318,1.0386,0.061941,-20.5055,31.8714,9.3132,
23.832,22.5081,-11.8211,-6.367,27.8795,29.6437,-3.1535,-8.9076,0.47637,-0.47001,1.9864,-15.9008,31.4054,8.7544,
26.9816,26.7014,-5.5684,2.4504,38.6193,30.9978,0.16897,4.4006,1.6529,-1.6469,-4.1585,-10.3672,29.2799,10.398,
25.6034,25.3401,-9.8138,1.0984,49.0768,33.7175,-4.4207,5.3421,1.7949,-1.7893,-3.1859,-12.3965,29.2101,6.6409,
23.5851,22.3737,-13.5636,0.068353,38.9011,37.4792,-7.5301,-1.7275,-2.1694,2.1747,-2.995,-16.4732,31.3141,7.2066,
23.6162,21.031,-5.0367,1.0283,28.8545,37.6408,-1.7754,-1.6237,-2.521,2.5259,-2.3331,-12.1106,30.3993,16.4154,
22.1992,17.3588,-6.663,-1.9256,41.2232,30.0795,-1.6691,-3.4547,-1.888,1.8927,-5.0854,-7.0454,27.1289,15.4302,
24.7241,17.764,-20.3632,-13.8612,52.8498,27.7933,-14.102,-13.3703,-9.0051,0.33286,-12.4931,-20.7227,21.1633,1.4894,
22.0354,17.903,-26.4925,-16.163,47.7504,23.4741,-12.533,-13.7729,-5.8137,-2.3382,-4.7536,-23.4559,22.0622,-1.7334,
20.9542,19.4804,-10.8029,-3.3826,31.1471,23.7529,-6.2374,-4.5108,1.0426,-0.028756,2.0391,-7.9486,27.2464,6.8063,
22.5893,14.9369,-7.6242,-3.6618,30.2424,21.8456,-4.4171,-4.2404,-0.46599,1.419,-2.4218,-5.9054,24.1651,5.9157,
24.8491,12.8356,-11.2638,-4.6477,31.0787,15.9553,-3.429,-4.7091,2.2133,-1.3175,-1.0714,-11.0944,23.9203,0.49933,
23.3582,14.958,-9.6241,-0.030022,21.5016,17.8905,-2.7413,2.8047,4.4906,-3.6485,3.8136,-4.6442,22.9675,-0.4945,
8.4593,4.4191,-2.7797,-3.4027,6.1115,10.5501,-1.1306,2.154,3.2573,-2.4658,3.1028,-0.50916,11.4661,-1.4292,
3.6134,2.7081,-10.3257,-0.30599,2.4911,7.9889,-6.3654,-1.8316,1.1337,-0.38962,-5.2781,-5.2989,12.7067,1.5491,
10.3863,4.2326,-8.0192,1.8813,8.8489,7.2688,-8.1524,-0.034238,0.34253,0.35688,-6.1669,-7.1503,22.3084,2.6612,
12.8968,2.7736,0.41596,0.56381,7.1134,3.2175,-4.0481,-3.1654,-0.40115,1.0586,0.22889,-2.1418,17.8367,-0.6317,
15.4972,5.4995,-8.7678,-0.43457,14.881,7.3626,-4.2869,-11.1705,-1.3412,1.9592,-0.74894,-8.28,11.4636,0.85223,
8.0595,-3.2662,-3.1805,-2.5777,11.819,3.3054,-2.3429,-4.9566,-1.5017,2.0826,-1.9088,-13.8088,13.9093,-1.85,
16.012,2.4734,2.5539,3.1206,25.2099,12.989,1.895,9.4408,-2.1349,2.681,-0.58947,-3.5802,21.5104,-1.498,
14.0867,5.6992,-11.6993,1.005,30.5667,19.4407,-2.5568,6.1023,-4.8991,-1.8184,-3.4464,-9.1502,14.4354,4.3762,
-0.85846,-1.8736,-6.5381,0.46318,14.6327,12.0078,-0.47516,0.91591,0.21553,0.70082,1.5811,-11.9752,5.8565,9.4163,
2.9292,1.3723,1.3255,-0.77036,3.993,12.9741,-1.17,-5.647,-1.0027,1.8641,-2.6116,-6.1955,9.6025,2.3434,
10.2255,6.3515,-0.44098,-4.3393,17.492,12.9188,-4.715,-6.0313,0.74493,0.064766,-3.1776,-2.2081,14.5697,0.033828,
12.0218,10.7908,-6.1993,-5.525,9.2114,17.446,-10.2169,4.9356,-0.26387,1.025,-4.4334,-5.9322,7.4288,10.6369,
13.9518,16.6511,-7.5144,-5.9166,0.70521,16.6405,-6.4706,9.701,-3.8637,4.5791,-4.4081,-11.6021,-0.48852,10.7218,
13.3557,17.8212,-3.4481,-0.98234,-1.0243,6.2421,-3.9128,-1.245,-0.98031,1.6528,2.3638,-7.7725,1.228,-4.0215,
21.9544,28.5621,-5.4104,4.6202,8.9191,18.1596,-11.6322,-4.3038,-0.68052,-2.0618,-2.3577,-5.6189,7.6618,-5.1058,
18.7089,29.7409,-1.7117,-3.8517,-0.29318,19.9625,-7.0779,2.7034,-3.5322,-1.9381,-11.3748,-10.1025,5.2739,-0.94305,
18.5509,32.295,-4.0189,-3.6204,0.20658,15.8725,-2.7966,2.059,-4.7663,0.10665,-11.1745,-9.0142,-6.1295,-3.7788,
31.5379,44.4573,-12.6961,4.0684,9.5944,27.2124,-6.2445,-1.6797,-8.0955,-2.5511,-9.7809,-8.2321,-10.3413,-0.41877,
27.3555,44.8024,-5.1854,2.3781,-1.1046,27.0259,-2.9773,3.7233,-10.5023,-9.1469,-10.6403,-10.6307,1.8484,-1.358,
14.6269,34.8834,-3.9104,2.7173,1.3718,23.9581,-3.763,8.8025,-5.5339,-5.2236,-8.5556,-9.5109,10.8965,-2.7228,
4.8315,22.9082,-9.2192,-0.097054,-5.7002,14.5667,-10.5268,0.32038,-1.5862,-1.777,-2.4989,-6.289,-3.8573,-0.39,
4.5414,17.1956,-3.3636,0.39093,-15.9632,5.4982,-5.5567,0.78332,-1.4912,-3.1164,0.54331,-1.0911,-10.495,0.5975,
5.4744,13.0306,4.7922,4.947,-11.39,5.409,3.6946,6.2802,1.7315,-1.2419,2.6801,1.1437,4.2347,-0.64342,
-1.3622,-1.8512,6.6736,0.070657,-9.9837,-0.94128,2.7498,-3.4969,3.797,0.51957,2.2781,-0.61235,2.4136,-1.8099,
1.1301,-4.2712,1.9353,-0.89745,2.6669,-4.2588,-2.2355,-3.2871,3.0872,0.97033,-1.7145,-2.9857,-3.5153,5.5296,
-6.4095,-3.774,4.4703,1.8075,-10.2676,-16.2958,0.54975,1.9718,3.6249,0.18921,0.075121,-1.6013,7.0595,1.1004,
-9.6404,-4.7524,0.1047,1.4581,-23.7515,-13.6308,-2.6163,-4.6539,1.7202,1.8651,-4.0267,1.1459,1.0923,-8.8475,
2.9891,9.0301,-12.917,-0.5576,-8.2264,1.287,-9.2082,-0.51878,-2.7213,6.0915,-6.1953,-1.333,-5.2402,1.3238,
-8.2774,-0.18877,-5.8755,-7.755,6.3671,5.9098,-8.1738,7.2251,-3.04,6.6899,3.335,-3.1812,-2.9976,3.1726,
-16.9394,-14.2774,-1.6666,-9.2179,-8.1149,-8.5448,-8.6472,-3.8132,-1.8937,4.8427,-0.721,-4.4366,-3.7816,-9.5508,
-10.1384,-19.5666,-2.0485,-9.1467,-21.728,-18.5167,-0.89754,-13.2254,1.5943,1.1777,-5.9804,-1.7598,-3.0723,-10.424,
-3.9867,-14.7772,2.6537,-5.9468,-7.2884,-11.8621,5.6638,-3.0319,4.1498,-1.5441,1.3683,3.407,2.6552,-3.773,
6.3756,-4.732,-1.8438,-2.6975,3.754,-11.1503,0.98565,0.042558,1.0087,1.4406,4.1783,-4.0283,2.0139,-4.9924,
-1.2378,-9.7502,-1.2513,-4.4639,-10.5713,-23.0146,2.3728,-4.7807,2.3945,-0.092077,1.0355,-6.6786,-8.23,-10.4775,
-13.6968,-12.5399,3.6443,0.14253,-21.3857,-18.7416,5.1227,3.2187,5.1431,-2.9788,-4.8114,2.8809,-1.4695,-4.0645,
-11.1875,-8.1716,0.2926,2.7851,-16.9688,-6.2887,4.0924,8.0877,1.701,0.33337,-2.3531,1.5032,5.1264,2.2054,
-2.3218,-6.7177,-4.0635,0.69,-11.1304,-8.8039,3.8467,2.7815,-1.2933,3.2057,3.5724,-2.9255,-5.3043,-0.81967,
3.1202,-3.9043,-6.2301,0.16644,2.5526,-5.3834,2.6513,1.1686,-0.25163,2.0492,-2.4267,-1.304,-12.6991,1.1579,
-6.467,-14.0339,-2.7228,-2.977,-11.7006,-3.8551,-1.1227,-3.4813,1.4507,0.72098,-8.7886,-3.8768,-11.2138,2.7757,
3.3212,-5.2384,-5.2107,5.1556,-11.3598,8.6685,-3.2248,-0.1387,-1.2877,2.8471,-7.0562,-5.8136,-2.587,9.5988,
17.2219,9.176,-6.8263,7.2563,3.4218,22.2484,1.7894,13.9696,-2.6567,4.1225,0.11559,-4.9829,1.4246,15.7718,
9.3192,13.3256,-4.9707,1.0366,17.3165,21.7569,2.6462,14.4568,-2.0151,3.393,3.0009,-2.7555,-4.9276,7.5944,
7.5548,6.0181,-8.7698,1.6973,16.2775,10.0876,-1.128,-0.14896,-1.6532,2.9485,-0.79408,-3.313,-13.0676,1.5951,
3.2451,-4.9482,-1.4951,-2.7428,1.2009,-4.6177,2.3137,-5.4427,2.3023,-1.0848,-0.2645,-6.9711,-13.73,-2.357,
-4.9033,-6.8205,1.7281,-5.7118,-8.6329,-3.497,3.3801,4.2839,2.4052,-1.2607,-0.48959,-6.3119,-5.9166,-5.349,
-7.2604,-5.2062,-5.3653,-6.5741,5.9851,5.6307,0.52599,4.75,0.57386,0.50194,2.1906,-3.2818,-5.8023,-1.4125,
-12.6096,-11.1606,-6.0075,-8.59,-4.8586,-8.8072,1.9405,-6.6225,1.5035,-0.49227,5.4339,1.2536,-11.239,-1.3279,
-6.5504,-0.36735,-5.6472,-5.1823,-7.4594,-1.8915,3.7525,-4.7786,0.44922,0.50136,-0.19502,-0.26762,-9.6006,-2.6943,
-1.3369,7.3675,-0.96962,-3.4251,5.0393,7.8629,4.4912,5.631,0.9042,-0.010652,-1.1472,0.23037,-5.1681,1.8057,
3.3231,6.6844,-1.6348,-0.086136,18.4757,4.7401,-2.7677,4.5702,1.0909,-0.25098,-0.83739,4.3139,-4.6171,4.8308,
9.1492,5.56,-7.0803,2.5701,11.8231,6.6248,-5.2532,3.0907,-1.1437,1.9332,-1.51,-0.042289,-6.9912,2.8538,
8.3593,3.0573,-0.14757,0.72869,-0.6964,7.4322,5.4263,7.967,-0.83411,1.5763,2.1955,1.6475,-8.2591,2.9235,
10.9908,5.5249,1.5485,0.92594,11.1555,13.0122,8.7162,5.8017,0.42123,0.27641,-4.4437,2.7535,1.1547,6.8454,
7.4393,3.7472,-0.47305,-0.093946,14.825,11.7491,5.3007,1.1148,0.39595,0.25982,-8.5154,-4.1602,3.4955,8.8448,
6.7517,5.6917,-0.20348,3.0454,17.0687,12.2497,7.152,7.5561,-1.7972,2.4136,-1.0148,-1.2593,-4.1858,12.8941,
8.516,7.0372,-2.3607,5.0316,13.8752,14.6475,6.4817,11.1999,-3.3764,2.0276,-1.6771,-2.8712,-2.73,15.2537,
-5.9747,-7.485,4.5299,1.8372,-1.0573,-0.33134,2.7183,-0.077417,2.6108,-1.9504,-2.0584,-13.3037,-1.6021,4.2152,
-9.7133,-12.4586,3.053,-2.3702,-7.863,-14.4112,-0.095616,-6.58,4.6235,-4.0028,-0.72981,-10.8185,-3.6749,-1.0992,
-4.551,-9.5419,1.665,-7.2892,6.7088,-6.0747,5.9357,-1.6059,1.6946,-1.1111,1.0012,2.1231,1.607,2.1002,
-7.8934,-19.3335,2.7702,-8.5393,-3.9374,-14.6281,5.3383,-1.2684,2.798,-2.2495,1.1823,1.7545,0.78747,-5.9798,
-8.3839,-19.6197,1.1577,-7.0626,-7.5575,-26.2837,1.6436,-4.0848,4.0763,-3.5608,2.5572,-6.5454,-5.5263,-8.513,
-7.6397,-16.2732,7.5962,-4.4697,-3.0065,-25.9117,9.0172,-4.0807,2.1445,-1.6599,6.9835,3.2473,-3.0253,-1.0124,
3.6648,-8.7891,6.8992,3.7525,-1.621,-10.257,9.6813,1.708,0.32887,0.1267,1.985,13.4165,6.556,2.1816,
5.8552,-3.441,3.111,4.9734,-7.3084,-2.7724,3.7975,1.6053,1.7552,-1.3269,-1.0264,4.4166,5.6807,-0.35963,
2.6116,1.5855,1.9598,3.2285,0.84314,-4.5345,1.6417,-0.41899,3.0959,-2.6933,-0.48266,-1.1508,0.51912,-0.33828,
8.7212,9.6853,-1.0501,0.6244,14.8926,2.9682,1.543,6.3544,3.8742,-2.532,-4.7923,5.1845,1.4523,3.5386,
1.9314,1.8733,2.3874,-4.2333,1.345,-1.0658,2.8966,6.4555,3.6418,-2.3801,-4.5047,7.766,-3.9375,1.3981,
0.12831,2.4843,-1.3713,0.11804,-3.315,2.1311,1.5176,2.9347,0.29025,-0.068095,-1.5833,4.6489,-2.9781,8.786,
-6.3871,-6.1007,-2.976,-3.5042,0.49913,-5.9505,-0.2605,-0.85659,0.51357,-0.30475,1.6449,0.75435,4.1905,10.4278,
-20.1039,-19.8346,1.059,-9.5605,-12.0641,-19.6934,-0.7268,-3.6977,3.3753,-3.179,0.10042,2.1553,-2.3277,-2.249,
-11.0644,-8.4009,-4.7892,-2.7204,-2.1814,-9.7145,-0.68365,-2.0296,3.1728,-1.542,-4.7263,3.9542,-7.9729,2.7062,
-8.9543,-0.66651,-6.43,-3.0395,6.6266,0.027187,-2.5708,-3.3541,2.9824,-0.96753,-4.9247,-0.62136,-2.6738,6.8826,
-10.8271,-6.4109,-4.1162,-4.3032,7.675,-1.9024,-6.7547,-2.6707,0.39309,1.9828,-7.5215,-8.2971,-2.0312,2.6131,
-6.8033,-2.1698,-0.012876,-3.0807,1.4299,2.5501,-1.0467,-0.1003,-1.5587,1.3819,-4.1781,-12.1376,-12.0327,2.4563,
-13.8669,0.12975,2.1573,-2.6551,-7.092,-3.1466,6.0057,0.14692,3.5963,-3.7625,4.9904,-1.5276,-9.1416,-2.2706,
-9.1785,3.0143,-5.6852,-1.0493,7.4335,-0.065476,-1.5857,-2.2723,4.3446,-3.5369,-1.5753,6.277,3.4583,-4.0623,
0.049091,7.1715,-1.4874,-2.4328,12.6516,3.7948,-0.044073,-3.1,1.6736,-0.91436,-3.8912,1.5619,3.2508,1.9658,
3.9025,11.5619,3.4221,-0.8406,8.518,4.0495,3.815,-0.50389,2.0555,-2.3058,2.6088,-0.94197,-1.2828,2.3302,
5.1149,12.3145,0.80662,-0.79016,11.3819,5.7348,-2.6805,0.49067,2.4142,-2.6494,5.3448,-0.40351,1.6869,2.1904,
-0.012735,6.7551,-0.20587,-1.2249,6.36,5.3904,-3.9661,-1.9491,1.7871,-2.0082,-2.6889,2.0311,3.9956,6.8794,
5.7726,13.5806,-1.6393,6.5618,15.1379,11.334,3.5027,2.9885,6.0187,2.4506,-6.8659,7.2118,3.7558,10.3231,
0.3648,6.2579,-2.2643,-1.3037,7.7216,-3.446,2.5696,1.6039,5.8985,-1.3119,-2.8385,3.1637,-3.9413,-0.17825,
-1.8265,-2.0716,0.52286,-6.2874,-3.5881,-14.2063,-2.1645,-1.1436,1.447,-2.4382,-0.98118,-2.57,-1.0537,-2.3369,
-0.029431,-2.6704,-4.088,-3.7408,-5.5418,-7.8103,-4.6855,-4.6902,-1.2911,0.3594,-4.0556,-6.5129,3.5892,2.3828,
-6.5356,-5.6432,-6.0119,-3.2753,-7.3784,-8.5467,-1.7533,-8.9885,0.47359,-1.3494,-0.19681,-3.471,1.2047,-2.8219,
4.4618,4.8183,-5.1693,0.29563,7.1643,2.0892,1.2444,-3.6285,0.9271,-1.7504,-0.185,-3.2628,8.8452,-5.5446,
5.8811,2.8422,-5.1003,-1.8915,1.0703,-0.68746,-0.5177,-3.1701,0.14835,-0.92221,-1.379,-10.0566,7.1094,-4.9712,
-1.7024,-4.077,-6.7222,-1.7778,-13.0939,-10.7691,-6.7529,-9.7281,0.13968,-0.86711,-0.81407,-7.0429,-4.4044,-4.1908,
4.4256,2.1929,-4.1495,2.9084,1.7917,-2.6512,-5.6251,-6.4935,-0.1099,-0.57389,-1.4884,-0.1126,1.8854,-1.7699,
3.6776,0.13338,-1.9726,2.2517,8.1919,-2.0104,0.015307,-5.6218,0.37886,-0.53968,-2.3631,1.3402,5.6289,-2.1459,
3.6984,3.2586,-8.8439,-0.53469,10.3517,-1.1666,-2.155,-10.3459,-1.3309,3.1083,-5.837,-5.7299,-0.73458,5.9368,
-1.5854,1.858,-4.2157,-4.6002,-2.5617,-10.0145,-3.7127,-11.4126,-0.52835,1.2344,-3.7993,-13.34,-0.9317,5.8214,
-3.4183,1.7466,-0.10633,-1.4317,-6.2643,-12.7878,-1.0798,-7.8353,0.46768,-1.2498,3.1775,-5.3088,0.57069,-5.1328,
4.4994,12.729,-9.7414,-0.86383,8.2115,2.0794,-3.4256,-6.4013,-3.4168,2.6816,1.5402,-3.5445,-2.3563,-2.4147,
2.0605,7.3857,-5.0593,-3.9453,3.5005,2.0749,-2.0145,-7.7043,-2.4886,1.7976,-3.1318,-6.947,-1.4918,3.2736,
4.347,9.8349,3.4392,3.0401,3.2907,-0.94163,3.4087,-4.8316,-0.89328,2.1719,-4.8718,2.6291,6.3107,4.0417,
-0.25215,11.6554,0.34077,1.4119,0.20122,-0.40319,4.6505,-5.0237,-2.7679,2.0415,-3.6152,4.3995,4.0039,-0.057152,
-4.5756,3.7252,-0.644,-2.5292,-1.2571,-4.7173,0.51506,-4.7223,0.77265,-1.4554,0.45811,1.7254,-3.9491,-2.4643,
5.5814,6.1528,-2.2921,4.1301,5.3258,1.5915,-3.6132,-6.6081,2.4135,0.31915,-2.7029,1.8629,-4.9172,-1.5931,
4.7643,7.2297,-2.6368,4.3644,2.5959,3.424,-1.4684,-8.622,-0.14165,1.2641,-3.5048,-2.5874,-5.5863,-3.4259,
5.4423,8.7241,-1.5147,1.21,16.5401,9.0031,3.4404,-1.8381,0.34878,-1.7038,-1.8482,-3.3965,-0.43064,2.5642,
-0.66903,-1.9225,4.8429,0.17333,17.8374,4.1244,7.0901,-1.7281,3.7021,-4.4943,-1.7376,5.9661,5.3795,8.6771,
-6.8954,-6.6276,9.3728,4.9834,2.6671,-2.3896,5.7006,-1.1422,4.9264,-0.84998,-0.66922,10.911,5.057,4.7818,
1.2309,7.87,-2.7591,5.1663,16.1249,10.769,0.53786,3.7466,1.7383,-0.31705,-1.111,-3.7234,6.1994,0.15656,
-1.7353,2.4566,-2.1114,-3.8205,16.6039,4.8204,0.50582,-3.2269,-0.29439,-5.6009,-2.0084,-11.2126,1.0069,-7.0839,
4.8768,1.5863,6.9333,0.50608,15.8487,2.362,0.71644,-9.5408,1.8929,-2.1314,-2.1289,-1.6222,-1.2226,-5.9355,
5.0666,3.9017,1.2151,0.95811,12.9696,8.9692,-0.77235,-9.4503,0.81545,-2.9673,-0.072973,-5.8627,3.1895,-5.5789,
-3.6736,-0.42972,2.3471,4.516,-1.9086,6.7436,3.3713,-1.4114,1.9714,-2.5483,4.0288,-5.27,10.4699,-4.5213,
7.6338,9.237,1.2424,11.4759,4.8341,12.6057,1.7228,1.5658,-0.55705,2.4253,-2.9619,2.759,5.5034,5.391,
13.6838,13.7443,1.891,5.2435,7.6778,14.0188,3.7888,0.7487,-2.693,2.0386,-2.543,1.3884,-6.1552,8.6827,
9.0063,11.4733,4.1876,2.0368,-0.013746,10.2851,5.4897,4.0782,-0.60324,-0.011947,0.020199,1.3051,-1.9295,5.2697,
8.466,10.7849,3.9364,-0.49549,2.8791,8.7042,-0.62427,0.94101,-0.084654,-0.9751,-0.4634,2.673,4.9352,5.9178,
13.0195,9.4147,5.3872,-0.22502,7.2859,6.0125,-0.34608,-2.7306,-0.32077,-0.19392,3.18,2.2714,1.5056,6.2854,
18.987,13.6703,-2.1667,5.5733,11.6692,8.5441,2.085,-0.63884,-2.7119,-1.1464,-4.7238,-1.2395,-0.51296,2.0521,
17.1246,11.645,6.8812,7.8898,7.3539,5.862,7.0214,3.979,2.0303,4.4662,-4.6815,5.3426,3.1332,2.6517,
9.5894,2.9924,10.084,5.7294,5.2252,0.44885,2.503,-0.83925,-0.26086,3.4751,-3.6775,5.7451,1.7402,2.2518,
15.0396,10.7666,-0.40347,6.1085,15.758,7.8937,-0.29875,-2.9581,-6.2708,-0.34879,-3.6978,-0.62512,1.8765,2.8396,
15.1016,11.5668,-1.8255,1.8856,11.438,5.9738,-1.2447,-3.2625,-4.4483,-4.1842,-1.0658,-2.0339,-4.5026,-2.151,
7.929,6.0526,1.6585,2.2549,7.8597,5.1335,-3.5801,-1.6205,0.6389,-0.55874,0.92632,3.8727,-3.7503,2.7983,
-3.1521,-0.57734,4.9336,0.19115,1.6033,0.48738,0.0088944,-3.9336,-2.7737,0.43888,0.87097,3.6406,-2.5612,8.8972,
4.5089,5.965,8.7347,2.3491,11.8712,8.4116,3.1416,-2.9745,-5.7405,-1.7568,0.09558,0.28891,-6.0229,11.0147,
5.6844,7.5351,0.49811,1.726,13.5693,13.2094,-5.7237,-3.7601,-5.3963,-4.0618,-3.2844,-5.9952,-3.7333,7.9434,
-5.262,2.2625,7.2164,1.6222,-1.3449,1.3298,-2.9704,-0.64266,0.71229,-0.44386,2.697,1.5952,8.0596,4.5745,
6.3821,9.1166,5.5786,1.7663,7.7744,8.7218,-1.1045,-0.84461,-2.9459,-0.1758,-1.5621,-0.66971,7.3353,-3.1713,
14.1942,9.5337,0.42342,-0.26813,16.9486,17.3573,0.88972,-5.1329,-3.7332,-0.16548,-4.8431,-11.2346,3.5205,-5.3918,
-0.63701,5.1055,5.7004,0.71206,7.7372,6.1927,-0.60969,-1.4503,-2.0632,3.7011,-1.6598,-2.8475,8.6121,4.5729,
-1.3219,10.825,-0.18498,-1.4996,9.4419,5.0985,-9.9729,1.2881,-9.8929,-1.5825,-4.2115,-1.4716,4.4802,1.6472,
5.9882,9.6931,-8.851,-5.7484,11.7679,7.6847,-8.4106,-4.5738,-10.7456,-11.1285,-5.4051,-11.0243,-3.0194,-10.9847,
11.6545,12.7269,-12.4173,-5.1625,19.4975,12.2853,-2.3624,-5.0227,-6.0035,-7.3277,-8.2138,-12.05,4.6335,-5.2644,
8.5453,9.071,-8.7799,-8.227,15.9178,9.6197,-2.2209,-1.3467,-4.1973,1.3069,-6.2749,-5.0603,7.7297,2.7645,
5.1401,1.2959,-6.3245,-3.3946,8.2138,1.8122,-3.0515,-1.2659,-2.4992,2.1928,-1.5601,2.4742,6.3021,1.6347,
10.3751,3.8695,-10.525,3.7983,8.926,2.4261,-5.5197,-1.9131,0.78404,-3.4826,-5.0817,1.1202,14.3594,2.7413,
5.655,0.98599,-4.8321,-0.044825,3.329,-3.2628,-4.4654,-1.5575,6.7628,-0.14041,-0.67967,-3.0446,14.7029,-0.55646,
2.9053,-3.4117,-13.7009,-6.7913,6.5035,-4.9955,-11.9105,-7.7308,-0.87406,0.83211,-2.0849,-11.0569,5.1439,-12.0925,
11.8903,4.0241,-13.361,-1.0809,11.8981,5.9093,-5.4111,-2.446,-1.3033,0.30002,0.93246,-7.0188,14.4764,-2.6896,
6.1152,-0.3152,-5.5695,3.0813,2.7481,3.8675,1.4211,0.35181,-0.02029,-0.92282,-1.2926,-5.3928,15.777,0.60481,
6.7126,2.5962,-9.5737,4.8246,15.1167,12.7945,-0.11043,2.2589,-0.98294,4.4347,-2.6613,-8.4432,8.0815,2.0148,
1.0072,4.3686,-11.8918,-0.76752,11.3172,11.5449,-2.5139,-0.76916,-0.92396,-0.16967,1.8367,-9.8653,1.812,4.786,
1.1879,6.2759,-8.5269,-0.48027,0.75598,7.237,-5.4964,-3.3739,-0.62733,-6.6672,-2.8531,-6.6216,6.2828,3.7761,
3.7678,5.6579,-8.2563,-1.1744,5.2904,6.0794,-8.782,-2.4485,-2.2769,-2.6517,-10.1532,-6.9477,10.9675,0.41608,
-0.79639,3.3905,-5.8325,-2.5499,5.937,4.2686,-5.8447,3.4832,-0.21234,3.7741,-5.6879,-7.9768,8.3815,0.87327,
-1.9541,5.8384,-7.6519,-2.6381,-0.44496,9.074,-2.8432,4.4788,0.52353,2.3426,-3.6596,-8.2213,6.1912,-0.38464,
1.0554,2.5958,-1.408,-2.4796,-4.7563,12.8681,3.1122,-2.0562,2.9025,3.6481,0.89852,1.4312,8.23,-3.7358,
7.0179,2.6808,-7.3493,-4.5002,8.3033,12.8191,-7.9205,-7.4762,-3.2974,2.7061,1.0858,6.8887,7.0131,0.10401,
-2.8032,1.3151,-8.1136,-6.3994,0.81519,2.65,-10.0964,-3.8946,-3.3406,3.749,3.6718,0.93177,10.6897,10.4616,
-16.735,-12.8638,5.8705,-4.0877,-13.3337,-11.609,2.0781,-0.76889,1.1982,3.0421,2.9695,-1.0523,11.0126,-0.77136,
-2.595,-3.2944,1.6622,7.245,-2.2899,3.1875,1.9536,4.5801,1.6085,6.2338,-2.0291,5.7595,8.9058,-4.5812,
8.6481,7.0264,-6.6325,1.9899,1.7037,12.1553,-6.8405,0.44916,-1.8623,4.8957,-6.7279,0.1115,7.4074,4.8529,
-5.9707,0.82001,6.2987,1.8707,-12.4985,0.33898,3.2112,5.7246,3.5519,5.566,-4.3958,4.4434,17.568,8.4179,
-7.4204,-3.568,8.3309,5.6148,-6.3255,-3.056,8.3207,8.7556,6.2313,2.8219,1.1702,9.4789,13.6214,0.68197,
-7.2164,-8.897,-6.269,-3.6401,3.454,-6.0059,-6.2786,-5.0261,-2.5787,-5.7835,0.37704,-1.9356,-1.2959,-6.3484,
5.0267,2.0006,-7.7003,0.67564,9.7543,8.4544,-7.2274,-4.4836,-0.25484,2.5172,-0.85087,-3.9891,5.1691,4.8783,
1.3506,-4.8685,6.2588,0.63488,-3.3642,4.6932,2.847,-1.3227,4.5809,6.2228,-2.2459,-2.3037,8.2332,-1.1992,
-8.8531,-15.1813,11.1862,3.0071,-17.2624,-9.6884,-2.1439,-0.27882,6.2345,5.3673,-1.6289,3.6193,-0.93768,-10.286,
-4.2245,-8.7265,1.597,5.9602,-12.9727,-8.2633,-7.5588,-1.9493,3.2093,6.2506,-2.7365,1.7154,5.1446,-0.75079,
-2.766,-8.4444,3.1884,1.5052,-8.097,-10.419,0.84844,-5.4478,0.84716,3.7064,-0.40314,1.3711,11.3434,-0.94671,
-8.3846,-6.9731,8.7819,2.8609,-4.7188,-13.1681,2.2436,-4.1568,3.2067,2.5199,0.58514,5.6273,6.3242,-1.3721,
-12.2201,-5.109,6.8082,5.0994,-6.8458,-9.9679,-2.7113,1.8772,5.9063,1.4044,1.5144,4.8073,0.1602,3.5305,
2.6131,3.8744,1.5797,8.6501,2.2418,2.1996,-1.5845,6.585,2.6597,1.3203,1.4233,5.4834,2.5609,3.8008,
16.5563,14.2475,-2.3717,9.0952,5.4815,12.1907,-1.9716,6.6721,-3.7662,0.75895,-2.0364,-0.14846,5.2996,0.19856,
1.463,4.7156,6.9297,4.2107,-8.9474,2.7822,-1.3714,3.8612,1.28,2.1597,0.49596,1.3067,8.838,-0.77768,
-4.0477,0.094299,8.4421,4.4404,-11.1824,-2.2052,-1.771,0.73745,3.6138,4.4402,-1.9439,8.4591,14.5742,5.536,
0.29249,3.2219,8.1767,6.8253,-4.0037,-4.2421,-1.4236,2.3802,-0.21866,4.415,-2.0685,9.1567,10.0846,1.1062,
-4.7867,2.3055,5.5167,7.1385,-4.4866,-4.2287,-5.4358,3.9248,-1.8925,2.4626,-0.25692,5.474,-1.8489,-9.8062,
-1.8482,7.7105,-5.6603,1.1668,7.5929,7.3534,-11.6173,-2.3364,-3.9484,2.5561,-4.3391,-0.88021,1.3953,-5.6026,
-5.3527,1.7043,2.1507,-0.59045,-6.9626,2.8144,-5.3767,-3.8835,1.3497,2.6437,-0.46333,-0.1045,9.7472,1.241,
-6.2366,-2.0134,5.1551,6.9168,-20.6449,-1.4518,-5.777,1.4112,4.4022,1.7622,0.28737,0.1432,3.1373,-1.0021,
-2.9701,3.8924,0.98943,6.5018,-5.3062,3.9379,-4.9484,-0.11971,1.2461,3.1022,-1.1757,-2.7579,-0.42538,2.4324,
-9.5406,1.7307,4.3045,1.2914,3.8095,0.3272,2.0969,-4.4509,-1.2388,2.9161,-1.1051,-2.1105,3.9385,5.6605,
-5.1118,1.1445,0.67179,-0.23233,9.3655,2.7182,-4.2954,-1.2917,-2.1288,-0.15093,-2.967,-7.7685,9.0048,3.3927,
-5.0461,-2.0575,2.8009,-1.9054,2.2959,4.2421,-4.2784,2.4014,1.1322,-0.865,1.3081,-5.6149,14.4903,3.4303,
-14.1431,-6.9952,2.3919,0.3781,-11.9419,1.3364,-0.88821,2.0164,-0.14061,0.87413,0.98868,4.6039,11.4517,-1.3548,
-12.8125,-6.0936,-1.608,1.3193,-14.2381,-0.67194,-4.6918,-1.9615,-1.5784,1.7855,-0.034512,1.9176,1.6056,-8.0224,
-9.6337,-9.5846,-0.54746,-4.5447,-6.1532,-8.3449,-5.3744,-9.0744,-0.51963,-0.24955,4.3056,-4.9466,-1.3835,-11.3977,
-7.1272,-12.8657,-1.4787,-6.2,-10.604,-10.7362,-4.5697,-4.6733,-1.4525,-0.71674,3.0837,-2.7214,2.0742,-11.1955,
-5.7357,-11.1296,2.4662,-2.9357,-13.8244,-13.4665,-5.2596,5.2478,1.045,1.2547,0.0059037,2.2624,2.9138,-4.7395,
3.2853,2.0712,2.8006,1.0968,1.105,-0.12526,-3.9802,4.933,2.9105,6.4816,-1.4403,0.68037,8.5236,5.6683,
-4.8658,-4.0789,-1.9474,-4.9947,-6.5535,4.9437,-3.5002,-3.7989,0.56644,3.9233,-1.595,-7.3144,5.3608,2.6764,
-14.6967,-10.1007,3.9545,-3.7307,-19.6577,-5.9577,-3.7721,-4.0529,1.9787,-1.1323,2.3571,-1.5725,0.21894,-3.7507,
0.28506,4.6054,6.3683,6.375,-4.3782,-1.021,-1.8586,-0.19432,4.0292,1.1048,-0.43546,5.5113,4.7851,0.089757,
-1.5398,-2.7811,6.4681,2.1362,-12.6721,-7.2265,0.18069,-0.18267,2.3411,2.0028,-1.3737,0.35992,2.0874,0.084372,
-5.5447,-5.2658,5.8391,1.767,-9.2605,-2.6953,-4.8914,6.8182,1.4778,1.1593,0.39599,-0.38458,-1.1709,1.7665,
2.7419,5.4147,4.7661,4.7943,5.0337,7.3486,-1.4646,8.5785,5.4867,3.7415,-2.761,0.84402,3.4789,-0.026453,
-2.2433,-9.0101,11.7105,1.1321,-9.3683,-7.1923,8.7466,-0.13141,8.5315,2.5527,-2.1134,1.7572,5.6803,-12.5584,
-1.8675,-14.3748,4.9825,1.3054,-6.5166,-17.0044,2.196,-4.703,1.5119,-0.73374,1.1466,1.4106,4.1344,-8.6716,
0.41371,-6.0405,-0.86027,-0.94184,7.9744,-1.8841,-5.8897,-5.144,-3.1579,0.51535,7.1036,-2.7711,0.75309,2.6952,
-4.1906,-6.8832,-0.56745,-3.0547,0.62678,-4.7841,-5.2951,-4.5942,-4.1739,0.72517,2.5798,-8.6307,-0.49716,-1.0822,
-1.0469,-3.5781,-0.53341,0.98495,1.0711,-4.979,-2.5673,0.98414,-1.031,5.0204,-1.9133,-5.2203,3.871,3.8035,
-8.4561,-8.9068,-0.7426,-5.0999,-3.0907,-2.9933,-3.1364,-1.7267,-1.2103,4.9599,-1.0754,3.0464,-4.7972,3.3341,
-4.815,-3.7931,-0.45708,-2.6248,0.71058,1.2842,-1.261,0.0646,-1.8606,7.3139,-2.2161,5.9971,-1.8578,0.48293,
-3.3211,1.014,4.6318,0.18404,2.3549,-4.8187,2.4303,2.712,-0.5439,9.0445,-3.7702,2.986,7.6534,3.5872,
-7.4604,-5.7955,6.2821,-1.2733,-9.3555,-7.4218,-0.12607,2.0669,0.93499,6.0912,-3.544,5.2169,1.4097,6.7464,
4.0745,0.81895,-1.3257,0.24939,-2.5277,5.5567,-2.5286,0.49666,1.8428,6.6901,-0.9212,2.9757,-1.085,7.3055,
2.625,1.0108,-6.3074,-6.755,-1.6527,-1.7661,-4.0641,-5.5587,-2.3652,3.1552,0.8213,-5.6385,-1.7433,2.2879,
0.057329,1.4323,-1.5904,-2.9755,-5.892,-5.0346,-2.8562,0.55964,-0.29483,3.448,-0.19207,-2.8898,0.28972,5.0429,
-3.8027,-3.9565,1.8793,-0.38703,-13.2515,-4.2508,-2.2027,4.3822,1.6508,2.759,-0.66271,-3.1986,-2.62,-0.080605,
-11.2876,-9.5037,-3.054,-3.738,-15.8309,-10.2623,-3.0346,-0.7012,0.58768,2.5932,0.34115,-6.3814,-6.3194,-6.3421,
-10.3691,-2.4258,-3.5941,2.9942,-8.8553,-12.2979,-0.68336,0.064235,-0.65287,2.679,-1.8485,-1.4187,1.0497,4.8843,
-11.6749,-3.2441,5.7811,6.6709,-6.8777,-12.0419,3.214,1.9886,-2.5414,-2.3024,-7.5222,3.4871,5.3255,8.93,
3.1256,8.2785,3.2648,11.3321,7.635,2.7806,3.2624,8.377,-1.6663,4.3434,-4.9014,3.0367,1.8722,6.7072,
5.4684,13.0847,-4.6441,4.8674,16.4562,16.7138,-0.30804,7.8741,-5.9049,6.0113,0.21314,-4.8585,-6.4351,6.3045,
-4.2595,3.8635,0.69623,1.9242,1.3688,8.7213,2.8439,4.7506,-5.3091,-0.37496,2.3695,-5.7718,-5.3256,8.0954,
0.33442,9.416,-3.2022,6.1469,5.5045,12.5361,1.7092,3.9834,-3.0626,-1.317,-2.1112,-5.9077,-1.6318,8.0919,
-3.3011,11.0207,-7.1074,1.1988,4.9333,6.7227,-3.937,1.0933,-3.1198,-0.99703,-4.1537,-11.0968,-12.8621,-0.82978,
-4.0669,9.3953,-1.8605,2.0914,4.6375,-0.91148,-2.7367,3.438,-0.040351,1.4736,-1.0122,-10.4308,-16.4287,-3.6718,
-0.20766,7.1442,-0.06183,-0.68586,5.0824,1.7943,0.078866,2.9906,-1.243,4.0361,0.25361,-5.2259,-9.8996,-0.31872,
-3.3285,3.1005,-0.29909,-3.2958,-3.1763,0.48158,4.1715,-1.7686,-1.4094,5.4811,0.47936,1.1137,-10.5107,1.3876,
-1.4418,5.5654,-3.4144,0.51714,1.5933,-1.2345,4.1619,-3.8319,0.36218,5.393,-3.1646,-0.64062,-15.4239,4.92,
-10.755,-5.1324,1.8521,-4.5751,-9.8302,-14.8988,2.7074,-7.2169,1.5457,3.8646,-2.2518,-7.5916,-14.7392,-0.91879,
-18.5456,-9.8859,3.9102,-5.9878,-12.8558,-20.0304,0.85772,-4.6148,-0.23423,1.9455,-0.42948,-1.1105,-6.383,-7.3711,
-14.2994,-6.6412,-2.8321,-2.9772,0.20804,-9.4286,2.0118,-1.2046,-0.94331,-0.82212,0.31942,4.0175,-4.7948,-3.3137,
-14.1648,-13.2328,-2.9034,-5.4499,-4.8664,-9.1041,-0.27832,-7.64,-0.16358,-4.3884,1.5053,-4.1775,-14.3895,-3.3561,
-8.7356,-6.8953,2.3325,-5.3644,-1.4409,-6.8708,-0.021114,-6.4587,0.087204,-1.474,-0.75416,-6.096,-6.0545,-2.4318,
-13.0317,-8.4097,4.1207,-2.15,-6.1749,-11.2788,5.2833,-1.7324,2.0102,-0.90321,-1.6732,1.5006,3.4682,-2.7678,
-12.732,-8.8695,-2.3933,5.2096,-8.2148,-6.2638,2.0735,-0.6644,1.8893,-0.84924,-1.5726,6.713,-9.2736,-2.1196,
-7.8707,1.0629,-2.9726,6.1023,3.6061,5.4405,-3.1121,-1.8298,0.57113,2.8171,0.6909,-0.67967,-19.0813,2.1049,
-17.5214,-9.1242,-2.7942,-5.833,0.97958,-8.986,-2.4435,-8.4689,-3.3195,-1.6907,2.5776,-11.7261,-14.08,-2.8421,
-2.3701,-3.997,-3.8319,-3.3138,14.6591,0.10936,2.7648,-4.3454,-3.8437,0.09799,2.6639,-7.4071,0.50336,8.6571,
2.4721,-2.0702,0.97757,-2.8738,6.7899,9.0209,7.1785,-5.2897,-1.9256,0.81524,-0.62915,-3.3471,-2.1782,7.8965,
-4.4249,-10.1407,2.8471,-1.2551,-7.7175,-5.6204,6.2658,-7.3825,2.5282,0.76678,-1.0733,-0.7361,-5.4217,-5.1103,
4.9996,-5.1937,-3.1081,0.26623,-1.3489,-8.5367,2.5156,-6.4574,4.7869,4.095,-1.4911,1.2365,-1.7219,-1.9114,
10.0023,0.9025,-0.029065,-1.6779,-1.268,3.0625,1.8823,-6.0699,4.4997,4.3312,-1.4016,-1.2478,-11.2596,2.5416,
12.5354,5.91,1.6599,-0.8539,0.013412,5.0479,0.56454,-5.4648,3.0249,0.45594,-1.5585,-8.6448,-18.5378,0.70186,
5.2756,-0.47035,-1.5734,-5.8646,-4.5674,-7.5472,1.2533,-6.3419,0.67398,-2.2227,-0.25992,-8.8497,-8.9898,0.90049,
0.13834,-2.3705,-1.4792,-3.5847,-7.1856,-10.4689,5.0348,-6.9255,0.15138,2.7311,0.71977,1.3225,0.22644,2.7749,
5.9148,9.3413,0.055784,4.3436,1.4407,3.1747,4.2507,-6.51,1.5886,6.4236,0.67658,2.2075,-3.1614,5.5009,
-7.6967,-1.5835,1.2577,-2.425,-12.7458,-6.8979,0.86221,-5.8784,-0.19398,-1.9155,0.39502,-3.4686,-13.8182,-0.37322,
-15.4298,-9.2015,0.21794,-3.2438,-23.1889,-13.7149,0.81047,-0.70546,0.29959,-1.3187,-1.5569,-1.3327,-6.7223,-3.2429,
-12.5758,-3.3468,0.68703,-3.0489,-10.7104,-8.5535,1.2435,-2.5911,1.2457,3.5809,-2.4276,-1.7345,-3.4267,1.2902,
-7.7237,-0.97679,0.88677,-2.625,-2.114,-6.835,2.3742,-7.0149,1.8939,3.607,2.2974,-1.8714,-12.1389,7.2384,
-4.127,-4.5336,-7.1202,-0.78031,0.66414,-9.0764,1.9908,-7.7993,0.57494,2.6677,3.3648,-4.4106,-5.3851,3.1886,
-11.351,-11.7332,-0.18502,-2.9027,-8.2935,-16.4853,3.0767,-7.5723,0.29994,1.3028,3.4039,-6.7971,3.3742,-4.4745,
-10.188,-2.8345,6.5745,-1.2822,-2.4935,-3.9273,-0.4824,-1.8153,0.76388,0.26033,-2.103,-1.5686,-1.1668,0.6147,
-5.2384,3.1202,1.8415,-4.098,1.5127,2.5751,-1.4176,-1.2247,-2.1742,-2.1656,-3.9052,-5.3311,-8.8098,5.8802,
-3.7185,-0.68222,7.757,-2.1645,1.181,-8.4255,5.6574,-3.8023,-0.8385,-2.2767,0.42691,-12.9649,-6.5938,1.4301,
0.11976,5.8664,8.4964,2.5447,12.4383,-0.44812,4.5946,0.041236,1.8629,3.4035,-3.2141,-10.0179,-3.5468,-4.1993,
-6.6361,0.21202,9.4329,-2.4283,3.0151,1.9891,4.8013,-1.8894,5.6075,6.5738,-1.0931,0.22416,-6.7085,-6.3575,
-3.5868,-0.041899,12.4821,-1.5599,1.1468,-4.6382,7.1641,-4.4274,5.5123,3.0461,1.6238,5.7541,-4.619,-0.43268,
6.5105,6.9503,6.672,-0.26101,10.4782,-0.74422,4.0831,-2.9565,-0.84402,-0.27015,0.3211,-0.6167,-2.1724,3.6906,
4.6739,6.5332,4.8254,-0.24535,6.957,4.6028,0.4637,-5.1897,-1.2758,1.1923,2.7124,-3.4718,-3.4881,-2.3154,
5.8395,13.8543,4.0537,5.5542,11.842,10.5932,0.91804,-5.3604,5.5495,5.9413,2.5494,0.59271,0.095391,4.0903,
-4.3931,7.4794,-1.2512,-1.287,6.0703,-0.88843,1.5859,-6.7256,3.0473,2.4513,-0.73701,-6.4327,-7.3821,9.8704,
-1.4779,4.3793,-2.3807,-3.8607,8.3574,1.8162,1.7319,-4.635,-1.715,0.61722,1.4766,-8.2157,-7.6621,7.5912,
12.7107,9.4194,-1.7562,-0.25479,16.5328,13.7586,-2.2282,-3.8748,0.31629,-0.38391,1.8702,-5.7943,3.4027,6.6536,
10.3814,1.623,1.2413,-1.2038,4.9355,2.8099,-2.0949,-4.1247,8.492,2.0493,1.758,-2.5546,3.6805,6.2543,
-2.2926,-7.1511,-2.2072,-2.0955,2.2293,-6.0356,-1.0049,-5.8049,6.5367,2.8906,0.20622,-4.8115,-2.3247,7.3253,
-2.1553,-9.1324,3.2274,-1.0059,2.5774,-10.4941,1.4655,-6.9029,-0.12248,-1.1397,1.6401,-5.4871,-2.1855,5.4396,
5.4458,-0.14828,6.6494,2.1877,1.7001,-0.94642,-1.2733,-1.9092,-0.83826,1.5805,1.3005,2.3142,-0.84905,1.498,
2.7087,2.7527,-0.016529,3.0208,2.562,7.7872,-4.0894,0.13353,0.17591,5.3416,-0.70572,1.6929,-4.1728,0.92573,
-5.4073,-5.8482,4.5644,2.5984,0.23911,-4.008,0.25354,-4.454,1.3709,1.4059,3.9161,3.7607,-5.1273,1.5938,
9.0171,0.28731,1.3983,1.9603,9.8657,3.4631,-3.1364,-8.5253,-2.0861,-3.017,0.78888,2.0891,-5.7839,5.3543,
19.9246,7.5005,-3.5063,-2.0137,9.2738,13.3782,-2.9482,-7.0499,-2.9248,-5.2461,-1.1866,-6.7134,-3.0266,7.4432,
17.283,12.3533,-1.8499,-0.4464,12.0916,12.5758,-1.3248,-1.324,-0.82086,-4.4492,1.7768,-5.8284,7.2782,1.6942,
23.2357,15.2273,-8.2466,-3.0709,23.6584,20.2571,-6.7892,-7.2704,-6.3154,-4.4234,-1.463,-10.5402,6.1183,-2.0231,
26.1799,10.4573,-3.8954,-7.2255,17.9006,22.8981,-0.59722,-8.2804,-4.4903,-0.78356,-0.89331,-9.9078,-2.4437,2.437,
24.1274,10.312,-5.1078,-4.8635,10.0778,22.4883,-0.079226,-1.0345,-4.2211,1.6738,-5.6602,-4.9747,-2.779,3.7368,
18.8234,9.2113,-4.3194,0.24901,2.7243,18.2465,-2.4846,-1.4548,-3.4854,0.60906,-1.9461,-2.2661,5.5824,3.9946,
19.1395,7.2122,-2.1318,-0.73048,8.8276,14.2594,-0.88995,-6.188,-0.38446,-3.2841,-0.86526,-3.5766,1.873,4.2371,
22.8121,2.9233,-5.8605,-6.9529,13.6003,13.4041,-2.7645,-1.4782,-0.8431,-5.015,-10.4545,-10.1107,-1.6136,-1.802,
20.4793,-3.5189,-1.1703,-1.7157,-0.23089,9.7075,-0.67023,4.8773,1.6174,1.0702,-1.6323,-8.0576,9.5705,-1.2117,
23.5891,6.3335,-10.7408,1.28,12.3162,17.32,-5.9324,-6.9847,-4.264,-0.43955,-2.4985,-8.5382,10.4423,3.1996,
28.681,14.3889,-15.6402,-5.3046,25.6772,24.7163,-9.6741,-13.0734,-9.552,-4.5112,-12.7127,-16.4618,1.3798,3.7307,
30.3348,9.6694,-16.6298,-7.8786,29.0776,25.6436,-13.4322,-6.0222,-11.3888,-6.1685,-13.3959,-21.2589,-0.63091,4.9529,
30.9248,17.2844,-21.899,-9.334,30.2254,30.8539,-16.4826,-5.6609,-13.1156,-8.2085,-15.4847,-25.768,2.7814,7.5482,
26.9002,19.8628,-12.6308,-10.9432,31.063,27.7979,-5.1293,-6.0441,-6.3031,-5.5469,-13.3503,-23.9809,4.7837,2.5156,
28.6606,17.7067,-13.8016,-4.5025,31.6094,27.0939,-3.3758,-6.1639,-7.8531,-5.696,-13.0312,-22.0602,8.353,-5.3481,
38.2692,29.4187,-12.2502,-0.13449,38.6309,39.2065,-5.3424,-2.1782,-6.1766,-3.1851,-5.7419,-19.0489,18.6981,0.034459,
36.9369,37.2946,-7.6588,-6.3934,36.313,40.7105,-9.3602,-3.4937,-5.3241,-6.3684,-2.0229,-17.424,12.7555,-0.44954,
45.0852,47.8311,-9.3686,-3.358,42.5701,46.2219,-9.5217,-1.5971,-6.6921,-3.8169,-3.5885,-16.1374,9.3389,1.2644,
41.6568,42.7921,-10.9757,-4.8438,31.5803,36.4587,-6.7812,-4.1524,-7.9778,-2.865,-8.4349,-18.785,4.6812,0.9476,
44.701,43.84,-9.1118,-0.45578,29.444,32.102,-7.5796,-2.6984,-3.8837,-2.4521,-11.0623,-17.4169,3.195,-2.2427,
54.5526,55.3096,-9.0473,1.5,36.3547,41.2633,-10.981,1.3201,-1.7223,-1.8228,-11.3622,-15.4074,3.4855,-2.108,
43.3253,55.486,-6.8172,-2.2059,20.0734,32.7615,-10.0812,2.4457,-3.7881,-3.4007,-8.5118,-12.3138,-2.7492,1.6339,
32.2896,45.1669,-5.6853,-1.3506,4.769,21.8778,-9.2354,3.0224,-6.2124,-5.8477,-5.3495,-12.2983,-1.8613,0.81255,
25.0501,36.6723,-3.8979,-3.1973,2.7956,15.7449,-6.753,1.3948,-2.9471,-5.4969,-2.6184,-6.7397,7.8913,-7.4309,
23.5468,36.8819,-8.4845,-0.11366,11.3048,19.6207,-8.2763,0.34697,-2.2886,0.13535,-10.1743,-3.443,9.3458,-5.0571,
16.8311,27.9203,-14.7241,0.37532,9.18,13.1405,-9.7077,0.32592,-6.4898,-0.83687,-12.9381,-11.4314,-0.8557,1.0311,
6.1808,12.1451,-3.2354,-3.5036,-5.4708,-1.7479,-3.3406,3.1989,-1.7616,-2.7149,-1.0746,-8.8173,0.6419,-2.8871,
9.4253,7.9221,-3.7646,-5.4625,-2.8522,-2.7271,-8.2014,2.2841,-1.415,-2.7929,-5.1074,-7.083,7.5933,-2.4729,
3.5572,3.59,-4.0207,-5.1348,-3.6454,0.81048,-10.6018,-2.6737,-0.84814,-2.1434,-4.3191,-10.0324,2.317,2.4962,
-5.3336,-7.7124,1.041,-0.48814,-8.2472,-5.0225,-7.5554,-5.4056,2.5774,-2.497,0.27863,-9.4307,-2.6425,-1.5102,
-5.7365,-12.3114,-5.047,-1.1822,-5.1012,-2.0701,-7.8254,-3.394,4.1095,-0.65993,-0.94338,-8.1415,1.6134,-1.6606,
-10.9354,-15.67,2.2457,-4.2443,-14.1952,-7.9714,-1.8118,0.42505,8.9251,5.8876,3.693,2.7113,8.9888,2.0545,
-9.0745,-12.5602,3.3163,-0.85616,-13.5844,-11.5905,-2.9084,1.6048,4.7742,3.8471,-0.14403,5.1997,8.6905,2.1722,
-3.9505,-10.1201,2.3937,3.2923,-10.6004,-8.2437,-1.0469,3.6775,0.87209,-1.9275,3.9617,2.7183,3.5891,2.2826,
-8.0522,-13.3693,11.8911,3.0948,-17.1948,-12.0879,3.8366,3.9388,4.1942,0.1163,8.0628,6.8936,2.4098,0.69983,
-10.9433,-14.0131,14.0699,1.945,-20.0197,-17.6289,3.1243,4.1846,7.3168,4.9298,3.7224,5.9982,8.0496,0.17568,
-1.3687,-11.9675,11.0565,4.9618,-11.8287,-12.9562,1.7315,3.6926,6.1544,4.875,7.1145,4.915,11.1821,-0.55822,
10.2826,-4.5001,-3.7069,-1.6024,2.9811,-0.6092,-8.0133,-4.7237,-6.2659,-2.6479,0.90305,1.2461,1.3526,-2.9349,
6.5322,-3.9896,-5.051,-4.6398,3.8868,-1.7779,-3.4352,0.13901,-2.2746,-1.2842,2.5361,-0.51635,2.4762,2.3029,
-7.9598,-15.5601,8.0263,-0.2638,-10.4464,-15.7713,-0.57775,4.7102,4.8516,0.48032,5.9996,-0.24417,9.7997,-1.9324,
-2.7819,-14.1446,7.0628,2.1622,-8.0119,-15.4274,-1.9893,0.57119,2.6323,4.7898,3.229,5.0731,9.6936,-5.1909,
2.6876,-12.814,-0.5918,-0.3777,-5.603,-6.789,-0.90566,-1.8732,-1.3821,4.5024,0.14321,5.2507,-1.0113,-0.059186,
1.3211,-12.2861,-7.5462,0.8498,-5.0259,-2.2843,-4.9487,2.3365,-3.9502,-0.347,-3.4808,-2.0542,-1.1916,5.9699,
-7.917,-16.8513,3.9941,2.7272,-18.8243,-13.7166,-1.2775,4.1243,2.0711,0.15552,2.5124,0.47937,8.5211,4.1657,
-9.8523,-16.3224,11.9493,12.2048,-23.8409,-21.5703,5.5478,4.8414,10.6242,4.9671,10.0747,11.0561,11.8664,0.54152,
-3.4768,-9.5587,-2.8676,10.026,-8.3104,-9.1888,-2.4981,0.6943,1.3094,-0.63377,3.6854,2.6798,4.8877,-1.4194,
-4.4728,-10.1898,-2.3343,2.9167,-3.8349,-4.058,1.2675,1.3758,-0.45614,-2.7647,6.1156,-4.9526,0.49685,2.7634,
-5.1688,-12.4709,2.6264,-0.15032,-9.8714,-8.1533,3.6015,3.2214,1.9814,-3.5631,2.8566,-4.6559,1.4309,3.0795,
-3.1717,-11.4815,1.2638,-2.3107,-7.5921,-6.459,1.2165,3.2689,-0.30646,-3.5905,-1.8943,-3.171,9.299,4.5822,
-3.9452,-7.4186,0.22364,-0.24386,-4.244,-3.179,3.0717,3.5551,-2.6987,-1.9288,4.9678,-2.0169,9.223,1.8967,
1.3527,0.98072,-2.9233,2.4219,5.4106,0.6272,3.1284,3.5828,-3.2596,-1.5721,2.9825,-2.1369,4.5723,-4.2427,
-4.0307,-6.309,2.0728,-2.5437,-6.9656,-8.0875,5.8327,4.3317,-1.6178,-0.51349,-2.0167,3.294,7.6724,-3.9881,
-10.5375,-12.1972,2.4306,0.019282,-14.2602,-10.4946,5.0011,7.9284,-1.039,2.8915,1.4785,8.3988,10.5863,5.4104,
-9.9052,-10.0191,-1.5716,-0.46381,-10.5125,-8.9006,-0.11971,1.6681,0.46957,0.78986,0.90786,2.5922,5.1308,5.5677,
-5.2138,-10.1411,4.548,-0.67718,-6.2661,-11.0179,3.9851,0.36297,5.9852,0.98366,-0.35167,5.5699,7.9563,1.618,
-2.0087,-9.0504,-2.9555,-2.0826,2.7867,-7.4645,3.7457,1.3053,-0.15868,-3.4139,-4.1872,2.3434,7.4791,-1.3714,
-9.6009,-9.9537,0.11438,-2.9219,-7.0215,-11.8369,5.4492,2.1908,4.6716,-0.79894,6.6693,4.1315,7.0304,-2.7349,
-18.4249,-16.3461,9.9892,0.86856,-20.7002,-19.0809,4.3991,3.7464,7.0426,1.4184,6.9923,10.8732,6.8493,-2.812,
-24.309,-25.2475,10.1132,5.3962,-33.5582,-21.0693,4.8585,4.245,0.11209,-1.3183,1.993,10.4618,-0.06939,0.97216,
-35.3837,-37.7122,12.399,4.5905,-45.6447,-33.9051,7.9415,1.5801,2.5159,-2.203,7.1761,13.6905,-7.778,-3.4247,
-34.4659,-33.7623,11.8956,9.3764,-45.196,-45.0068,3.3673,6.0647,6.9444,-0.86591,6.0225,13.1101,-3.6958,-9.2449,
-26.3723,-26.1929,12.8695,10.019,-33.5663,-30.4959,3.8882,9.3162,4.8404,-1.537,5.9022,7.2617,1.5875,-9.4132,
-18.5233,-22.6932,13.5432,5.5616,-23.8394,-19.5073,5.5835,3.9366,2.6219,-0.96271,5.0661,8.7543,0.52806,-4.0278,
-23.6785,-25.67,12.7307,5.2275,-29.1578,-24.6035,6.2125,2.7366,6.3211,-0.4229,4.28,12.0856,-0.94977,1.5164,
-36.3578,-38.1094,11.4845,2.0218,-41.5084,-37.2273,6.8036,3.0541,6.9057,-2.3257,5.9514,11.3605,-9.0877,-5.3235,
-28.2712,-28.5918,4.0471,2.3826,-39.8614,-39.2116,0.6109,0.94305,0.70687,1.1884,5.5942,9.7146,-7.0963,-6.9322,
-21.5133,-22.7789,7.9017,3.4446,-36.2645,-27.4588,-0.63093,-0.31894,2.3518,2.8044,6.4638,9.3728,3.2117,-4.347,
-32.997,-33.2227,14.4173,2.0328,-48.1886,-38.5859,3.9864,4.2797,8.236,-0.97948,3.4246,11.9437,-7.3453,-10.1119,
-22.5814,-25.6856,8.9728,1.6698,-43.2487,-35.0654,3.5062,6.6741,5.0906,1.7305,1.532,13.8785,-4.7353,-10.7102,
-17.1289,-22.9394,8.6754,-0.11764,-37.5203,-26.454,0.16255,1.6944,-0.75841,2.3498,4.5734,13.2868,-18.5512,-7.8984,
-19.9576,-26.3835,9.6009,1.3359,-38.1614,-26.3127,0.63473,2.5566,0.25119,2.2088,3.817,15.3819,-31.5381,-4.5322,
-28.8833,-36.3697,9.5068,-4.5293,-43.1026,-38.834,1.0788,2.8854,1.6821,-0.81601,3.1058,14.4589,-43.7458,-7.1526,
-36.5504,-42.6235,11.1059,-4.0162,-47.0242,-50.6039,-0.67326,-0.90306,1.8223,-1.4901,4.6068,12.8684,-55.2211,-11.3028,
-30.5007,-34.2813,8.5114,2.4913,-36.0078,-43.2293,-0.1507,-0.84887,3.6412,3.9018,3.8483,14.5064,-66.0078,-11.1068,
-24.0914,-27.6451,7.7595,0.65479,-27.3397,-37.9842,3.4738,-0.55697,3.1817,1.0163,0.96604,18.2156,-76.1473,-10.6814,
-8.5459,-12.489,7.776,5.4359,-11.5993,-21.6051,6.1575,3.3327,2.5088,-0.4908,0.90819,13.7483,-85.6785,2.9748,
-6.9484,-16.801,4.176,0.048158,-11.7467,-14.4038,1.2087,0.48154,2.5993,-0.7022,1.5767,-1.1766,-94.6378,1.5914,
-17.6188,-25.434,3.9256,-3.3291,-19.7189,-23.6626,-1.2741,-2.9217,5.8179,-2.5884,3.8924,-3.1547,-103.0595,-12.4837,
-4.0283,-9.8079,0.79765,3.1373,-4.4358,-8.1428,2.1767,1.1101,6.9148,-1.951,2.2127,3.3012,-110.9759,-3.0577,
-2.5815,-6.6887,-0.45527,-0.66613,4.1457,-5.1235,4.6974,0.80231,5.2948,-2.0749,2.3209,-2.9226,-118.4174,5.5616,
0.22491,-9.4207,-3.5614,-1.8315,5.5842,-5.539,1.7645,0.031273,1.8436,-2.6736,2.9047,-2.0239,-125.4123,-1.2798,
5.7548,-2.3477,-4.0707,-3.8907,15.6132,8.8933,0.93524,1.7166,1.0101,-2.7541,2.9714,-0.69765,-110.4157,-0.96201,
-2.3033,3.0956,0.030199,-6.5496,13.2302,9.9263,1.8432,-0.3148,2.8775,0.30342,-0.099144,-3.5481,-100.4165,1.5061,
6.9937,14.479,-1.4179,1.0742,20.1491,16.0794,2.697,2.5966,7.0432,7.998,-1.5395,-1.8889,-86.6788,1.4155,
10.6717,9.031,-4.9485,-2.1235,16.771,11.4992,-0.11619,-1.1748,2.5234,3.9029,1.2042,-1.0525,-75.4523,-1.3205,
10.0314,11.8633,-3.6872,-3.4423,21.5493,13.7015,-3.0017,0.82385,1.4077,1.7405,4.0245,-0.024995,-61.7661,5.9893,
7.2601,16.6951,-4.6713,-4.4411,11.8205,18.905,-1.6163,6.8,3.4924,3.3229,-1.7606,-2.675,-57.8192,9.2454,
1.7629,11.596,1.1523,-1.5234,-2.9887,13.1913,2.5781,8.0793,4.9702,2.4007,-1.4141,3.5111,-53.1451,0.25462,
12.2624,20.0591,-4.7011,4.3529,11.2906,22.0409,-1.4331,4.7024,-1.5946,-1.5998,2.5273,2.3365,-41.7615,-2.1709,
17.5524,24.3992,-6.5882,1.9226,24.7131,29.6367,-1.5881,3.2154,-6.0782,-3.1911,-0.27548,-6.7218,-35.6402,6.8774,
10.4735,21.7302,-4.024,-1.3265,9.1304,27.1349,-3.1802,2.7813,-4.9909,-2.2765,-10.623,-5.5953,-34.2249,9.598,
7.9169,22.3546,-3.7825,0.6813,12.1977,23.5786,-2.5075,4.0602,1.5755,-0.69408,-4.6835,4.3813,-25.423,6.612,
6.9599,14.7465,-1.1452,-1.7695,17.2507,15.4152,-0.42861,2.8525,4.8552,-3.5443,5.2387,2.6724,-16.1846,2.3587,
12.3269,16.2719,-0.11219,0.26489,20.072,21.7212,-2.813,4.1276,3.6001,1.4886,2.9962,-2.3086,-8.4648,7.0379,
5.0794,7.8238,2.0635,0.48973,5.6111,15.3562,0.0070807,-0.21764,3.6248,3.0863,-1.7633,1.9275,-7.716,5.8925,
7.9081,1.3288,0.73483,-0.26255,10.3361,9.3734,4.104,-0.92748,7.987,-0.71381,-0.93438,0.60653,-2.1913,3.8517,
14.4235,8.2389,-1.9606,-3.3801,23.8159,16.2828,-1.2037,3.2258,7.7486,1.016,3.2193,-7.8658,9.2683,5.79,
2.712,6.5395,-0.63788,-4.8642,9.7335,15.0651,-6.1929,1.3452,3.6685,1.6782,5.6774,-5.7064,6.5433,2.7913,
7.6108,15.5472,-4.215,-0.47504,14.6931,25.4891,-3.1702,1.0235,2.2435,4.229,3.6496,-1.2666,5.9095,4.311,
2.8156,17.5064,-3.4802,-6.7135,13.3291,17.6933,-2.0157,-1.9304,0.18025,3.011,-0.4258,-7.4571,11.8215,0.6779,
-5.3073,10.4305,4.6826,-2.6955,1.2012,2.5317,1.2385,1.3187,4.267,5.4816,0.80481,1.9077,16.6558,-0.085903,
1.519,11.4919,3.1966,4.9383,6.6727,6.8386,0.44106,2.9266,6.1804,9.7323,1.4797,8.3014,19.2719,4.0168,
-1.4644,10.8023,0.11225,0.30364,9.1649,8.8386,-4.8881,-3.0336,3.399,7.2201,4.7653,-0.39188,26.3105,-2.4907,
1.5158,11.1185,-2.3046,-1.6428,11.507,7.8262,-3.1485,-4.2979,1.2668,7.2689,6.4076,0.11403,38.8318,-3.7875,
1.6658,3.9435,-5.2994,-7.5698,3.827,-0.11499,-1.2724,-4.281,2.3961,8.5199,2.8897,0.34815,50.6019,1.5014,
-0.84429,3.7069,-4.0175,-4.7054,-0.25905,-0.10809,-5.5344,-4.0241,0.8061,8.0088,3.6806,-1.6009,61.6658,3.8215,
0.89336,9.0281,-4.4994,2.0844,-0.48447,5.9239,-9.3001,-4.9875,-5.7497,-0.90745,1.2906,-3.674,72.0659,-0.023244,
-9.5246,-1.8779,0.83181,-2.6204,-12.7479,-7.6881,-1.2703,-3.0015,-2.2717,-5.4327,0.0078796,-1.2849,81.8419,-6.0479,
-10.3989,-3.6932,-1.1463,-2.4628,-6.1982,-6.2625,-4.0861,0.55307,-1.1711,0.6778,-5.2952,-3.6179,91.0314,-2.3101,
-3.2675,2.5539,-9.0315,-2.5562,2.6096,8.2132,-12.2773,-4.5416,-9.5367,-3.4605,-7.6288,-13.283,99.6695,6.264,
-1.8659,3.1243,-2.4634,-3.1255,-1.1622,12.9026,-5.5145,-5.4741,-2.9388,-4.9398,0.78285,-8.388,96.9433,7.0937,
-13.3236,-2.3663,1.0584,-6.3129,-8.3238,4.4152,-7.5944,-1.2893,2.5398,-1.2694,-2.6386,-4.5107,99.8034,1.8473,
-19.9957,-11.6241,-2.6203,-9.5493,-9.5111,-2.3572,-16.5385,-4.3452,-6.5305,-5.2904,-7.5417,-6.8914,97.9127,4.8697,
-4.696,3.1734,-7.284,-1.2638,5.1596,11.7635,-12.6541,-5.0486,-5.1745,-4.0089,-0.34053,-2.1394,92.0377,13.7364,
0.7677,7.6827,-10.2209,-7.4545,11.9601,9.6119,-7.5561,-5.71,-1.9716,-3.7683,3.0544,-8.2775,83.141,2.7893,
-11.8118,-3.8655,-2.3771,-9.8995,-1.7729,0.35812,-6.6208,-2.957,-1.8535,-1.1319,1.907,-7.7811,86.3475,-3.6448,
-4.8362,-1.7051,-1.2701,-2.5566,12.4335,8.5316,-8.1515,-2.7796,-7.5269,2.3105,-4.9559,1.8448,91.7719,3.3228,
2.2027,4.6637,2.6625,-1.9213,14.9414,7.0556,-2.3598,-3.5767,-6.5933,5.0639,0.16174,7.0368,81.4449,4.0873,
3.7577,7.9995,-2.5587,-1.5648,2.7167,8.8014,-5.8338,1.2174,-7.4028,1.1449,2.8034,2.9994,67.6404,-0.73702,
3.0499,4.1449,-8.19,-1.4712,3.0357,16.9502,-7.4122,3.5543,-5.0302,-0.3703,-0.25714,3.783,70.8126,1.7171,
-2.4355,-7.1908,-0.94971,-3.3106,3.3357,1.8332,-1.1825,-2.9255,0.57427,1.0982,-0.72364,12.2332,72.3489,3.0603,
1.0851,-1.9386,-1.8573,-4.0765,9.884,-5.3869,-4.9681,-3.7141,-4.7631,-3.3063,-5.5012,7.6426,61.7412,3.8408,
-0.90823,3.4799,-0.78152,0.02444,-1.3141,6.0233,-9.0084,1.8114,-4.4773,-4.5537,-0.83232,6.7021,53.6979,2.1641,
-7.1205,-0.58532,-3.6271,-0.45896,-6.5377,9.0363,-14.2527,-1.1898,-4.2086,-3.3166,1.1458,14.0127,47.1021,-4.2323,
-2.8369,-2.9606,-6.3018,-3.3237,2.5315,3.6737,-13.3975,-2.5644,-5.4022,0.25662,2.5231,11.244,44.2757,-0.12216,
-7.9691,-12.4237,1.7893,-5.5346,-11.5999,-10.6468,-6.3269,-1.4465,-3.632,-3.133,1.4076,5.2669,45.4758,0.84972,
-6.0449,-9.75,3.128,0.10031,-12.3502,-5.5489,-4.0191,-2.3238,-1.968,-2.9448,-5.9075,5.9146,47.5677,2.7267,
-2.0668,-6.9957,0.77137,0.33549,-10.8858,-1.6006,-2.0907,-1.4612,-1.6088,-0.59871,-0.97349,5.3189,42.0623,1.84,
-0.97868,-5.6118,-1.685,-0.64897,-5.4122,2.834,-4.8576,2.9648,-3.4404,-2.491,0.048788,7.4099,33.754,1.2476,
1.7314,0.75067,-6.1635,-0.36883,9.0125,16.764,-10.5917,-1.7926,-2.9928,-4.5109,-7.9076,3.8321,37.2722,8.1624,
3.3147,2.3926,-1.2146,-1.0698,13.1715,12.263,-4.4128,-4.8183,4.6583,-2.5533,1.9666,1.9152,44.918,9.8421,
5.0438,1.7667,-0.17739,-1.97,4.1863,3.8144,-1.7379,1.2554,2.9326,-4.8102,3.7768,3.728,37.8846,0.57444,
2.331,1.1787,8.0282,1.5225,0.07898,5.0318,0.77673,8.4106,3.7207,-3.0756,0.65788,11.6992,29.3448,1.0221,
2.1909,-2.2664,7.5463,0.46701,1.5203,3.7656,-6.5007,3.0855,2.5334,-3.8551,-1.7919,9.0693,25.6557,1.9249,
12.1828,1.2442,1.7911,-1.007,1.9112,8.3604,-7.5565,1.4544,3.3459,-0.73152,-1.6842,2.2584,27.9729,-1.0829,
3.4979,-7.7485,7.227,-0.22349,-12.3035,-1.0593,0.85043,0.64397,4.3498,-0.44643,0.58578,5.7381,22.197,-4.6336,
0.15455,-6.5607,8.4806,4.8511,-19.1578,-3.6471,0.55844,1.3282,3.8478,-1.6249,-0.1725,12.3837,20.6242,0.22421,
0.86863,-2.5514,5.8026,3.3552,-11.0184,-1.2589,-3.0903,0.043703,3.376,-2.2503,-2.3311,11.3997,18.1819,0.93365,
-2.5582,-5.2908,7.3826,4.1178,-14.2139,-3.1118,-1.459,0.04108,3.6554,-1.6334,0.21892,10.2333,15.6443,0.3957,
-6.0196,-7.6245,9.1088,4.5941,-17.4582,-5.094,-0.16598,-0.20235,3.1955,-1.2944,1.893,8.8969,13.0189,-0.35117,
-10.4791,-11.0235,9.0446,3.8364,-21.7133,-8.1627,-0.15613,-1.1542,2.0394,-2.1807,2.7434,6.4348,9.3455,-2.2582,
-14.4298,-13.9773,9.7072,2.8833,-24.99,-10.3243,0.094431,-2.2902,0.71217,-2.773,3.3019,4.3615,6.1333,-3.3278,
-17.1793,-16.272,10.8117,3.4333,-27.5881,-11.8741,1.2937,-2.3939,0.91052,-2.3656,5.2731,3.3765,4.0782,-3.8513,
-20.0052,-17.7061,12.0914,4.1914,-30.2713,-13.0898,2.1802,-2.2503,0.37349,-2.2236,6.8849,2.2098,2.3874,-4.1022,
-28.446,-22.4284,19.5605,8.7601,-39.5422,-19.0532,3.0134,0.77715,4.2076,-2.0903,2.1334,9.308,10.9207,-6.7485,
-18.5444,-18.6724,17.9046,7.7526,-27.5288,-11.6434,7.171,1.6945,2.509,-4.3751,4.4156,12.1241,8.3374,-1.041,
-9.4779,-10.5623,8.8767,7.0462,-15.995,-12.15,5.5356,-0.57644,-5.5954,-2.9075,4.8737,12.1196,5.1857,-1.2196,
-17.345,-14.508,12.4413,5.9004,-27.8096,-25.521,1.5881,-2.229,-6.9468,-1.0459,3.3761,14.0439,5.1159,-6.208,
-23.5349,-22.7966,19.89,4.1006,-40.2411,-31.8229,5.8314,-1.6131,2.1469,-1.9472,7.5121,12.7189,-2.4219,-5.3534,
-17.5433,-17.8133,12.6711,7.47,-32.1623,-26.2981,8.1328,-1.2753,4.1875,-2.0714,2.964,7.3764,-2.0354,-1.8987,
-17.6959,-12.6471,14.0798,12.0833,-23.7249,-28.3357,8.3679,0.97048,3.213,0.70412,-1.3113,11.5135,9.897,-4.9181,
-11.3316,-7.0679,13.2352,9.9117,-16.9989,-21.815,6.9018,-1.9802,0.60995,1.6261,0.21351,10.8223,3.0363,-9.9258,
-7.7595,-7.6078,4.2462,0.15833,-25.6201,-16.1676,6.4876,-7.1639,-1.355,2.4925,3.575,2.4606,-8.2328,-8.8482,
-17.8989,-20.1666,5.9195,-2.2614,-38.1829,-27.2488,4.1703,-4.3238,0.17271,1.379,2.8785,6.1692,-2.4365,-5.9069,
-13.4506,-17.0285,7.4924,5.105,-22.7557,-23.6858,0.063537,2.2025,2.5726,-2.5603,1.2596,10.1373,-1.8083,-4.1063,
-11.9207,-12.3914,7.766,4.0756,-20.1853,-20.5774,1.747,0.86504,1.2129,-3.6117,4.7995,5.9138,-15.7998,-6.0293,
-13.8567,-8.0326,5.6132,6.4825,-22.5898,-19.5839,2.8473,-0.39204,-2.4751,-2.1898,3.3063,6.2822,-8.4644,-5.4265,
-8.9279,-5.3813,1.6607,7.7805,-8.9421,-14.7934,6.7738,3.2469,-0.15747,-4.7098,1.4207,3.7359,6.1434,-2.4496,
-13.9357,-15.9045,5.1766,0.32393,-15.8772,-24.2698,9.5008,-2.9736,0.57522,-3.7042,1.0944,1.3427,-8.3252,-9.2923,
-7.556,-10.371,7.035,4.4021,-14.6836,-18.2343,6.2794,-4.4824,-0.66458,7.3643,0.78777,4.3954,-16.7439,-7.0476,
-11.2,-13.3639,4.9261,2.4507,-12.5973,-22.2017,2.7694,-3.4903,-2.3117,3.7892,1.4636,0.51627,-8.7493,-5.4197,
-14.1434,-14.2493,8.246,3.509,-8.7082,-22.0747,6.2186,-0.62957,2.4065,-1.4998,4.0271,4.1007,-3.1627,-6.7817,
-2.9308,-2.5482,7.5101,4.9855,-2.6422,-7.4939,6.0864,-2.7611,2.021,-0.20464,2.5803,3.1317,-3.6962,-1.7952,
0.37842,-3.6005,8.2645,-0.85754,-7.0631,-14.516,5.9623,-5.7288,-1.2336,-0.43345,3.1485,0.77425,-4.1974,0.48158,
3.7303,-0.97399,3.4304,-2.2518,-5.1932,-16.0552,4.6406,-0.56445,-2.1236,2.003,-1.3788,4.5843,-2.9814,-4.8496,
0.37309,-1.1566,1.537,-1.876,-9.9432,-11.4766,5.0851,-3.664,-0.7912,5.9801,-0.57308,7.4424,-4.4898,-9.1383,
-4.7111,-10.4873,0.72176,-2.9684,-11.9978,-18.7419,4.0568,-8.5057,-2.4308,1.0419,0.18455,2.8984,-9.7639,-6.9029,
-1.2949,-6.7249,-1.0088,-2.0674,1.9785,-13.52,5.9828,-0.52354,-2.5262,-0.70786,-3.4422,1.0372,-10.8653,0.50096,
-6.5198,-3.429,3.3902,-0.49701,6.1982,-5.96,4.6596,0.47209,1.4819,0.78076,-1.7893,2.9033,-5.875,-4.8314,
-0.82605,2.5612,1.2587,5.3175,15.4672,-2.2281,1.4876,-1.4845,2.357,0.25187,1.6924,-0.16329,5.5649,-6.952,
-4.1509,-0.48472,0.70124,4.0341,3.9341,-15.1096,2.3627,1.979,-1.6406,-3.1377,2.555,-4.9737,7.1592,-4.6064,
-11.3736,-5.9991,3.7925,4.0329,-5.7019,-17.3366,1.9798,5.4755,-2.2654,-3.6725,1.1965,-1.06,1.6678,-5.0533,
-0.32707,2.7967,-3.9071,5.4784,8.7403,-2.1964,1.1379,-0.3966,-1.4064,0.16331,-1.0444,-3.1658,-1.5655,-2.0988,
-3.6819,1.1829,-0.29794,1.7755,-2.7509,-12.549,7.8185,-5.1933,-0.35789,0.15352,-2.428,-4.4219,-1.4716,-0.044664,
-11.8967,-2.5035,3.3351,2.874,-10.0574,-16.3756,5.18,0.66192,-2.0236,-1.5429,-6.8616,1.8692,5.6066,-0.76488,
-7.5677,-0.6663,-1.9264,1.0141,4.646,-1.293,0.28972,2.3094,-0.215,1.201,-2.8348,-0.89427,5.029,-1.4424,
-2.7752,-0.62621,-3.2572,-1.457,4.9696,5.6536,2.6826,-4.5779,2.2081,4.5033,0.22773,-3.2509,-2.9856,-2.802,
6.0683,3.7498,1.2769,0.55899,2.7433,-0.95225,5.414,-7.1957,-0.81675,5.6792,-2.6783,1.2824,-0.39625,0.25857,
12.4529,2.0786,1.6822,-3.3309,9.8093,-5.7156,5.0892,-5.7998,-2.2138,2.9281,-2.5176,0.72352,-1.8185,0.72499,
13.8749,5.5693,-2.0342,0.48434,16.6926,1.6172,3.0966,0.57395,-1.84,1.0654,-5.982,-1.489,-3.8786,2.8509,
0.50925,4.7531,4.3545,1.4193,1.591,-1.3722,1.4647,2.4676,-2.6936,-0.92682,-10.4434,-4.2921,-0.75367,-0.21258,
1.6838,5.191,7.2265,-1.7996,-2.4814,-0.56676,2.0999,1.1145,-1.3269,0.33385,-4.2735,-0.41893,1.9429,-4.2972,
15.6827,18.8591,-5.2582,-1.2092,11.7675,13.5672,2.4559,0.56567,-1.2473,1.2779,-5.4631,1.5344,2.7906,3.6734,
13.8982,13.6302,-4.2196,-4.2699,6.3616,10.4636,5.9239,-2.1196,0.51479,0.96028,-6.3404,-3.1372,2.8639,4.1761,
10.4129,12.0892,4.4693,-0.39833,12.9696,8.6305,4.3634,-1.7515,2.6531,6.9282,-1.8626,-0.77979,4.8613,3.6844,
23.2858,18.5945,0.34475,3.9639,26.2914,21.1281,1.6913,-1.1642,0.56568,9.8872,-2.2328,2.1595,3.1238,10.2122,
13.6936,10.7302,-3.532,2.7621,10.6139,11.1834,1.1077,-0.13037,-2.3607,4.4731,-3.5449,-1.3446,0.043718,10.0815,
7.5695,10.5684,-6.2128,0.186,12.3873,13.8868,-3.297,-0.12255,-2.219,3.2407,-5.2604,-6.0844,3.4158,10.4407,
8.3203,9.2112,-7.045,-5.3689,25.7441,23.4176,1.4802,-4.6946,-0.39877,5.6977,-1.8117,-5.4785,6.8261,8.6091,
5.8931,1.428,-7.5862,-6.0106,30.5868,16.7101,7.176,-4.8949,-2.785,3.9095,-2.1849,-7.078,8.8267,5.2003,
7.7086,3.9935,-4.4798,-2.5168,26.1001,14.0202,3.1301,-0.98586,-5.2691,1.9878,-2.7768,-9.3043,10.4664,7.5395,
7.0051,7.8512,-0.11364,-2.6068,20.9187,15.8303,2.2192,-1.1679,-1.8197,4.5197,0.04088,-2.2386,1.8846,5.882,
6.8258,8.1033,-7.5789,0.68286,19.4226,19.46,2.327,-0.85663,2.3869,5.454,-1.6486,-1.3811,-3.7723,5.2882,
-0.81451,1.8324,-8.0881,-1.7683,12.4726,11.0617,0.74121,0.64091,0.7975,0.30595,-2.9958,-7.0829,-1.1355,6.417,
2.3678,8.7123,-2.0592,-5.2777,19.6782,11.603,0.45577,1.8075,-3.8296,1.4929,-3.5392,-6.417,4.4763,5.3089,
13.0719,15.1793,-5.5507,-7.6122,26.9335,17.8966,-0.29459,-3.8444,-3.8407,6.4649,-2.1217,-7.2369,2.5204,6.6774,
4.8158,0.16859,-9.3153,-9.3244,11.2175,10.3151,-1,-6.747,-3.3695,1.0155,-3.1994,-3.6695,-11.7309,6.9999,
3.0807,1.002,-8.7565,-5.873,6.5675,17.4091,0.5061,1.8526,-4.6135,-0.49177,-5.8999,4.2638,-9.7014,8.0261,
3.8597,8.1725,-3.8925,-6.9667,19.1886,14.4363,2.8859,1.2593,-6.7471,0.019665,-5.0639,2.0796,-0.4424,5.6163,
10.8591,9.1285,-0.7668,-1.2459,19.0015,9.7139,1.7487,0.7017,-6.3421,-3.3556,-6.206,-4.794,-3.3078,6.7255,
23.2229,15.8115,-6.9874,3.1671,25.0921,23.2311,-1.7305,7.4084,-4.9976,-3.6363,-3.4236,-9.8091,-2.6275,12.5888,
10.2603,6.6679,-5.1221,-4.7355,19.2483,14.4858,0.30149,1.1793,-3.2515,0.43846,0.15623,-10.1842,4.2788,5.0846,
6.9934,3.6165,-2.6457,-0.35402,13.5139,4.6985,2.9347,0.38541,-1.8513,6.9196,-4.4327,-3.0657,3.7811,0.68215,
10.4302,3.3995,-6.825,-0.81494,1.1337,8.7552,-2.544,0.84445,-2.2224,5.058,-5.1308,-2.882,-8.979,5.4615,
4.9838,1.7494,-2.0771,-4.1404,6.3682,12.5683,-6.7298,-1.1348,-0.6427,5.2365,3.3719,-1.2627,-5.0662,13.811,
2.9977,3.3316,-2.1936,-2.6869,20.0861,10.6091,-0.7824,-0.34331,-1.3273,4.6816,-0.44563,-3.3558,4.1561,9.8491,
0.64837,-0.48379,-5.1952,-5.1769,11.0475,2.0187,2.3977,-1.046,-2.4526,-3.0712,-3.0703,-7.2524,-2.6013,0.82189,
3.984,5.8121,-1.5094,-0.045909,15.6874,9.1283,-0.63835,-0.98308,-1.3414,-0.4767,0.97039,-1.5145,-3.409,11.378,
-1.5577,0.64289,1.9557,0.92117,16.6744,6.1705,-0.11788,-3.8164,-1.7431,2.9264,-1.9801,-3.3518,-0.31239,11.6592,
-0.5001,-2.7701,-2.0183,-2.0264,14.2277,-0.94862,2.2993,-3.1055,0.28966,2.2686,-1.8613,-8.9355,0.18852,-2.0556,
7.2428,8.4834,-5.2715,-0.94082,22.051,9.2315,0.23328,2.3834,2.2006,5.989,0.17844,-5.5068,2.1055,-1.4502,
-4.279,-1.6668,5.1679,0.56166,6.6279,-0.48139,0.70121,-0.16974,0.6223,4.1834,-3.6886,-1.8021,-0.9131,-0.39908,
4.1727,-0.12052,1.9655,3.9022,4.4225,0.99376,2.1054,-3.534,-3.2714,1.0403,-5.3955,-4.5863,-6.1612,0.58896,
18.0223,13.9867,-7.7934,0.77599,18.2572,15.0341,0.050654,0.53465,-2.1108,4.3519,2.1588,-9.1318,-4.8272,7.3021,
9.5897,8.2065,-4.4335,-0.23467,14.149,9.1909,-1.8803,0.020405,-0.056205,-0.72923,3.4755,-10.03,-2.1272,4.4541,
7.5681,6.7499,-2.7213,5.0819,13.3002,5.7473,-0.80355,-2.8732,-1.0168,-5.5063,-6.3738,-9.4283,-3.9279,2.2585,
10.2474,11.8884,-3.2813,-0.28454,6.4763,8.0536,0.44985,1.3966,2.1773,1.3317,-1.8942,-3.3188,-6.8256,-1.0104,
3.6069,9.9702,-10.5559,-3.883,0.062258,5.8833,-7.531,5.4103,3.7343,1.4931,-0.093177,-1.4326,-2.8007,-4.0831,
-2.394,5.0335,-15.2251,-1.7217,2.4688,7.4586,-9.4892,2.1933,-2.7566,-2.4528,-9.2465,-8.5774,-4.5608,4.3569,
0.40076,1.598,-5.8759,1.5151,-2.2589,6.7699,-1.4485,2.3027,-1.8683,7.5763,-7.9688,-3.4834,-15.6153,10.603,
2.0639,0.77925,-10.1028,-1.7091,-1.8824,2.7483,-6.4228,0.95943,-1.5151,8.8087,-5.3213,-3.0332,-12.9914,5.8697,
-6.9781,-0.95484,-6.3633,-5.7045,-4.9028,-2.4782,-5.3146,-0.30331,-0.21897,0.8083,0.54125,-7.913,-1.3658,5.7583,
-4.8722,1.7538,1.9725,1.1455,-1.4754,8.9987,-0.89816,2.3664,-2.8574,1.9649,-1.1782,-8.6433,-5.3814,7.5818,
8.4355,7.9149,-4.8949,5.8974,11.6284,22.5588,-2.2904,6.0807,-7.0241,2.8112,-4.964,-10.535,-5.0586,5.681,
7.6884,4.3068,-6.2882,0.48209,6.3512,12.1666,-1.4299,5.9566,-5.3976,-3.8652,-2.497,-13.5181,4.1632,0.76058,
14.6989,15.3766,-4.2239,1.1763,12.4779,15.052,0.34293,1.5021,-1.9405,-4.8384,-0.17805,-12.9482,3.1903,-1.4544,
19.3608,18.5516,-5.1751,-2.0275,20.6477,20.6571,2.4917,-8.47,-3.993,-4.7888,1.0384,-12.894,-8.8111,-3.0542,
18.681,9.2434,-0.5266,-1.4238,15.5519,13.6327,6.1987,-5.5518,-4.7179,-3.0555,1.4577,-9.7105,-6.8365,3.8776,
12.9806,7.9659,2.6385,1.7946,7.6291,9.1993,4.1396,-0.63913,-2.7476,0.26127,-2.2452,-7.4407,1.5274,8.2247,
6.8993,12.3084,2.4802,2.1693,10.0639,16.3604,2.445,0.84548,-2.1006,0.72753,1.264,-3.1374,4.8103,7.7312,
12.993,13.257,-8.5148,-1.5761,15.0033,24.2967,-2.2814,0.071734,-8.0004,-5.8239,0.46488,-8.0112,2.8345,6.5441,
10.2854,3.785,-1.7369,-1.4816,0.60601,8.7389,2.6762,-1.3788,-0.77149,-4.5102,6.2218,-8.012,4.1107,3.7413,
-0.93699,-3.6732,5.1157,1.0175,-2.8048,-5.8854,1.5516,-8.5269,3.6131,-2.3116,6.8126,-0.78281,0.48962,-4.6781,
7.3142,6.6703,-0.01192,-0.0079185,8.4507,1.4573,2.4226,-7.0512,-0.94199,-0.72642,1.1012,0.71042,-0.50409,-1.987,
3.5011,1.9318,1.4353,-4.8275,3.6054,-2.9684,8.062,-4.2178,-3.7778,-2.6113,1.5173,-6.0809,-1.9199,1.9888,
-1.5297,-2.5227,-1.061,-2.6101,15.4401,-10.5033,2.7576,-7.8211,-4.0333,-3.4185,2.8723,-10.0548,-2.2866,-0.059172,
5.3108,0.52099,0.93043,1.4029,14.0316,-9.8731,1.6278,-6.388,0.54729,-0.32128,6.0742,-5.1132,5.081,-4.3939,
8.3665,0.48984,5.2135,0.83691,-0.30781,-8.7987,2.9765,-1.1841,0.9965,-1.7482,6.192,0.97829,8.6326,-9.915,
10.0338,5.0399,-0.1611,0.063683,13.8107,3.0573,-0.81762,-4.2464,-1.2326,-2.8482,5.5796,-1.7316,2.5709,-2.8125,
-2.8606,-3.2165,-2.803,-4.5199,17.2,-7.0081,1.883,-9.0531,-0.91764,-6.2927,3.0752,-6.207,-4.5727,-2.8847,
0.20336,0.35094,2.6678,2.5002,8.9374,-10.444,10.4466,1.1311,2.5119,-0.61276,-0.0013561,3.3244,3.8963,-5.1218,
12.7245,5.1505,4.4361,2.3503,6.4728,-0.17624,6.4455,1.5452,0.91501,4.2446,3.3731,2.1608,3.1807,-3.3683,
17.5048,8.9389,1.5189,-0.92407,13.5564,5.86,1.9615,-6.0192,-2.7552,2.7848,4.8578,-8.815,-6.8924,-8.2278,
15.4904,13.2231,-11.5879,-1.8327,26.7225,5.5084,-2.4947,-11.4426,-9.8205,-3.1671,-8.4489,-17.9273,-7.9249,-16.4108,
9.0174,8.3321,-3.4205,-2.4459,14.2731,1.0805,0.30631,-8.1047,-0.31343,1.1205,-5.2908,-10.344,0.02219,-2.17,
9.1992,6.6271,-2.9746,-4.4685,0.64205,-0.18982,-2.8453,-4.4854,3.3206,2.7402,-4.7324,-7.5539,-0.70227,3.5036,
16.36,12.0141,-7.1344,-4.6823,7.8344,-1.1423,1.1818,2.0507,-2.6632,1.13,-8.7868,-9.5108,-2.5879,-7.7934,
11.2811,7.1959,1.7298,-2.2322,6.6412,-6.6174,7.1364,2.1686,3.0402,3.7133,-1.2699,-1.9508,-3.156,-6.6029,
6.2657,5.7998,-3.1947,-2.0983,-0.024037,-0.43575,-3.4147,-3.7463,4.7859,4.9368,0.25228,-2.7976,-4.8948,1.988,
6.3719,7.8624,-0.59291,0.43771,-1.4686,-2.3378,0.6466,-5.4495,1.1243,6.0868,-2.6549,-1.1835,-2.191,-3.9158,
11.5332,8.1135,3.5405,4.5093,2.2349,-6.7768,5.6695,-4.8816,0.33398,3.5525,-9.9674,5.395,-5.1925,-6.332,
13.2516,10.0371,-4.385,-1.0642,2.5828,2.7886,-4.3119,-3.6246,-2.0964,-2.4455,-12.7438,4.1072,-5.3632,2.7248,
10.0461,12.8091,-7.4965,-2.9283,10.6227,8.8878,-4.0534,-4.8531,-7.2731,-5.1911,-2.8202,0.48656,2.6712,-1.7772,
5.3458,13.2458,-9.2159,-0.10149,16.9752,6.1854,-0.19478,-3.3571,-8.042,-7.0488,0.48252,-5.5686,4.1981,-2.8759,
-5.339,3.051,4.1118,2.0741,4.6284,-0.69335,5.8428,4.7984,1.8407,-6.385,-0.75161,-1.1368,2.7413,8.1433,
0.042935,0.2167,5.0703,3.1548,11.8229,6.3382,5.2512,1.8593,-2.8492,-6.7249,-6.7322,0.13657,0.88994,0.66468,
13.5377,9.3625,-6.8033,1.0371,25.2135,18.491,1.0795,-5.4833,-8.9452,-7.7674,-6.3285,-10.9591,-0.12802,-7.5701,
7.1821,10.9701,-7.6002,-2.6403,15.1443,12.3201,-0.19036,-4.9131,-3.8285,-6.0963,-1.8509,-9.578,1.0852,-1.0901,
4.5818,10.0707,-9.3135,-4.1693,9.6557,7.9657,-4.7585,-4.3772,-6.7325,-7.8999,-8.2478,-6.8343,-1.6312,3.5548,
4.0659,2.4769,-1.7651,-4.6423,3.5329,-0.46624,2.0348,-0.017169,-1.749,-5.7385,-2.6913,-5.2192,-4.6666,2.6184,
-3.1679,-5.1436,0.99191,-7.9792,-4.1511,-11.2845,2.6356,1.1887,2.4533,-1.2968,-0.36087,-1.7726,-3.6637,0.2921,
-5.388,-1.4607,-4.37,-10.3927,7.1852,-7.2332,0.54948,-9.0055,-1.5501,-0.7373,-4.6775,-6.4867,-0.55162,-2.1358,
-5.5469,-0.40876,2.1589,-3.0205,1.9336,-8.7272,7.2652,-10.3934,3.3634,-1.6567,3.798,-3.2052,-1.4826,-9.7204,
2.0168,2.99,-0.86313,2.9453,-7.8234,-11.0959,1.0447,1.3174,5.5717,-3.0036,-0.28622,3.2536,-3.3219,-13.9577,
7.1984,4.739,-4.1856,-2.5338,-0.60529,-8.02,-1.9103,3.1666,2.3451,-1.3773,-8.464,-0.79776,-3.1228,-6.8537,
1.4639,1.08,-3.4523,-3.3459,3.7696,-4.1643,4.4711,-5.7005,1.2403,-2.2588,-6.028,-5.0884,-3.8995,-1.1398,
2.5811,3.6665,-6.3784,0.95246,4.7485,0.66505,2.5154,-3.6712,1.4071,-3.8102,-5.4253,-2.6142,-1.4961,1.098,
6.5236,2.2417,-2.8627,-1.2743,6.1508,-1.5442,0.19528,0.16445,0.11738,-2.3768,-4.8588,3.5682,-2.1297,-0.17322,
7.0965,2.5891,-5.101,-3.6075,6.7461,1.9229,-0.78031,-3.2196,-1.8179,-2.7161,-7.4594,12.5136,-7.3041,-2.573,
-1.7652,3.1569,-3.5899,-3.1503,-6.9153,4.4588,0.95351,-2.3036,1.4245,-1.83,-0.50431,24.0551,-8.071,-4.106,
-3.3465,0.7981,-0.24125,-0.79192,-8.6696,3.4682,3.0657,2.4142,3.5084,0.9311,3.6235,29.1195,-7.346,-3.1365,
3.8439,2.4377,-9.1446,-2.9138,2.6969,2.055,-0.7339,-2.7921,-2.246,-2.7404,-6.958,17.9721,-6.1821,-2.7072,
-1.9302,-0.84219,-0.16015,-2.4979,-7.8291,-5.5402,5.3358,0.026601,4.8788,2.4858,-0.997,21.4732,5.9991,-1.3398,
-9.045,-6.576,1.7779,-0.90198,-18.9286,-7.6179,4.5339,1.4713,6.9962,4.747,3.4014,25.9696,5.1574,-2.7054,
-1.754,3.4594,-2.6675,1.08,-9.5983,3.4441,5.2254,-1.0275,0.30979,-0.8408,0.78681,19.1084,-6.2396,1.313,
6.0645,16.7494,0.38534,5.3542,0.61884,14.3249,7.8047,3.8549,-2.1187,-2.7183,1.7039,17.4802,-3.9368,2.6807,
9.5568,13.3341,-3.4944,1.6583,2.0277,17.8035,1.5516,5.5516,-0.063611,-1.1092,-0.80866,19.8056,6.4226,-2.3007,
5.3682,0.7237,-3.0435,-8.3229,-12.1939,8.7818,3.6279,-4.1813,0.66334,-2.7296,-2.4471,24.1611,-0.95244,4.3451,
9.6254,8.6342,-0.21006,-1.7982,-10.3777,10.906,6.5434,-7.0639,-5.4022,-1.3608,0.35078,30.183,-10.2955,15.8947,
4.7095,11.9726,-3.5714,0.2383,-7.8266,10.2518,1.8125,-2.3015,-10.8627,-5.6175,-0.63436,33.6747,-5.3395,5.3001,
2.2576,7.1564,-0.22413,-0.017423,-10.0086,7.4671,4.3549,4.344,-5.1497,-2.6293,-0.35533,43.9463,5.3452,1.8486,
7.6657,6.0044,-12.0206,-5.0778,-5.3103,8.2246,-4.8243,-6.7622,-11.348,-1.7484,-11.662,38.6586,-8.714,3.9071,
5.5186,6.8489,-5.2738,-2.604,-8.1254,8.454,0.52687,-7.08,-5.6059,1.0076,-2.0446,42.8466,-10.3604,2.9493,
-3.7304,3.3047,4.9243,3.0961,-12.2171,3.8492,6.0386,1.2987,-2.1363,-0.25795,3.6216,47.7474,0.62536,-0.84286,
-7.6039,-3.8832,2.4599,1.7053,-10.2788,-1.9251,1.0968,0.015749,-8.9975,-0.0012772,-0.21085,39.8215,-0.13529,2.341,
-8.5938,-6.5424,12.9173,2.5669,-14.9648,-4.702,6.3338,0.97902,0.2191,6.2654,9.4429,46.5909,-3.9837,8.9491,
-7.1142,-2.7757,11.6602,5.3049,-13.103,3.7749,8.3637,1.4021,2.6162,1.5511,3.5736,51.0262,-6.1547,5.52,
-5.2411,-3.0911,6.6223,4.5051,-7.0139,8.3691,7.8619,1.3182,-0.43306,-0.47019,-0.015085,49.4109,-0.00080443,6.1531,
-7.8192,-5.7979,5.2608,-0.58616,-3.2188,2.5643,3.534,0.27478,-0.40708,2.4503,3.36,49.3385,1.9272,8.1938,
-9.5192,-3.2809,4.2218,-4.6483,-6.1592,3.1334,1.6348,-0.46484,-1.5879,0.13413,1.4712,52.4038,-1.8038,7.4612,
-4.6094,-2.1198,9.7537,0.45138,-9.6459,6.8021,4.9113,0.52749,0.9178,-0.83813,2.3474,63.3595,-3.6237,6.5317,
2.4158,2.3456,-0.95479,-1.9862,2.0199,13.6247,1.2418,-0.95053,-0.10125,-1.7521,-0.68609,73.658,-7.2625,0.35488,
-1.3444,2.446,-0.65631,-6.4465,2.6219,9.6737,5.7468,5.6142,3.52,1.9687,2.4886,74.0592,-5.6217,-3.2816,
-2.951,-1.7982,6.3726,-3.4085,-1.1507,2.1036,8.5356,6.0004,2.1036,1.6093,0.16997,75.1589,-2.6332,-0.91543,
1.8054,-1.449,2.8569,-6.8193,0.60542,7.0389,2.9619,-4.7236,-3.5661,-1.1382,-6.83,71.3724,-5.1267,4.6828,
-1.9183,-0.63916,6.3009,-7.1335,-7.3849,1.5549,4.4709,0.13908,4.1197,4.4732,2.4976,71.6698,-6.9882,7.0534,
-9.2749,-1.806,1.8254,-5.9823,-10.5571,-7.4561,-1.8225,5.6745,5.0777,7.3386,3.5532,71.4669,-7.2919,2.5327,
-15.4672,-6.518,7.9825,-3.2131,-17.6363,-4.5985,4.0715,5.3341,4.7729,9.7905,2.858,74.8917,-5.8902,1.4165,
-20.5647,-9.2604,14.0112,3.4874,-27.4244,-3.5995,9.8526,8.1473,4.2456,7.9978,4.8556,72.5676,-9.6342,1.0906,
-19.0898,-5.5714,9.5552,2.073,-23.1277,-8.9272,4.1998,8.8637,2.7857,1.4922,3.3591,65.0802,-10.2613,4.1585,
-14.57,-7.6474,14.7662,0.020534,-15.4734,-13.2122,10.2145,6.8857,4.0647,4.777,7.0138,71.2984,-4.8252,7.2833,
-6.9472,-4.2962,12.9163,3.3938,-1.5296,0.11402,9.6016,7.9186,-1.4816,7.8651,7.5573,71.8412,-3.0895,7.3285,
-16.4125,-5.7257,9.4903,1.9848,-8.4275,0.34815,3.9643,8.1666,-0.18767,3.7776,9.2731,63.9153,-5.0735,5.6835,
-28.4429,-14.541,8.9206,1.3836,-22.0218,-13.6523,5.6544,3.338,4.1621,-2.7156,8.2345,62.0084,-6.6973,-0.44211,
-16.8544,-9.0892,9.5907,6.8442,-11.6622,-4.3972,9.4125,6.2713,-0.18517,2.5088,5.0891,63.8315,-1.7159,4.1639,
-17.5303,-10.231,12.1484,3.7826,-8.311,-4.8564,8.125,8.5462,-0.41514,7.9017,6.4711,63.1352,-6.1924,10.4217,
-10.6938,-6.2428,4.6707,5.4839,4.721,0.25558,1.853,5.6232,2.5022,6.4639,5.6008,58.3829,-10.6412,7.3864,
-0.1702,1.6036,2.2215,6.8419,13.8377,11.5684,6.8033,4.5627,1.147,5.3529,5.5057,50.3004,-0.12079,7.1839,
-14.26,-6.4464,10.042,0.40581,-1.0925,-3.2257,8.5642,0.19154,0.35503,2.8624,3.0062,49.4515,1.0915,5.0659,
-20.2735,-5.0955,10.4033,4.2378,-15.127,-10.3835,2.2656,2.1082,5.1542,5.1007,2.8258,55.6434,-7.1689,-1.5048,
-8.4521,-4.79,2.5483,3.9836,-6.0246,-2.5298,-1.2446,3.9099,3.8809,2.3843,8.4409,51.3405,-13.9696,-11.0555,
2.9013,-0.40499,-0.73788,3.9853,2.7727,7.5041,1.4814,1.9881,-0.93151,1.0362,9.6216,48.5013,-3.7312,2.3821,
0.55773,4.6809,1.9578,2.5412,4.7756,4.4024,2.1153,-1.2645,-3.5268,1.2151,3.9828,46.3144,1.0721,15.0135,
-1.6448,4.6411,5.4559,3.1118,9.5507,6.7897,3.1938,4.837,0.30009,1.3833,5.4309,45.2225,-5.4998,4.7128,
-5.8845,-1.4221,-4.0306,0.51483,3.6751,10.2388,-1.3363,5.9929,0.2822,-3.0381,-2.6076,38.6531,-6.616,-0.87227,
-17.3418,-11.2189,2.7189,0.72467,-10.6454,-4.4755,1.395,1.536,2.4344,-4.0611,-1.7282,37.5385,0.7706,6.1695,
-10.7577,-7.8944,3.7609,3.333,0.71887,-6.0149,2.5166,3.1311,-2.2912,-2.1302,3.4371,34.5635,1.9294,-0.7084,
-4.5686,-1.395,-3.9364,0.48167,5.7374,3.2641,4.0526,3.1842,-0.94839,-1.7612,6.3642,26.4639,0.12667,-6.6914,
-18.3945,-12.8806,2.0843,-4.85,-8.7068,-11.0318,3.3274,-4.2376,3.4469,-6.4762,5.5003,27.7685,-8.076,-5.3257,
-25.6063,-10.4204,6.0567,1.4667,-14.5716,-12.9005,0.47654,-1.3321,2.0349,-4.4002,4.9292,34.0562,-7.8323,0.5373,
-24.311,-19.1953,5.9341,2.1019,-14.4206,-18.1523,0.68903,-0.047042,0.70767,-3.8954,5.8386,27.9154,-8.0856,-3.5924,
-31.0471,-29.1309,9.4346,-3.8091,-27.6554,-31.1632,2.0938,-0.044334,5.9677,-4.6259,5.0062,27.2045,-6.6365,-6.7512,
-26.051,-18.9472,9.5919,-9.6061,-28.0446,-27.4856,0.76314,2.6096,7.2969,-1.697,5.429,31.1158,-3.5867,-8.5153,
-20.1494,-12.5077,9.9805,-9.9939,-22.0236,-19.5697,1.6814,1.489,3.0027,4.1894,8.9596,32.1411,-10.1204,-8.9685,
-16.5302,-9.347,3.5967,-8.9122,-17.3276,-9.2366,-0.82968,0.91759,0.89424,2.4921,3.6015,25.3921,-16.7439,-5.056,
-18.1896,-11.4374,4.5861,-11.9927,-23.7599,-8.4416,-1.9851,3.9959,4.4559,-3.2011,2.1802,20.7354,-13.0881,-4.9937,
-14.4469,-7.6179,5.9984,-10.0681,-20.1649,-5.7657,-4.9992,3.9971,1.0553,-3.25,2.2906,21.6607,-13.5079,-4.9351,
-3.9391,1.9982,3.2279,-5.1255,-4.855,2.7752,-1.807,3.2754,-3.8285,1.7655,2.6351,18.9148,-14.1434,2.5919,
-9.0053,-6.7986,9.3011,-6.2641,-15.2896,-9.9247,4.0859,2.1146,-1.1886,-2.6789,3.4412,11.5133,-7.0282,0.50804,
-5.5727,-3.9804,9.2249,-0.10367,-13.4081,-7.8832,1.9126,4.3981,1.2931,-5.8926,0.34243,9.3762,-4.6783,-1.4506,
-8.6128,-3.2596,2.8869,-2.9897,-5.3728,-1.1434,-2.0586,1.7239,-2.1589,-4.0928,4.6602,4.9572,-12.5925,-0.88166,
-18.219,-11.2589,-0.17875,-9.5591,-10.8349,-6.8595,-3.3812,-0.78981,-1.0652,0.0092641,8.7193,3.2137,-10.8728,-2.2749,
-22.6696,-16.609,2.4832,-9.2267,-21.5131,-15.3659,-4.8655,-1.4654,2.614,1.2137,-0.23992,3.2619,-9.0155,-0.4513,
-28.2991,-20.6739,14.1445,-5.5396,-24.3199,-23.844,1.9339,-1.6187,7.0367,0.89987,0.97954,10.0559,-14.0181,-3.0753,
-17.9242,-13.649,5.5832,-3.2791,-8.7607,-12.7722,1.3361,0.88888,1.7939,-0.60027,5.2592,6.0782,-11.7307,-6.2651,
-12.7511,-11.6248,1.1509,-7.1797,2.0087,-9.3546,-4.2877,-0.85168,-0.48289,-2.2515,2.7745,-3.6865,-3.555,-2.756,
-21.6273,-14.3017,11.2047,-5.3027,-7.2709,-18.4343,-4.5126,-4.175,3.8846,-2.1164,1.6439,0.39105,0.99659,-3.5547,
-21.0528,-9.3463,6.4349,-1.8513,6.4217,-9.8566,0.33768,-1.7554,0.036132,-1.7484,3.2325,1.0907,-0.26827,-3.1005,
-21.7177,-11.6777,2.6747,-6.0786,10.3751,-7.8189,3.6918,1.2424,-4.7866,-2.6075,7.377,-3.7951,-8.9292,-0.022029,
-19.6917,-11.2182,5.6474,-4.991,-0.61173,-11.9295,-1.5912,-1.0013,-1.8481,-1.246,5.2472,-2.8447,-11.5267,-0.74384,
-17.3049,-8.3757,8.4421,-3.9682,-9.0107,-11.9366,-2.2189,-1.1822,1.8782,0.99815,4.2094,0.94139,-3.3633,-4.3146,
-11.9283,-7.3913,6.0071,-2.7662,-1.2394,-11.7026,-1.1216,-0.62936,-0.16269,-0.026066,1.5465,-2.4893,-4.1256,-2.1276,
2.8874,7.0319,1.7904,3.6666,12.9349,-0.87718,-4.9106,2.3008,0.81105,2.8679,-0.95653,-6.6782,-1.95,5.2311,
0.18355,5.6457,1.201,-2.3381,10.1102,-0.3425,-5.5802,-1.2116,4.1367,2.6957,1.0289,-5.7957,-0.38681,-3.7598,
-1.7558,0.96855,-1.2813,-4.6081,6.1292,-3.2144,-4.7633,-2.585,6.7809,3.016,0.48515,-5.448,1.0825,-3.0522,
-0.20428,-0.5357,-2.6508,-5.2958,5.2794,-6.3958,-7.8519,-1.9479,1.5535,0.90698,-2.4361,-14.7622,-0.42832,4.8439,
-0.91493,-1.7086,-3.2145,-3.7727,-0.58097,-4.3249,-8.1036,-0.14378,-1.673,0.61159,0.84329,-17.9736,2.2487,2.866,
1.0679,3.2144,-10.7348,-1.1363,9.0949,-1.655,-9.5458,-4.9559,-1.5726,2.0209,0.7927,-18.8234,7.8981,0.76585,
-9.36,-4.9322,-9.3674,-7.0936,3.0058,-15.6557,-10.1782,-12.1301,-0.75512,2.1409,0.50417,-24.6839,0.91676,-2.4136,
-8.7986,-6.0826,-3.0208,-4.2579,-1.0312,-8.0882,-7.1573,-1.2794,1.7003,3.4584,1.438,-28.0235,-0.10257,-4.197,
-3.691,0.30818,-4.5265,-0.38699,-0.24619,6.4971,-7.4508,4.341,4.2498,2.528,-0.33549,-32.8494,4.0012,-3.704,
-6.8439,-2.6027,-1.3627,0.11828,-8.4262,2.8534,-6.0398,-3.1502,7.3692,3.3403,1.1308,-30.3964,-2.0236,-3.4818,
2.0026,1.6509,-1.5221,1.7985,2.4435,2.9231,-4.4722,-1.756,1.8652,3.8629,-1.1063,-28.8137,-1.1789,-1.1036,
1.4002,1.5519,-2.8768,-1.6838,4.2251,6.6041,-2.2757,3.6518,-3.5491,-1.1893,0.4063,-35.2798,6.1224,-0.073332,
-4.7093,-3.1208,-7.7658,-6.6443,0.83814,5.9669,-7.6828,1.2635,-1.167,-3.2871,2.0691,-40.1529,-0.75265,-1.7562,
-1.2934,-4.1387,-7.5407,-5.5226,3.9212,1.5114,-8.427,-1.9457,3.0005,1.9717,3.6321,-37.5026,-7.2151,-1.4097,
-12.062,-14.2545,4.2397,-3.504,-10.4141,-12.6793,-1.4136,-3.5162,4.0255,2.0943,5.1014,-32.6011,0.20747,-6.8687,
-10.8563,-11.9531,5.9134,0.56251,-14.7303,-15.8953,1.0814,-1.3769,3.7841,2.9327,3.8311,-33.0555,5.9797,-5.9746,
-3.2152,-8.5846,-0.46675,-3.0867,-2.5183,-14.2187,-3.0808,-1.0533,1.8698,4.4439,4.8063,-33.7233,-8.4791,-4.411,
2.7625,-2.7668,-1.4028,-0.49111,4.8637,-9.9911,-3.8601,0.45615,1.7577,5.1414,5.9642,-23.9874,-9.5371,-4.1464,
5.489,3.1838,-4.6934,-0.9438,-3.1409,-3.6071,-5.5567,-2.4635,0.20594,1.9406,-1.1423,-24.958,3.5686,-1.0053,
9.0159,-1.3457,-2.4834,-6.1897,-8.255,-8.211,-4.2593,-1.3517,0.1937,-0.58607,-3.9662,-30.6913,3.8366,3.8756,
22.575,4.7607,-5.4678,-2.2028,6.3403,0.71745,-5.6908,3.791,-0.54094,3.0644,-4.9334,-33.4294,0.95494,3.402,
21.3411,5.4392,-6.1038,-0.14266,16.6855,4.5308,-3.9031,1.1531,3.8298,4.3268,0.66525,-34.3159,4.2721,-2.5867,
5.9606,-4.2874,-7.4248,-3.7495,1.5844,-3.695,-5.8383,-3.9775,0.94872,-0.030394,-0.0978,-36.3543,-4.9023,-0.74427,
16.3285,3.9238,-6.2562,1.5374,3.0558,5.4447,-3.3186,4.6971,-2.2415,3.5868,-1.297,-32.0041,-6.7773,12.5568,
14.6259,-1.3731,-3.7115,1.2039,7.452,0.53854,-3.3607,1.7639,-2.3479,3.6128,-0.97821,-28.8784,2.0652,0.95711,
20.0149,3.5296,-7.3454,5.9522,21.1049,11.1113,-6.0514,0.21181,-0.76103,6.7703,1.4908,-25.6996,10.6182,-0.54635,
20.9834,7.4154,-9.556,0.53359,23.8155,15.0241,-5.9292,1.4044,-0.95633,2.7487,0.19633,-34.5218,2.9914,7.4402,
15.6268,0.94466,-0.064557,-5.5242,8.648,0.022683,-0.51204,1.5611,0.78827,-3.924,-2.9489,-37.9941,1.1247,0.0041183,
26.9816,7.3958,-0.30154,2.7613,22.2291,11.7111,2.1701,2.6726,-0.4642,-1.0371,-4.4591,-30.6531,6.1188,0.72689,
29.9421,10.5674,-5.345,4.7645,25.1134,21.8546,3.2449,4.6815,-4.5338,-0.25186,-1.5404,-27.1266,-3.6484,9.6012,
20.6738,12.5846,-5.2653,0.38125,12.2784,17.41,2.8092,6.5698,-4.9849,-4.8163,-3.6171,-26.7043,-4.1524,6.3738,
14.1308,11.8297,0.35294,-4.462,5.2751,13.473,0.71257,6.1757,-2.2756,-4.5272,-0.98983,-29.9226,6.2197,-2.2034,
15.9344,4.1301,-0.39102,-2.025,1.8252,12.9057,-5.3558,3.1537,-2.8621,-4.0145,3.6492,-30.2963,1.7491,2.9903,
21.0038,7.4976,-6.8754,4.6043,9.1876,18.6392,-4.3115,5.616,-1.4852,-2.5686,-1.1494,-22.9348,-0.52514,9.8007,
10.3435,5.8427,-2.3655,0.23071,6.467,8.6028,3.419,2.1455,2.7015,-0.7273,-5.1778,-20.8358,-0.25243,-3.0796,
14.3024,9.1076,-1.0185,0.45761,10.1765,7.3635,2.4907,-0.15238,5.1905,1.0036,-2.216,-23.2008,-1.9245,-1.2076,
18.5057,5.9098,-10.8396,-2.2212,-3.6907,8.6089,-4.6483,2.0259,1.2637,-2.6721,-2.806,-29.7628,-4.4604,8.7468,
9.2007,-2.6397,-12.1174,-3.052,-15.5205,0.3796,-2.9234,2.8685,-2.1864,-4.9221,-6.9762,-32.3155,-1.7826,2.9193,
12.0229,3.3032,-7.534,3.3976,-0.48931,2.7669,-1.7839,1.2503,-0.60915,-0.77039,-6.5576,-31.3409,1.2166,-3.0404,
6.9631,-1.7156,-4.1893,-1.6266,8.0965,0.19069,-5.0512,-3.6453,1.8376,-1.2062,2.5129,-36.209,-4.6408,-2.8579,
-1.4085,-10.0483,-7.0714,-5.1444,-6.4892,-0.061717,-4.025,-4.1497,0.52232,-2.8208,0.67486,-40.0618,-6.5318,1.8931,
-2.529,-9.2044,-6.8881,2.6361,-7.4254,-1.2631,2.7242,-1.7313,2.6601,-0.00049394,-6.3553,-31.1506,-1.0782,8.7692,
-5.2696,-8.6522,-4.0647,5.3702,-4.5698,-6.9719,3.0427,-1.6275,2.5005,-0.96456,-5.0099,-21.0867,-6.7981,2.4584,
4.2053,2.9541,-8.1592,1.1917,7.7556,6.9437,-0.99615,2.3265,-1.5058,1.0216,-2.7812,-32.837,-6.8725,-2.0275,
9.2557,-0.59751,-5.7414,-4.1823,4.3981,7.0093,-0.93627,1.7048,-0.93338,-0.96775,-0.68601,-40.5079,-0.19326,2.9147,
14.7262,-7.0691,-3.2277,-1.7622,1.4831,0.56323,-2.0854,-3.4589,3.7021,-1.1507,-0.40389,-23.9774,0.54146,3.9449,
17.9397,-1.1016,-3.2753,0.030497,9.3476,5.1087,-1.2371,-4.4567,7.5774,1.5695,-1.1028,-19.2848,1.2319,1.0569,
8.6686,2.3389,1.742,-1.4174,2.5203,-0.50045,3.6576,1.1134,7.6049,-3.8273,-2.9648,-28.7327,-2.2163,-2.8629,
11.7637,6.7779,-7.2806,-0.60919,1.6459,0.73464,-2.5877,2.7338,-1.7695,-5.7669,-7.3664,-32.0705,-14.3758,-3.8964,
9.8529,1.792,-5.1564,-3.706,-0.13994,-0.51438,-2.6732,1.3646,0.98813,3.0152,1.0294,-27.4946,-11.8259,-1.9753,
-0.3792,-7.9567,4.7939,-0.59136,-4.4701,-9.6426,1.8255,1.7649,9.6055,3.7981,2.4139,-19.5784,2.9836,-4.2671,
3.982,-1.2126,-4.6526,2.3365,8.3315,-2.7971,-2.1403,1.6589,3.2447,-4.1424,-7.8539,-21.778,-3.1006,-3.0469,
6.6352,2.2345,-8.23,-2.1421,12.6522,7.0115,0.39833,-0.36873,-0.80649,-2.4477,-2.0804,-28.1842,-14.0016,5.3307,
6.4782,-4.4072,-8.9414,-4.1829,8.2778,5.8678,0.13335,-2.5159,2.3753,0.35034,-1.2323,-31.555,-0.86913,3.3238,
9.464,-3.6606,-3.5842,2.8168,6.3348,2.6235,2.5357,2.4556,9.9458,2.2577,0.28786,-20.0205,8.342,-4.1065,
-0.50387,-0.30772,3.6205,6.2632,-1.999,-1.6315,3.5886,1.1032,8.1437,1.3989,2.4397,-15.686,-3.9688,-3.6191,
-8.4276,-1.0124,1.7161,6.1284,-4.5304,0.63576,2.6502,-2.5785,0.66545,-1.3361,-1.8042,-26.0728,-4.4538,1.6597,
-4.3065,-4.0851,1.3719,6.0016,0.80289,4.2128,5.6244,-1.2187,1.8306,-0.53304,-2.901,-24.7498,4.7312,-0.12711,
1.2546,1.4627,-3.5308,3.7137,14.8547,14.0833,1.9129,-1.6276,3.1669,-0.018781,-3.209,-21.8183,3.4834,0.36256,
-4.8465,2.098,-4.0419,-2.0531,11.1916,12.9972,0.11074,-1.771,0.80761,-2.1869,-0.36527,-29.9095,-2.2691,2.5101,
0.023877,0.76693,-3.5583,0.72154,4.9766,8.6021,0.34518,-0.4596,-0.92796,-1.3327,-0.10227,-28.8379,-6.7126,-0.77389,
9.4223,4.3365,-5.5141,3.8116,3.4729,15.0757,-1.8448,-0.19094,0.81483,1.3985,-2.2654,-24.4562,-2.6943,1.4418,
-5.243,-5.8059,0.84227,-4.853,-10.8355,1.8789,-1.011,-3.3127,2.9353,-2.3009,0.039906,-28.0505,-1.8098,-0.33192,
-2.1566,-2.0831,-3.5466,-3.1158,-5.9673,-3.0543,-0.95033,-3.114,1.7951,-0.23438,3.8939,-25.4032,-4.5935,-4.6506,
9.3011,0.6931,-10.8057,-3.6516,7.1651,-5.0404,-0.65223,-6.5427,1.4463,4.3591,5.8295,-22.1921,-4.5589,-6.5408,
1.0302,-10.9176,-6.301,-8.7354,-6.7624,-12.4509,0.83293,-5.6679,3.7697,0.72309,4.0335,-24.235,-5.2495,-4.7021,
-0.71891,-2.7909,-5.1999,-4.5957,-0.81318,2.3961,-0.90415,0.69779,2.3383,-2.4537,-1.2701,-22.0577,-6.1397,1.1235,
-7.4243,4.1254,-0.54925,-0.46371,-2.6925,6.7114,0.59624,-3.6825,3.1622,0.10402,1.2164,-17.3597,-4.8071,-1.8361,
-13.9686,1.7086,2.1349,3.1796,-9.0385,-2.6093,1.7656,-0.81035,5.6239,1.7849,2.3486,-16.077,0.060948,-2.9311,
-16.0228,-3.6964,-5.2238,0.096574,-10.9063,-3.4166,-4.607,4.0588,-1.9443,-5.0709,-4.541,-20.4153,-4.7632,0.61925,
-17.7129,-4.6798,-1.7772,1.7779,-12.4215,-4.8989,-3.6076,3.0922,-5.4432,-2.1154,-3.0634,-19.9134,-10.0211,-0.62308,
-18.0961,-0.060664,1.7039,7.9377,-4.9275,-8.9435,0.46524,1.9426,-3.6704,4.278,-0.95138,-20.6467,-7.4917,-1.0679,
-25.4464,-6.5646,1.8427,0.95387,-13.0676,-16.8427,-0.28569,2.549,-0.79894,-2.9682,-0.17128,-23.5052,-12.5857,-1.7268,
-15.4837,-3.0375,3.9013,1.6198,-10.5963,-8.8425,-0.027579,3.1192,2.3823,-4.9595,1.5262,-19.4435,-13.0358,0.54596,
-8.047,2.6884,2.4619,4.1737,-1.0427,1.088,1.1791,-3.0937,1.0343,-2.9747,0.71152,-23.821,-3.8178,2.2004,
-14.3128,-1.8115,-0.57806,1.9951,-4.8366,-0.90543,0.14429,-4.3541,1.4541,-4.7244,3.079,-25.7657,0.26769,-2.7521,
-3.3308,2.1537,-4.3997,-0.53442,4.1306,5.8977,-3.7206,2.1738,1.8492,-2.9946,3.3765,-25.6657,-0.23019,-3.069,
-5.7823,-4.9652,1.4079,-5.0821,-3.589,-1.928,5.4207,-0.60798,0.05099,-3.5383,1.4867,-27.2595,-3.3499,-1.1976,
-11.9432,-5.8724,6.385,4.1408,-7.4711,-8.8021,12.0852,-2.2586,3.1813,-3.0849,1.1564,-21.0443,-1.4615,-1.3669,
-4.2368,4.362,-0.023735,5.0973,4.3054,2.5722,1.4778,0.046177,5.6416,-1.2127,3.7382,-23.8791,1.7593,-3.9361,
-2.5364,-0.72023,-1.4686,-4.8495,1.6367,3.382,-1.021,-0.43876,2.4108,-1.1399,5.4423,-28.7129,0.20771,-4.664,
-1.9021,-1.6412,-4.7548,-3.5943,-2.3177,-1.1594,3.3787,-0.41232,-0.14405,-0.1073,-0.18695,-23.616,-4.6254,-0.045713,
-8.2957,-1.3016,-3.2642,-1.2095,-6.2762,-9.0436,0.04272,-0.62854,2.034,-0.824,2.4756,-17.6195,-5.0707,-2.6943,
-6.111,1.4276,1.029,2.4785,1.0902,-6.8139,-3.0933,1.5783,3.117,0.43051,6.9066,-17.2852,3.6692,-4.2199,
4.6199,6.4035,-5.0584,0.16049,8.4965,2.0309,0.22564,-0.68565,-0.68555,0.64576,-0.97975,-23.72,-0.16627,0.61296,
4.8248,0.23463,-4.755,-2.2594,-1.1722,1.427,4.5505,-2.0907,1.2839,1.5712,-1.8849,-22.7791,-14.2563,1.5402,
4.2941,-0.50258,-8.0851,1.4914,-5.6814,5.4387,-3.6762,-1.7242,0.48373,-1.1744,-0.56678,-24.0635,-20.2702,0.24269,
-1.025,2.1789,-7.3588,2.1252,-6.0637,3.9074,-5.1429,-1.8618,2.1419,0.10115,1.1544,-22.3787,-11.5822,0.4691,
-6.0249,-0.60304,-8.1225,0.31062,3.2181,1.5036,-3.6291,-1.027,1.2904,2.2644,-0.12,-18.8667,-14.5025,0.68203,
6.1468,4.9768,-12.2146,2.9428,17.125,15.5134,-2.6885,2.65,-5.7769,0.92321,-5.1742,-25.6887,-14.8377,6.6667,
13.9728,9.0166,-3.7689,3.7307,11.3976,18.5596,4.7038,1.0449,-3.9841,3.7602,-1.9714,-23.6653,-5.7524,9.641,
16.2677,10.6447,-9.0864,1.3375,17.2215,13.3484,-2.0862,-4.5614,-1.0938,4.2577,-1.1302,-19.1121,-6.1304,7.8577,
17.702,10.9702,-12.3976,1.2575,25.8292,13.0297,-5.3354,-1.8774,2.8285,4.4842,-2.9906,-21.8215,-5.2806,4.0116,
23.8706,12.7222,-2.0129,5.5202,20.4229,14.6582,5.5899,0.64525,6.0329,10.4818,-3.2932,-14.7278,0.33876,-0.085408,
31.8386,13.1642,-14.6663,-3.7288,27.1515,24.1428,-3.1814,-8.3111,-5.1749,8.648,-9.1212,-16.495,-7.6351,-0.32125,
29.6869,13.0971,-15.9558,-7.6026,32.0298,26.3095,-5.6418,-2.7513,-2.2134,7.4057,0.82577,-21.5314,-4.0441,8.6155,
25.7368,14.4809,-12.3469,-4.4949,26.493,15.3312,-3.1341,-1.3807,-1.3573,2.8644,-1.8746,-25.7827,4.1528,4.4836,
33.5924,17.7092,-12.329,-5.9129,29.0008,19.9547,-0.77688,-4.4313,-6.3375,3.4155,-9.7161,-23.5128,-0.67613,3.9736,
35.192,17.3697,-14.723,-10.1371,33.2861,26.7114,-4.3455,-5.3708,-7.6447,1.0412,-8.8922,-27.1635,-11.9638,2.0478,
32.3576,19.461,-17.4546,-5.9135,38.2788,22.4571,-7.2182,-5.2895,-5.4988,-1.6724,-8.1175,-32.5236,-4.2561,-4.5826,
24.3906,13.7139,-10.8639,-1.9435,28.0285,9.7817,-1.7232,-6.6591,-3.4814,-1.3309,-6.4254,-22.1362,3.9533,-3.1026,
19.5527,13.3732,-9.248,-2.309,27.7929,14.9792,-2.5844,-3.3675,-4.719,-0.28737,-10.3784,-18.3982,2.2696,4.3142,
9.7027,10.6426,-11.1032,-5.545,25.6429,18.9011,-4.8394,-4.1295,-2.5077,-0.75206,-12.648,-31.3943,5.5079,6.9479,
3.5769,5.4243,-6.3397,-1.5968,20.4894,15.116,-2.3799,-7.015,0.29433,-0.94791,-2.9713,-30.1128,9.7569,7.2539,
6.2546,16.1861,-12.2263,0.42716,33.2393,24.8139,-6.0935,-7.5582,-7.9185,-3.3012,-7.1313,-23.9677,3.8689,6.3367,
2.5051,16.6614,-11.4925,-4.9009,32.209,25.2535,-6.2101,-7.5864,-10.3357,-2.139,-12.4878,-29.2783,4.1189,8.3669,
11.7545,13.4923,-11.0441,-5.33,34.856,31.2098,-7.5245,-6.8905,-7.0642,-1.7699,-9.5696,-34.9932,11.8257,14.3726,
22.8598,19.6727,-14.9608,-4.7692,44.5748,41.6298,-8.2783,-8.6462,-5.917,-1.9047,-3.4518,-36.9914,13.2853,13.2693,
10.883,12.7073,-12.6173,-9.7857,32.7413,27.0804,-5.3715,-11.9839,-7.0082,-1.7904,-3.7271,-27.5411,13.4521,7.6524,
15.0507,10.981,-13.3061,-11.6087,32.7054,25.938,-4.0848,-6.4441,-8.5159,-1.683,-10.7338,-18.6578,19.3939,14.906,
23.7884,13.2144,-15.8819,-14.7683,33.153,31.6123,-4.8038,-6.0577,-9.9334,-4.9562,-12.5002,-25.7333,10.0353,10.6374,
25.2534,17.7239,-22.642,-16.2926,37.9125,29.2334,-9.3361,-12.4429,-16.0861,-5.141,-16.5706,-29.9741,-0.68995,0.35799,
29.7637,23.1684,-25.3809,-17.0022,47.9303,33.023,-11.427,-10.491,-19.7002,-3.1453,-17.2636,-23.114,6.8233,10.7008,
31.3526,18.4037,-16.6274,-15.018,33.4851,32.9701,-5.9209,-6.4874,-13.6977,-3.9207,-9.9611,-20.763,15.0907,13.9149,
31.6406,17.5409,-18.2808,-10.5015,24.0042,30.269,-7.2529,-9.7135,-14.0811,-7.3009,-15.8709,-24.0965,17.3188,1.7519,
25.8855,15.5239,-17.1842,-10.8355,23.528,21.7037,-6.336,-6.2384,-11.3083,-5.8987,-17.3294,-17.3483,16.2794,2.6108,
23.8505,17.4849,-12.7787,-11.6316,22.5987,18.9557,-5.4735,-2.0077,-6.773,-4.0985,-13.3972,-13.4149,7.1079,14.9877,
27.7221,18.364,-13.9402,-9.4875,17.3864,22.1566,-5.627,-6.2256,-9.741,-5.2989,-11.629,-21.2871,2.3431,16.0166,
16.1766,3.1622,-9.0062,-5.785,2.2432,9.4988,-2.6385,-7.5395,-9.8797,-4.7398,-12.6187,-17.3586,1.4794,6.1378,
12.3135,-1.0044,-10.8764,-2.0634,3.4339,14.2315,-6.8185,-1.7845,-7.8407,-3.9734,-18.6103,-7.6404,1.3907,3.3589,
18.3234,11.5891,-12.1518,-6.7601,10.4585,24.4646,-4.4814,-0.71333,-7.8524,-6.1454,-15.5655,-8.1456,1.7894,6.0497,
18.9116,11.6171,-9.2535,-6.1135,8.1442,18.4175,0.36719,-4.286,-10.5143,-6.4996,-11.0161,-5.9697,2.8873,6.892,
12.2333,4.8941,-14.7239,-3.5776,6.9322,9.3587,-5.6804,-5.2341,-13.0169,-6.833,-14.9344,-3.9247,5.8471,4.3093,
12.4632,2.6723,-9.5021,-3.3629,8.4445,7.3509,-6.3039,-2.9914,-5.005,-7.3868,-11.6282,-2.7249,9.3527,4.5327,
25.4537,10.9481,-12.5474,-3.884,22.0378,21.0099,-7.1305,-4.4991,-4.9462,-6.2207,-13.0997,-6.1768,6.1404,8.3581,
25.132,13.9064,-15.8917,-5.8204,20.5951,27.3416,-6.4619,-6.3986,-7.7827,-3.6781,-12.5549,-7.0113,1.6744,8.5797,
21.4547,12.8308,-6.9847,-6.6762,17.19,19.6753,-2.459,-3.3633,-1.7723,-2.2524,-3.8477,2.8092,5.6711,5.8956,
31.0139,15.6766,-7.2883,-6.9988,26.5231,19.2184,-1.106,-3.8847,0.98581,-1.3941,-6.7501,3.8461,11.357,8.1936,
25.2962,8.4695,-8.2972,-6.5789,14.3264,11.7983,1.8529,-4.6155,0.92666,-1.3104,-8.2732,-0.72295,7.7831,9.6302,
23.2965,9.4076,-10.6919,-2.8097,8.6461,13.5005,-3.079,1.4461,-2.0215,-4.6063,-7.7768,2.2125,2.4954,7.6061,
31.7809,20.1711,-12.2193,-3.3642,13.1888,20.6444,-6.5099,2.082,-4.5515,-3.6068,-9.9616,9.0694,3.5507,5.9447,
25.5353,15.5864,-10.0404,-6.0549,7.5772,13.1393,-1.2986,0.028851,-2.3502,-0.49783,-10.3282,10.4534,3.8201,1.2492,
18.2188,7.9025,-8.9558,-4.2451,7.6048,8.4943,0.22537,3.4018,-2.6914,-1.9145,-8.262,6.9339,2.1444,4.0666,
13.9922,4.7768,-1.4286,-3.7494,4.4969,4.3692,3.3453,0.54614,-0.36072,-2.0406,1.6332,12.5434,4.6673,8.4023,
14.8399,8.1061,-5.4407,-3.2835,9.2888,6.7582,3.3856,-4.5478,2.3125,-2.641,2.2586,13.4781,8.0027,2.3546,
12.9854,9.0657,-7.5241,-2.1224,9.6956,13.1018,2.2184,4.8838,3.1378,-3.4467,-0.28726,7.367,9.9329,2.2135,
3.5296,2.2553,-1.2881,-1.995,-3.9016,4.6029,1.6033,8.4472,1.9857,-2.7579,2.1406,10.7813,5.9624,3.527,
6.4506,0.91444,-6.7546,-1.1522,2.8402,-2.1814,-1.1442,-1.4599,-2.231,-3.3156,-1.1216,10.8576,0.060844,-1.2646,
8.233,-2.7556,-2.7337,-1.3243,6.7674,-4.2195,1.0938,-0.16676,-0.41018,-2.8754,-0.33116,10.9292,-2.1117,-5.2859,
9.6674,2.2302,0.3226,-2.2089,4.9149,5.6744,-2.3465,3.2175,-0.38534,-1.7388,-3.2036,13.6477,0.42487,-1.5945,
11.0154,8.3631,-0.17892,-3.0405,6.0665,14.4932,1.6509,-2.278,2.0477,-0.6704,-1.0829,12.8286,8.5943,3.3217,
-3.7456,-6.1182,0.79591,-6.2323,-6.3489,-0.47636,6.8543,-8.89,0.96118,-5.4507,1.3924,14.4693,3.2582,-4.1083,
2.6254,-0.2077,-4.3133,-2.2431,3.4318,2.806,1.8635,0.56124,-0.78394,-0.5441,-3.2707,23.9652,0.89375,-0.24657,
11.8677,7.7587,-3.8133,-4.2775,1.057,8.1814,-1.8635,7.5172,-0.013779,1.6575,-2.3518,24.2147,0.59893,0.49135,
6.5761,5.6062,3.4051,-0.88758,-9.8529,3.593,1.8635,4.8968,-0.73608,-3.5034,2.8508,25.8951,0.80373,-5.5639,
2.8073,9.126,-1.6197,1.0936,-4.4412,8.1979,-0.17626,1.7107,-3.5842,-4.2573,0.75178,26.2694,2.6839,-1.8554,
10.834,17.2555,0.40572,0.064151,2.5741,12.0443,-2.0939,5.9468,-1.441,-2.0737,2.1529,27.1038,3.9692,5.4863,
16.9327,19.5944,-0.10079,1.5063,2.9018,8.9113,-1.4865,7.0361,-2.3186,-3.3953,1.0597,24.513,-0.12561,-2.0735,
2.1779,4.6804,1.1106,-0.27127,-11.3723,-5.7234,1.2542,-3.268,-3.3848,-4.3969,-1.1731,20.8731,-5.6617,-13.7592,
-2.0499,-3.5544,5.6234,-0.013802,-17.8003,-15.3824,0.93776,-7.6515,-2.4586,-6.302,-1.8258,26.1284,0.22185,-9.3185,
10.6066,5.336,2.8759,0.46896,-9.0195,-2.4079,0.39956,1.4847,-0.38239,-4.4776,5.0326,27.9351,7.9213,0.88208,
7.3187,2.3643,2.9439,-1.7283,-11.6118,-7.8075,2.5447,6.4568,1.8093,-0.11206,9.7919,26.0181,5.7588,-1.8224,
3.0234,1.2588,-2.0528,1.2677,0.17235,-4.4463,-3.3923,0.76702,-2.6374,-2.0333,-2.3645,23.4929,2.521,-3.1591,
6.9393,8.1727,-3.6169,2.8788,7.6338,8.1126,-4.876,-0.96623,-4.6483,-3.5985,-4.3923,20.3961,-4.1377,4.9842,
8.6919,12.7438,-2.6767,1.983,1.15,10.2771,-0.96823,4.6351,-4.6106,-3.1414,-0.031173,21.8237,-6.0589,7.8184,
12.9911,13.9073,-7.3368,1.864,7.3475,9.1786,-2.8383,0.50063,-8.1904,-5.8455,-5.8139,20.9962,5.8738,3.0105,
14.6218,11.1452,-4.4865,1.7521,11.2455,7.664,-0.73984,-5.314,-5.2888,-2.1203,-3.0545,19.2545,5.5214,0.90216,
14.4676,11.6811,-11.2069,-0.52237,10.3295,11.7832,-4.3106,-3.7901,-5.2127,0.17633,-3.5948,15.4479,-5.174,-1.8033,
12.3942,10.2573,-5.4728,0.71426,0.79169,10.3533,0.52729,-0.91112,-2.2484,-2.9677,-1.6919,22.4747,4.5364,-3.3823,
8.7583,1.9289,1.1218,-0.29269,-5.5226,-1.3553,1.4597,-4.2311,-5.0058,-7.1282,-2.5545,25.4648,6.1922,-6.0721,
17.1509,10.7312,-4.0072,-0.034163,8.9088,5.7158,-2.7252,-0.84378,-6.875,0.28935,-4.0884,23.2136,-0.20485,5.6204,
9.6139,8.882,-0.63326,-2.2013,2.9514,1.7575,-0.39252,2.3399,1.0093,2.4411,-3.6021,29.2925,-1.8798,3.114,
5.904,6.1799,-0.3543,2.0282,-7.59,-6.3017,-0.60994,1.4766,1.1901,-5.1771,-10.3754,33.0791,-0.079776,-9.8468,
8.683,8.9429,-2.9839,1.1833,4.6762,-1.826,0.14979,-0.78095,-5.389,-7.9998,-10.476,33.2637,-0.31573,-8.051,
5.2695,6.4776,1.0515,-1.2978,1.5031,-1.2345,2.5509,-0.73409,-3.1374,-3.1815,-2.1347,40.9084,0.66709,-5.1578,
7.8461,8.4993,-1.4219,3.1186,-6.3001,1.7318,-1.9407,2.6842,-1.0212,-4.9185,-3.4526,40.8643,0.62729,-2.4379,
2.7954,6.7843,-2.5421,2.6903,-3.2708,-1.0234,-1.583,3.2458,-1.2012,-9.2034,-3.0047,32.3866,-0.61587,1.8055,
-0.26419,0.5929,-4.3176,0.11854,3.1922,-8.1926,0.9223,-0.32271,2.2456,-3.3483,-0.41411,28.9974,0.38564,-3.6048,
3.849,-3.5405,-1.8894,-2.0577,-3.0249,-5.5319,3.0361,-0.062385,4.762,2.8781,1.298,39.0681,6.87,-5.0762,
8.4383,3.9028,4.0086,-3.3805,-0.91517,7.8154,4.3002,6.6898,3.0304,1.7416,1.2201,50.824,8.8679,8.2438,
12.0294,14.5149,2.0808,-1.9724,13.2397,18.1923,2.8369,9.4219,1.6433,1.8781,-1.0223,46.9305,2.7922,16.6672,
1.6671,-0.45601,5.8128,-3.7823,3.407,3.0008,4.5949,5.9645,2.991,1.2834,4.8236,41.2226,1.1789,3.6161,
6.8693,-8.985,6.9099,-3.0734,5.6127,-2.8431,3.8373,4.6423,-0.080997,-0.72177,8.3906,47.9083,7.8566,-1.9035,
15.134,5.6541,6.0131,-2.8888,12.9885,11.4275,3.6068,5.8098,0.40603,1.7314,6.4411,45.516,3.0467,5.4413,
0.12595,-2.0363,13.3653,-2.7157,-1.8908,-3.3582,3.3906,4.9795,6.1665,2.5921,6.5368,43.7491,-4.8487,-2.5977,
