"AF3","AF4","F3","F4","F7","F8","FC5","FC6","O1","O2","P7","P8","T7","T8",
12.2925,-2.6511,4.0974,-3.6154,16.1489,-5.0617,-9.8819,-3.6154,2.6511,17.5947,-19.041,14.2207,-3.6154,23.8617,
8.4215,-2.2511,-1.6921,-6.5315,8.1901,-2.5884,-6.1555,-3.1575,4.6616,14.3699,-13.8012,11.1983,1.6632,27.0093,
9.603,0.5351,-1.3496,-7.3454,-2.1837,0.21804,-1.2069,-2.2452,8.4788,13.2667,-9.3577,11.7312,6.1427,24.1834,
3.7246,-0.46088,-4.1607,-5.9403,-1.0884,0.20495,-3.5451,-1.6281,7.0062,12.9526,-12.6526,13.4375,2.3997,15.0196,
-0.11453,-4.0489,-0.77779,-8.2352,-0.29992,-1.9767,-0.68106,-4.1817,8.2729,9.0422,-9.7245,5.6416,4.907,9.057,
-1.0715,-5.7341,-0.24919,-8.2231,-0.76386,-1.3757,-2.086,-3.9308,3.9206,8.0178,-6.7305,-1.9277,4.6126,13.8162,
1.6441,-3.2207,0.97082,-5.0783,-0.47729,-2.4987,0.69049,0.40262,6.3362,7.2955,-4.1577,-6.3916,6.9872,14.6743,
5.6428,-4.2327,1.6359,-8.871,1.7205,-5.4823,-0.074299,-0.34489,4.7512,3.2423,-9.9338,-5.7671,4.3988,8.7326,
9.8837,-3.7376,1.2966,-6.6517,8.6069,-2.0196,-4.1674,-2.4936,-0.59579,5.2172,-15.3635,2.0509,-2.8548,12.3058,
10.2546,-3.9957,6.5214,-1.4319,8.091,-3.3447,-1.5068,-4.7541,0.40429,6.8324,-15.4056,3.3741,-6.058,12.0493,
9.1576,-0.3813,5.648,0.10002,9.0515,-2.1799,-0.93468,1.316,-2.5123,9.3147,-15.9273,11.3662,-5.2123,13.2548,
8.6079,0.60568,0.48862,-1.352,7.5443,-2.5313,-0.39644,-0.69143,-1.3974,10.2019,-13.0437,15.5051,-2.9716,11.4954,
6.6452,-3.2871,-0.02263,-2.2352,3.7172,-4.3076,1.0736,-9.3266,1.0965,8.6259,-8.8866,7.8259,-5.2035,8.8775,
5.0414,-2.8491,1.1838,-3.3062,5.6636,-2.3617,2.2143,-4.6699,-3.0664,4.9751,-6.6664,1.813,-6.0963,14.3706,
6.6676,-4.6059,2.0771,-5.036,5.3238,-2.7019,3.0457,-4.3892,-3.8467,-4.0005,-9.1585,-2.6346,-4.2843,11.0983,
7.4724,-2.1608,0.74717,-2.0827,8.6198,3.9677,-2.6806,-2.921,-3.8569,0.33685,-11.7425,4.5134,-4.2686,7.2989,
1.9628,0.13844,0.46137,-5.0908,5.9334,4.9349,-3.2427,-1.0585,-3.3845,4.4144,-9.3507,2.5553,-2.8072,7.5838,
3.5318,-0.59322,1.6385,-4.5444,2.9259,1.5053,2.0131,-2.6823,-0.52988,-0.43016,-4.6923,-6.0336,0.49469,8.3341,
5.9714,2.5759,-4.0034,0.78996,5.4019,10.815,-1.2412,0.12978,-1.7034,-2.5735,-5.1337,-1.5743,-0.25835,9.5213,
2.4797,2.1803,-0.62971,-0.46273,2.4262,12.3353,-2.8535,-0.60091,-2.8065,-4.1063,-7.9591,2.1356,-1.4477,5.8165,
-0.32043,-0.6018,2.0594,-1.64,4.45,8.4619,-4.3697,-0.80605,-4.807,-0.72669,-7.7223,4.1764,-5.9403,7.6369,
-0.30121,-0.5657,-0.47429,-0.57731,4.183,9.4004,-1.215,-0.75723,-1.6265,5.1015,0.4538,6.3364,-4.6196,8.1426,
-2.4521,-3.665,-3.0972,-5.1222,-4.9858,5.2212,2.4731,-3.3631,-1.2877,-1.2299,0.18583,-2.4797,-4.5836,1.6287,
-1.3411,-0.071117,-0.98314,-1.9228,3.5081,8.2819,2.3247,2.1409,-4.103,0.77161,-3.6822,4.4175,-4.3086,8.2794,
-7.0454,-4.4049,0.52188,-6.146,-2.4868,4.8927,2.1854,-3.29,-3.3747,0.72554,-7.3174,8.973,-2.1221,1.034,
-6.3815,-2.9356,0.73177,-11.803,-5.9532,4.8404,3.7413,-2.8514,-1.9671,0.92321,-6.6376,10.604,0.65653,-1.1974,
-2.3832,0.85597,-4.8558,-11.8177,7.1784,5.7548,3.7578,-0.9931,-3.0539,1.1088,-5.516,10.2087,-2.034,9.2387,
-2.7224,-5.4621,-4.0827,-9.1807,9.6395,5.8917,4.0145,-4.3082,-2.8709,-0.88617,-4.7033,10.0779,-6.7329,6.2741,
-5.4511,-3.6881,-0.46329,-2.3629,1.3489,11.3227,1.3635,1.2529,-3.6625,4.4696,-3.4568,15.2583,-7.2928,0.59496,
-8.4987,-0.57456,1.4929,-3.1852,-3.0706,4.8586,3.2096,2.1419,-2.4791,5.1656,-3.7316,10.0042,-2.9986,-2.815,
-7.0247,-1.5042,1.4031,-6.3683,8.2006,4.0853,5.9094,2.0136,-5.2222,4.8559,-2.0616,6.5117,-3.3008,1.6925,
-7.3259,-3.5833,-0.84999,-5.745,10.3599,11.3118,2.9035,4.0617,-5.632,4.8052,-0.73241,8.7723,-4.3078,5.6885,
-10.2608,-3.8503,0.16487,-7.3285,-3.2767,9.1873,1.7654,-0.52033,0.49049,1.1429,-4.5449,9.6922,-2.1212,2.9371,
-12.0555,-1.2089,-1.291,-4.9608,-3.5622,9.1178,2.1416,0.47499,1.9071,4.4486,-5.7187,12.4849,-0.54787,4.6888,
-11.5733,-4.2696,-2.9006,-6.3506,3.1592,6.4018,5.6283,0.20529,3.4797,2.9766,3.0604,2.336,0.69007,2.72,
-6.5402,-0.15705,-2.2446,-4.5233,6.3437,3.6071,5.7726,-1.2528,2.7889,3.2799,6.2512,0.26768,1.613,1.593,
-4.7017,3.7085,-1.6278,1.0505,7.8915,9.1755,4.944,1.2322,0.69364,8.3856,1.0556,11.3386,3.4442,5.3535,
-8.5172,-2.5393,-0.80698,-5.5198,2.3565,3.5635,5.371,-1.0106,0.89276,5.2311,0.75111,8.9713,2.9968,1.4171,
-7.2828,0.26416,-3.892,-9.7684,1.4918,2.1444,4.8073,4.1112,-0.36564,6.1225,4.8034,8.1916,1.6117,6.3938,
-5.3998,-1.6801,-7.9971,-13.0384,0.43818,2.9798,6.4473,2.4185,1.1023,4.3092,4.0335,3.8439,1.5152,5.0461,
-3.1476,-5.9176,-4.1428,-14.1848,5.7145,0.87283,4.6142,-5.4394,3.4463,0.19376,2.3452,-0.24307,-1.4682,-4.8981,
-0.54865,-2.6701,0.44409,-8.9949,12.1206,3.2306,0.96289,-1.2566,0.82941,0.66452,-1.6519,3.146,-3.7903,-0.26545,
-0.27453,-3.7154,1.6225,-9.6603,-0.41702,-0.57844,3.5564,-3.8325,-0.90781,-3.4729,-6.6142,-3.5505,-1.3939,2.4018,
0.70581,0.84633,-1.8493,-9.0807,2.9825,1.3845,4.3069,-3.1206,-0.37095,-0.37203,-1.879,-8.1582,2.0642,-3.045,
0.42249,1.0365,-5.3538,-10.223,12.6854,0.57803,3.8075,-0.76425,-0.10772,-0.10875,0.88479,-8.874,1.6994,-13.7085,
0.8793,-4.81,-2.6217,-9.6094,10.4783,-3.7947,5.0256,-4.5746,-0.58342,-7.8148,-4.9526,-8.3413,-3.2231,-7.5831,
3.96,-2.8347,-4.1516,-3.4897,10.0906,-0.91596,1.5906,-5.9873,-2.7176,-7.5873,-5.3784,-5.1893,-4.2345,1.7895,
5.1682,-0.73638,-2.9387,-1.3521,7.0745,-4.2355,-0.43307,-6.11,-2.5545,-3.7576,-3.128,-4.8784,-2.5347,-10.8514,
4.3762,-0.6922,-0.35223,3.5497,13.8809,0.83938,-0.88902,0.52311,-6.7396,2.2524,-7.7605,8.4297,-7.2028,-0.55888,
4.5958,-1.6148,-1.7771,6.711,18.3509,8.0196,0.12842,1.4558,-6.8174,1.6351,-7.7771,14.1907,-8.6991,13.5747,
4.0793,-0.79475,-2.3936,1.7292,7.8501,7.2977,-0.60242,-5.6212,-1.3469,-4.0064,-2.2485,3.4575,-6.4897,2.7575,
0.21867,3.8322,-4.4192,0.41973,5.2095,9.029,-0.80724,-6.0068,-0.060764,-3.0431,0.055087,-0.36578,-4.8955,-3.4335,
-0.51758,1.9153,-2.949,1.6001,4.1738,7.2822,6.7128,-2.5131,0.66601,-2.1374,-1.1533,2.3075,-2.4324,-0.094208,
-0.48629,-0.60998,-5.1824,1.5038,2.9592,7.327,2.9358,4.8683,-3.7125,1.3651,-4.9402,10.364,-6.625,9.0702,
-1.1802,4.9705,-5.1122,0.69047,7.3612,10.9849,3.4828,5.2993,0.60783,8.7552,1.8639,16.2498,-2.6118,17.4443,
-4.7249,1.0568,-5.0469,-5.8584,7.1605,5.2642,7.3712,-1.0442,5.1507,5.0964,4.4031,6.8387,2.6061,6.0333,
-0.10281,0.99363,-5.7077,-2.1327,14.9258,7.8411,7.411,4.3209,0.50306,4.3089,1.7291,3.5366,1.968,4.2253,
2.5547,0.69236,-4.1606,-1.7635,16.6816,7.1289,7.2071,1.4103,-3.6247,-0.047647,-1.9903,2.1189,-1.2838,9.5152,
2.1602,1.8563,-1.7416,0.029264,17.3677,5.4966,5.5696,0.60254,-3.648,0.19641,-3.5579,6.5717,-0.96553,11.5956,
-1.1027,1.9862,-1.8778,2.1969,20.9056,6.3719,6.441,4.664,-3.6698,-1.02,-5.0314,6.4186,-2.5946,7.2847,
0.89169,-0.5436,-2.7295,2.547,21.579,5.5072,8.4642,2.4559,-3.932,-6.7438,-3.7661,-1.1978,-1.4751,1.0625,
2.0433,-0.75172,-9.0734,2.1535,14.2589,5.8999,2.4129,1.1035,-7.3113,-5.6161,-1.8527,-0.40282,-1.1454,-4.0627,
2.1619,0.49845,-4.9134,0.81919,10.7521,3.3769,5.4019,-1.1321,-0.8473,-2.1458,-1.0184,3.237,-0.8359,-5.5059,
2.0321,0.95047,2.1299,3.1802,20.7118,3.6563,7.9698,-0.099831,-0.79646,-2.981,-1.4393,2.0784,-4.1602,3.0192,
0.94612,-0.55259,1.038,4.4354,17.0592,3.919,4.5994,1.8341,-5.0872,-5.2125,1.0575,-0.45662,-3.9104,3.8021,
0.40719,-1.9659,3.3861,-0.16929,7.3583,-0.65464,3.3593,-3.5783,-3.3355,-6.3457,-3.3445,-1.8752,-4.1579,-7.513,
0.38275,2.9727,2.2186,-0.64152,15.5939,2.7586,1.7115,-1.4359,-6.0279,-3.0729,-9.4108,0.16546,-6.319,-8.9909,
-0.12214,2.3125,0.15772,1.8076,12.2481,4.5218,4.0194,4.4353,-3.738,-8.6731,-2.5792,-10.4493,0.3271,-4.5946,
-1.3201,1.4503,2.7994,5.3145,6.4516,5.9377,4.5011,6.8203,3.4761,-10.3219,2.6368,-15.3664,7.2974,-0.22156,
-3.1691,0.39946,1.1851,4.9956,11.8491,5.581,0.37466,5.4472,-0.58882,-2.9541,-1.3778,-6.2493,3.967,-2.1365,
1.6008,-3.7219,1.8369,3.0087,15.2355,-0.29705,3.9676,-0.42326,-5.6152,-4.4637,-1.5361,-0.81309,-2.2966,-7.0699,
1.9867,-2.0523,3.6554,4.7568,17.2139,1.649,4.2115,3.4585,-7.206,-7.0884,-3.8541,3.0925,-4.0865,-1.3426,
-4.6402,-3.1347,4.6411,3.7478,11.6015,1.7908,2.2718,5.4204,-5.569,-6.9043,-8.2024,-3.1188,-0.22613,-0.53942,
-2.4336,-4.3929,5.3265,1.5948,11.8693,-0.24487,2.617,1.2383,-5.2349,-3.5975,-7.2283,-4.3779,-1.6593,-3.3996,
-1.3235,-0.7546,2.1146,1.4993,20.7983,2.1802,5.8346,3.0925,-5.8849,0.95691,-4.3842,5.526,-4.4516,-1.2672,
-2.9318,0.97744,3.675,-0.76028,18.8271,2.7723,13.4383,2.6659,1.94,4.0325,2.3863,9.7737,1.8406,-0.46824,
-1.0682,3.5703,1.7672,-0.95517,16.975,4.7755,10.4633,2.7469,2.065,5.4783,2.0026,8.9463,1.9716,6.0678,
-1.9682,2.874,0.21518,-1.38,14.51,2.5606,7.4247,3.5462,-1.4336,-1.1172,-1.9742,-3.6418,0.40728,0.88324,
-4.7426,1.7377,4.0587,-2.2615,11.2293,0.9607,10.3536,2.8515,-1.8295,-7.3171,0.072486,-11.1361,2.793,-7.3645,
-4.2169,1.3922,0.68188,0.52547,9.8324,4.5187,7.0811,4.3674,-3.4067,-2.7805,0.30933,-0.58574,0.9384,4.8878,
-1.0716,-0.13736,0.15881,-1.4345,2.0114,2.3192,6.6565,2.6594,-0.7924,4.6169,-0.19185,6.68,-1.0463,8.4507,
-2.2123,2.5222,0.87241,-3.0354,2.1319,2.4212,4.5696,3.7049,-0.021729,8.4375,0.060858,6.5204,-0.26042,0.47204,
-6.4179,-0.52165,-0.14426,-4.2995,2.9683,2.7579,3.8135,3.4826,1.4258,3.5929,2.4678,-0.61972,5.0579,-2.4488,
-1.9357,-4.1055,1.5518,-4.2823,4.4772,3.7975,8.1642,2.5505,2.0634,1.6899,2.0785,-8.5365,3.5493,-0.13249,
-0.37354,-2.4132,-3.3617,-4.5075,7.1009,3.5698,7.1922,1.9157,-4.8091,0.6244,-3.3486,-10.9166,-7.2687,2.7678,
-0.10994,1.3468,1.419,-3.514,8.3618,6.4889,9.8939,1.5596,-0.90533,-0.61812,0.94944,-6.6464,-3.6998,7.1807,
-4.2007,-1.867,2.5392,-5.4723,10.0293,8.7507,4.2391,1.2251,-4.9484,0.6238,-1.2767,-5.0423,-3.7188,4.0988,
-0.33323,-2.4779,0.69959,-4.903,14.0073,6.0565,5.672,1.8745,-2.9642,-1.1004,-2.4049,-9.801,-3.2542,-3.137,
3.7843,0.32209,2.3451,-7.2601,13.408,0.63163,11.3574,0.55693,6.1315,-6.5782,5.6929,-17.1669,3.9307,-4.6358,
-0.2991,5.123,-1.1701,-9.7166,10.1934,4.9325,8.2654,1.4878,5.7636,-0.39848,12.5826,-12.2805,7.5512,-3.3933,
-1.9686,2.1643,0.58758,-8.8928,11.2688,6.3236,12.8314,-2.2171,6.6228,-2.062,10.6221,-12.7488,8.3032,-9.6974,
1.5237,-0.3759,1.516,-3.0569,19.7515,4.0157,13.9895,0.3263,5.2614,-6.2769,4.2,-12.466,4.4308,-3.8131,
-0.97782,-1.7996,-5.8058,-5.7655,19.5307,0.88226,5.9192,2.7168,-0.35698,-1.5619,1.5379,-8.3436,-3.5478,0.75396,
0.76807,0.47799,-4.2522,-6.1425,15.2254,-1.3394,6.2874,0.38468,-2.0223,1.1833,0.7227,-7.602,-2.6121,-3.8706,
2.1682,2.3775,-4.9609,-1.4356,13.348,2.1154,3.982,1.8079,-7.2036,-6.1185,-5.5872,-9.0741,-0.04474,-3.1564,
9.269,6.5732,0.63937,2.025,16.8854,5.8449,8.5633,3.6276,-1.4688,-9.1258,-1.3956,-13.8323,4.7782,-1.5208,
13.2921,6.4197,3.2521,1.1801,20.4516,5.2528,6.8442,0.27644,-4.9965,-8.3373,-3.4814,-14.2076,-2.0164,-3.5991,
11.2895,0.0087869,-0.07628,-0.095744,17.0556,9.0352,1.3721,-0.46328,-11.204,-4.2214,-8.8159,-3.9549,-4.5463,-5.0702,
12.2992,-0.71487,1.1334,1.1151,15.3091,8.2519,7.3156,-0.19429,-6.4346,-4.2093,-7.5639,-1.0663,0.30552,-12.7199,
11.0791,5.5948,0.5832,2.0123,20.6568,5.8288,6.3945,-0.18286,-8.4589,-7.8134,-8.5565,-6.3048,-4.0509,-17.7411,
9.4507,3.3311,3.4405,2.3737,15.0793,8.8533,5.5287,1.2746,-4.5767,-4.9338,-6.1147,-10.747,-1.3975,-11.8561,
5.0273,-2.6533,0.342,0.30307,1.6411,8.8045,4.2331,2.162,1.0006,-1.2638,-0.44517,-11.0665,4.9529,-13.073,
4.0023,4.4957,-0.88381,2.454,5.158,5.6247,5.6663,8.0583,1.1815,-3.3571,7.5353,-10.1611,6.8249,-16.8679,
1.8337,4.2258,5.4355,1.3427,6.2946,1.4306,7.7362,3.7182,-1.2997,-9.9043,4.1909,-20.6393,2.0768,-15.856,
3.6519,0.59777,7.52,2.7084,8.327,9.0575,6.3082,1.5669,-2.668,-6.9,-5.2196,-21.8111,-1.4222,-7.1919,
8.2537,3.4542,8.9972,6.8844,8.792,7.068,6.8938,1.9546,-0.097585,-6.0038,-2.978,-17.6101,3.4836,-13.991,
7.7582,6.1392,9.9034,7.9174,3.4435,-1.0686,3.1059,1.8375,-2.0202,-6.6077,-0.38944,-17.0352,3.2748,-22.3108,
12.8361,4.0839,7.1398,8.6474,0.10365,2.1288,1.2321,4.8605,-2.1397,-3.078,-2.535,-12.8798,3.319,-13.9825,
26.166,1.9107,10.0859,9.0929,-3.759,-0.89146,5.497,4.5689,3.2913,-3.8571,-0.45471,-11.1427,6.0124,-12.6612,
38.696,4.6883,9.4809,7.5832,2.7333,-5.1765,0.34668,1.4025,-4.6191,-3.6259,-3.3197,-11.4383,-0.61507,-14.3118,
50.4743,6.5762,13.9733,7.3692,15.3438,0.19575,2.0126,-1.3328,-6.0292,-1.2392,-1.9157,-6.6546,-1.783,-9.3558,
61.5458,1.6021,13.3761,4.2757,16.5925,-0.056736,-0.27704,-1.0116,-5.4263,-3.3338,-0.1133,-0.71195,-6.7375,-8.5532,
58.8174,-2.8324,3.4145,0.64474,9.33,-0.53572,-10.8657,0.49489,-10.4033,-2.6518,-5.4091,0.77702,-13.5641,-2.2555,
58.1806,-3.1446,8.0301,3.0164,3.9497,1.9068,-3.947,-3.391,-3.0305,1.3634,-5.5668,1.2126,-4.0733,4.1466,
52.0385,-4.6429,5.8613,1.148,3.472,1.0692,-5.8796,-5.3569,-4.5356,-1.8516,-4.9916,4.2731,-5.034,-5.5024,
48.1933,0.69689,3.8224,1.8025,9.7712,7.0306,-2.8753,2.9183,-0.64853,-0.05331,5.1899,2.3295,-2.0809,-9.2696,
47.2299,0.17314,7.4494,1.6943,5.8104,7.0912,-0.29262,2.7432,4.693,-1.4964,6.3247,-5.5231,2.8647,-5.8209,
41.9859,-0.80112,7.4844,4.0028,1.6059,9.0758,-5.0953,0.65039,0.55552,-2.3705,0.6426,-0.85338,0.28268,0.3129,
36.0919,-1.7174,5.1072,-2.022,-0.41911,8.5308,-2.8619,2.0576,0.52173,-7.5309,3.0142,-3.6947,-1.181,-2.5984,
34.4087,-1.6143,3.3545,-2.3826,0.57036,7.0551,-5.1003,6.7549,0.0084911,-7.561,3.7977,-4.4369,-1.1097,-2.9244,
28.97,-3.4454,2.6715,4.509,-1.8742,2.7757,-11.061,2.9749,-1.92,-6.6251,-1.2507,-1.7603,-2.0072,0.14333,
26.2675,-0.82858,9.2597,4.7204,1.6127,5.0192,-1.2383,0.86822,3.9798,-6.71,4.6089,-3.5829,2.4516,2.0629,
18.1837,-1.502,2.1964,-7.8551,2.2391,6.8875,-0.92282,2.0212,0.12536,-8.4763,7.9476,-10.8399,1.5813,-2.6404,
19.0211,1.4804,3.9925,-8.3479,0.17629,6.474,-0.86768,3.3459,3.974,-3.1477,9.3992,-7.2973,4.8607,-5.3742,
18.1208,2.1145,6.8865,-1.8215,-1.0396,7.7728,-3.9491,0.012161,1.5664,-0.78926,2.3273,3.0225,-2.4208,-5.7747,
14.8642,-3.0738,3.822,-1.9534,-3.6285,8.5115,-3.9529,-1.1941,-2.1428,-2.9113,-0.94563,4.5286,-8.3014,-5.6694,
16.1419,0.72602,8.1724,-3.5229,-5.0976,6.314,1.346,1.5296,4.4937,-3.9415,1.2807,0.15954,1.1152,-3.642,
7.2192,2.3697,-0.75408,-8.3732,-4.5508,0.87304,-7.6529,-2.1781,-5.1764,-7.8028,-8.1966,-2.5016,-4.9777,-5.1107,
6.5451,2.4685,2.4246,-3.2916,-3.0729,2.9898,-1.1681,-0.84211,-2.6966,-4.2011,-0.23297,-0.18233,-4.92,-5.045,
7.3575,1.1153,5.8948,1.0035,-8.9138,6.4261,0.5894,1.3778,3.4914,-3.2259,6.7711,-3.7866,1.8829,-3.5373,
4.7469,-0.63885,0.47945,-1.2258,-8.138,7.2458,-5.472,2.018,3.5229,-3.2733,5.1595,-0.90783,5.3854,-1.6378,
5.9085,-1.5646,2.3786,-0.67013,-4.7575,1.5086,-1.287,1.8972,2.8294,-5.0054,3.8859,2.5209,2.17,-2.0217,
2.1796,-0.024476,-0.1742,0.81633,-3.5077,0.93573,-4.1019,3.7115,-3.6069,-6.6332,2.2065,0.44142,-4.7087,-1.9004,
1.0847,-0.023237,2.2466,1.2491,-5.2256,4.7362,-2.4097,2.5248,0.46566,-5.7531,7.377,-1.0311,-0.088074,-1.7861,
0.29626,-1.2267,2.8347,0.45122,-6.5993,2.7648,-1.0603,1.6499,0.19675,-8.059,8.6211,-3.1389,1.6044,-0.47414,
-5.9878,0.77489,-4.084,-3.4325,-4.7573,1.6348,-2.9247,4.4432,-6.5637,-10.4677,6.1759,-6.3247,1.5084,-2.3737,
-6.8341,1.9335,-2.1515,-5.8778,-8.569,2.2599,0.38408,2.0077,-2.0723,-8.6346,7.0104,-9.0785,7.9256,-8.257,
-6.1828,2.0586,-2.2636,-1.9095,-10.7062,5.2575,-2.2903,4.0562,2.1491,-3.0551,9.2411,-6.8468,7.2089,-6.0741,
-11.1143,0.97103,-2.1281,-1.3128,-8.6178,3.978,-2.1526,6.2231,3.9486,-2.8715,14.4714,-7.4001,7.7404,-10.5302,
-7.7963,2.1181,3.0613,-0.51113,1.2993,4.9446,0.14567,5.6088,2.9883,-2.4583,14.808,-1.4125,6.0707,-9.1755,
-8.2929,1.991,1.4314,-0.96239,0.25698,3.2017,0.13693,4.7903,2.809,-2.3108,13.9195,-1.8097,5.7065,-8.143,
-8.7592,1.8715,0.38161,-1.869,-1.2042,2.0452,-0.35367,4.0205,2.6405,-2.1721,13.0843,-2.183,5.3641,-7.1725,
-9.4387,1.518,-0.36441,-1.9976,-2.337,0.71791,-0.091258,3.5385,2.7233,-1.8006,12.5405,-2.2928,5.2834,-5.5366,
-9.3543,1.427,-1.3064,-2.3597,-3.6431,-0.77142,-0.56772,3.3262,2.5599,-1.6926,11.788,-2.6376,4.9664,-4.7225,
-9.9983,1.5823,-2.4333,-2.9414,-4.6298,-2.4124,-0.77462,2.4038,3.1296,-0.86813,11.3217,-2.7203,4.4275,-3.2338,
-15.424,1.2464,-6.8671,-3.9702,-6.5212,0.38347,-6.7537,3.4644,-1.156,-1.5394,6.5451,1.0583,2.9565,0.093215,
-16.9089,-4.1308,-4.0447,-8.0701,-10.4684,-0.60363,-6.3487,0.36422,-0.1225,-4.3393,4.7063,-0.93359,1.3331,3.4618,
-15.6532,-0.7497,-4.5251,-6.3808,-10.5635,3.0478,-5.7266,2.5118,-2.2841,-0.46331,5.1466,4.6663,1.0119,9.2799,
-17.6065,1.7054,-7.6276,-5.0341,-13.3037,5.7574,-7.3112,3.3249,-5.5215,1.0107,4.3559,3.9044,3.8437,4.8667,
-16.3091,-0.56608,-2.1087,-8.3475,-10.8187,6.1349,-4.2214,1.4382,0.35341,-1.2195,4.8179,-2.3559,5.7823,-3.8609,
-13.6436,0.67295,0.6691,-5.1953,-6.5539,6.008,-2.7631,6.8957,2.9835,1.023,6.6978,-0.045168,4.2303,-5.3167,
-16.6811,-0.81346,0.14679,-2.9552,-17.2481,1.309,-5.0076,4.0716,2.8043,-3.8588,7.26,-4.8629,3.9762,-1.1411,
-21.4651,-2.6931,-3.2362,-9.0446,-27.3002,-1.1799,-14.3479,-2.9213,-2.1845,-4.1095,2.0039,-8.4278,0.84536,5.676,
-23.0695,-2.0493,-5.4524,-13.8048,-25.1805,-2.5552,-14.4516,-1.3,-1.5712,2.4039,0.43764,-1.6554,2.7231,1.9608,
-21.6853,-1.9264,-3.1971,-11.5303,-21.7415,-2.4019,-7.7995,1.67,1.897,5.6336,4.7497,4.2285,5.4517,-2.9771,
-20.8661,-1.3288,-4.9334,-6.5001,-19.4727,2.5625,-11.6703,1.0879,-1.5908,6.7419,3.5004,7.3493,0.30438,5.8781,
-22.9886,-2.6949,-2.2273,-7.074,-27.9453,-5.3036,-11.452,-1.8694,0.9148,1.0352,4.7366,-4.6608,0.28612,6.4898,
-25.9478,-4.4616,-4.0216,-11.47,-35.4274,-13.1803,-9.8008,0.65309,3.2703,-1.4373,6.8628,-6.7915,1.715,1.2799,
-28.0061,-7.3272,-10.2881,-12.4691,-33.061,-8.2923,-9.9359,-2.5198,0.90466,4.1923,0.90764,7.7159,0.40702,1.9262,
-24.1564,-7.1288,-4.6093,-9.0694,-27.4617,-7.0717,-8.1342,-5.9838,-0.83661,6.5921,-2.2801,15.8094,1.5877,3.0157,
-24.153,-5.2546,-3.8506,-9.4895,-23.4036,-8.0934,-11.0208,-0.32191,-4.6426,1.8585,0.26708,7.6302,1.0107,4.7632,
-27.2836,-10.001,-5.3068,-11.0893,-32.3637,-6.8849,-10.6005,-1.026,1.6615,2.4699,7.2405,9.3415,3.1192,7.6104,
-24.2006,-9.8831,-4.0243,-2.7112,-33.7961,-4.0614,-11.8925,-0.48223,3.9717,11.9624,8.2521,14.0835,2.4499,13.9025,
-22.5073,-4.2286,-5.9518,-0.37912,-24.7787,-5.5048,-10.4558,2.198,3.4927,10.0396,9.4444,1.9105,2.0617,14.2739,
-25.4952,-4.9388,-3.6669,-4.6952,-23.7739,-12.4053,-3.5619,-0.34444,5.6933,-1.1676,10.3235,-8.8094,5.3125,-0.68256,
-27.8221,-3.6788,-1.0365,1.3711,-24.2759,-8.2868,-3.8304,4.9786,5.8334,4.2049,13.5607,1.3599,7.886,-8.7163,
-29.5275,-2.9759,-2.4204,0.8067,-32.9425,-8.7537,-7.9391,2.2696,8.3757,8.2907,15.6394,3.6886,10.7871,-4.3372,
-27.5146,-4.9663,-2.9983,-3.821,-33.6173,-11.3617,-9.1498,-0.51747,7.6324,5.1424,9.6396,4.1905,9.4167,-2.3895,
-23.4534,-5.6324,1.0382,-2.1455,-22.441,-6.8234,-7.6367,3.8521,5.2465,4.3517,10.5072,4.4212,5.9594,3.5387,
-21.5642,-8.187,2.9037,-3.463,-22.5408,-11.7166,-6.2146,2.1747,5.4136,1.6804,13.2513,-4.0388,1.2635,8.1466,
-18.5829,-0.70567,-1.3677,-0.60367,-20.9471,-10.7724,-8.0107,0.83919,3.4018,10.4974,7.8767,9.9421,-1.4636,13.2017,
-20.3603,-2.1098,-3.696,-2.0139,-23.065,-9.6444,-8.9765,-5.4779,2.2331,13.7238,4.9937,16.0942,1.0346,2.2865,
-17.6924,-2.4652,3.2747,-2.375,-20.7168,-8.1014,-6.0273,-1.7748,5.4736,7.1162,9.0329,1.6312,8.2033,-5.0816,
-11.0877,0.81577,5.2469,1.8646,-15.3764,-6.8924,-4.9428,5.3211,2.976,0.66323,2.9468,-5.457,6.5058,1.7308,
-7.2889,-1.4019,7.1017,1.9939,-15.1767,-8.648,-4.4053,-1.9876,1.5922,-1.0638,-0.36302,-3.4419,2.5001,6.6886,
-11.913,-3.0052,0.1679,0.18728,-11.6148,-7.8879,-12.0945,-5.0016,-4.5287,1.1694,4.2383,1.3442,-0.78319,4.6003,
-14.5727,-4.2707,-5.6268,-0.30589,-11.4003,-11.2711,-11.3688,1.565,-7.1495,2.5455,4.4659,4.6375,-2.1825,-1.4603,
-10.8058,-2.5687,-1.9147,0.67633,-11.1982,-5.7745,-6.8307,0.98921,-0.93593,11.5518,-1.1047,13.5183,-4.4616,5.3758,
-14.9782,-0.48635,-4.2099,1.6001,-8.1162,3.731,-10.2768,-0.99834,-0.39738,15.679,-1.5203,17.046,-0.33755,11.3202,
-16.0077,-1.4215,-1.0653,0.057813,-6.183,-3.7237,-6.7681,1.9536,0.1084,0.63823,2.4273,1.9232,5.9492,0.51764,
-10.7089,3.4845,1.8907,1.5001,-0.99173,-4.9466,-4.4339,-0.091786,-0.3805,-6.5102,2.7636,-10.1235,1.2539,0.96851,
-14.164,2.0704,-1.8379,3.5795,-2.6192,-0.55219,-6.8192,-7.0759,-1.0808,4.2445,1.3927,2.7762,-4.3651,5.008,
-17.8934,-6.0076,-5.3431,8.4264,-6.0775,-1.2424,-7.1334,-4.4822,-1.7388,10.0154,2.032,14.4202,-3.3799,3.0203,
-18.0249,-6.3703,-8.6377,7.6797,-4.0258,-3.8192,-9.3562,-2.5263,-7.1784,4.353,-0.25882,5.601,-1.972,4.5261,
-10.4354,0.0375,-2.0939,1.1933,1.2778,-5.2768,-0.35918,-4.5439,1.2065,-0.005515,3.8541,-5.5808,6.1,5.9422,
-12.7016,-2.3751,-5.3425,-5.6269,2.1653,-3.5142,-2.2656,-2.8247,1.6163,1.9228,6.0332,-2.3537,1.8779,1.729,
-15.5552,-6.8121,-10.5658,-5.5305,0.3479,0.31187,-7.6735,-3.8608,-1.132,5.905,5.9119,1.8847,-2.8143,0.42023,
-5.2216,0.10432,-3.4241,-2.065,3.4603,-1.3938,0.74088,-5.3161,3.0331,4.3456,8.2085,-1.8436,4.3442,10.2767,
-6.3546,1.5443,-4.6649,0.95098,7.1091,-6.6129,0.69643,-3.069,2.3691,-1.2178,3.8596,-6.5537,2.6373,8.6962,
-13.4453,-3.6098,-3.6619,4.5096,1.1391,-5.9749,-1.9967,-0.71544,7.7708,-0.90349,5.3155,-5.9193,2.2383,-5.9255,
-14.3258,-2.6703,-1.755,4.9619,-9.7755,-5.8574,-5.9742,0.53232,4.653,5.6582,6.6833,0.94336,2.8269,-7.8596,
-10.8147,-0.34092,-6.2289,2.495,-12.8044,-7.1931,-5.8567,-1.1868,-2.616,10.3804,0.2568,8.8405,0.48814,6.7119,
-7.0328,-1.0434,-5.6142,-1.2701,-10.3489,-7.4849,-0.92605,-2.8029,-0.77184,9.9985,-2.4097,10.9616,0.69982,10.0449,
-13.1183,-4.5962,-9.3747,-5.7732,-6.1125,-8.7226,-6.4141,-2.3933,-4.8229,4.8193,-3.9523,5.2422,-1.5113,3.4167,
-7.5108,-0.94619,-0.61778,4.2139,1.4848,-4.825,0.23748,0.64216,0.76891,-1.2546,1.1053,-7.1236,1.9536,3.2114,
-0.7936,2.485,2.3118,12.1558,6.6984,-3.5716,1.6695,0.60363,-1.6874,-11.3027,-1.8536,-19.2297,-0.57377,1.5729,
-0.022395,6.4335,0.96803,10.2219,12.3223,-2.1518,2.7744,4.1831,-0.38059,-5.0807,1.8733,-13.014,5.0045,6.54,
-5.8061,-0.7014,-1.9826,0.44906,6.2803,-7.3254,2.126,-5.227,-0.35821,-0.43755,2.7248,-9.3411,1.8117,-0.1189,
-1.8421,0.06427,-4.5145,6.9303,13.8574,0.10381,1.7572,-3.7078,-2.5057,6.5788,1.3567,2.5478,-5.2866,-0.35296,
-1.7313,0.54212,-4.2438,6.5142,12.0619,-1.8304,2.6159,0.37081,-1.3912,1.8455,0.79312,-1.9436,-3.5234,3.5248,
-5.2431,1.2327,2.5185,3.4721,5.3124,-6.3005,1.2539,-0.8565,0.37925,-6.7011,0.50433,-15.927,2.7133,1.144,
-1.3131,1.8817,1.6445,8.8074,5.2346,1.0674,1.9015,0.88212,1.0794,-4.6118,3.6076,-18.2254,4.2377,-0.61191,
1.1758,-1.6057,-2.793,8.2789,2.9924,-2.8531,4.68,-5.9197,1.497,0.0032149,5.3188,-13.7574,0.12709,-1.5395,
-4.9205,4.0345,-1.4199,3.6846,11.2487,-4.8513,1.7479,-4.8414,-0.27979,4.5825,0.42065,-4.978,0.36066,4.0967,
-11.6151,0.177,-2.54,-5.9365,10.3328,-5.7655,1.402,-4.31,0.94183,2.6204,-0.32795,-8.2947,2.5082,3.6099,
-6.0973,-6.1004,-5.2799,-6.5444,3.4461,-4.455,2.282,-7.4256,3.7776,4.8735,4.5127,-10.2074,-0.5346,0.50104,
-4.0445,-1.6368,-3.758,-3.0185,-1.3402,-3.947,-1.9525,-3.3649,5.7203,1.9298,5.4465,-12.7282,0.70254,-6.0367,
-11.2734,-0.81542,-0.39926,-9.8268,-6.8031,-11.1817,1.2984,-2.9218,6.5822,-10.4783,5.8433,-25.2209,6.6862,-9.7721,
-8.1871,-3.1769,-2.3033,-5.381,4.692,-7.1366,3.1484,-1.7824,-1.5257,-2.619,2.6,-13.1023,0.018251,4.9142,
0.74029,-3.7091,1.4503,5.7883,8.0259,1.7277,3.2005,-1.9164,0.25302,11.6381,-0.20712,1.7838,-4.5621,8.5962,
-7.7403,-4.6919,1.6043,0.86129,-6.5556,-3.9195,-2.5352,-6.8631,6.2634,7.9271,1.4925,6.8587,-0.19105,-2.7658,
-18.6038,-2.7234,-8.3741,-4.734,-12.3083,-4.8894,-5.5163,-3.318,6.6107,5.7645,5.5006,-1.9887,2.9537,1.9797,
-14.5953,-3.0417,-5.9437,-4.9319,2.5302,-2.6681,-0.84678,-3.1187,5.25,4.9364,3.724,-8.1361,2.2943,-0.067082,
-9.1401,-1.1722,-1.9714,-2.4668,5.3912,1.1076,-2.001,0.20165,1.8017,0.54265,0.84973,-6.4429,0.95157,-2.7144,
-10.5198,1.7907,-4.2633,1.5376,1.6932,2.487,-0.91711,4.5279,3.6218,-3.8282,5.1371,-6.0563,2.8227,6.6075,
-11.5761,0.95987,-4.2489,6.5068,1.8326,0.65053,0.82514,-1.7693,3.1635,-5.2858,3.1416,-8.8264,1.9304,7.4159,
-10.1584,1.6254,-4.7171,8.7677,3.4101,3.7452,0.53444,-1.422,1.2867,1.5391,0.3018,3.5135,1.5734,5.7659,
-14.3694,-1.8463,-4.9158,-1.3991,-6.4357,-1.7824,0.020669,-3.2651,3.6194,1.4465,1.2478,6.6774,0.99682,0.59945,
-19.0508,0.9153,-6.3083,-3.4848,-10.6291,-0.9523,0.26017,-2.3461,3.1615,4.493,4.3062,1.6968,0.69627,2.7329,
-25.8618,-1.7907,-11.4734,-3.5167,-13.6068,1.274,1.4498,-2.9287,3.2128,3.9824,5.735,-3.4663,4.2695,1.3636,
-26.238,-7.9498,-7.4106,-7.644,-13.2723,-1.6945,1.8448,-5.1631,5.4302,0.85143,3.4627,-2.7764,5.4595,-0.64641,
-19.1201,-2.8935,-3.8324,-4.0521,-4.5222,-1.3519,1.0112,-1.7198,1.4889,2.9695,2.0497,-2.3688,-0.41118,5.9003,
-16.5269,2.1006,-5.049,-0.91667,-8.5894,-3.6811,7.2168,-4.5089,0.43549,-1.5472,0.9626,-9.4573,-2.7969,-3.131,
-18.1864,2.2157,-5.9511,-0.62048,-10.7254,-1.7728,7.5069,-3.9972,2.5788,-2.1775,-1.2641,-3.8284,-1.9059,-11.3786,
-23.8441,-2.7379,-6.076,-2.9938,-14.9021,-5.0413,0.79001,-0.86527,2.424,1.8095,-1.1887,-1.6705,0.61856,-6.84,
-25.3057,-4.0194,-2.337,-2.814,-24.1313,-9.0772,0.26067,-0.81336,7.5812,2.1833,4.6677,-1.0883,4.4378,3.6938,
-23.064,-0.16308,-4.8481,3.8628,-20.0317,-1.5424,-2.8882,-1.9696,4.957,5.6675,1.7363,13.077,-2.3361,6.1235,
-17.3419,1.7749,0.74547,9.4156,-12.5633,3.3704,1.6234,0.076751,0.80316,12.5583,-2.7062,21.0899,-5.5704,-1.4748,
-19.917,1.9094,5.762,8.6093,-16.8711,0.99898,4.1771,4.6514,-3.8248,7.7075,-5.1954,8.0144,-1.6208,5.6036,
-24.0242,5.6512,3.9704,7.6108,-21.1615,-1.4711,5.3727,5.3367,-1.1847,-3.3603,-1.9912,-5,4.7434,15.3903,
-16.7984,7.2403,7.5886,8.6004,-14.5892,-1.8652,8.4248,-0.28617,5.6348,-7.9794,1.5023,-10.9665,4.9403,0.36686,
-17.2365,3.4317,6.6511,5.674,-8.8934,0.65705,2.6169,1.6594,-0.48761,-1.7158,-0.03386,-2.5959,-0.65853,-11.5858,
-22.951,-1.5949,4.3239,2.4415,-13.6624,-2.7568,1.4956,0.59553,-0.45835,0.31535,-0.51376,5.2731,0.82724,-2.6959,
-19.8867,0.67038,5.7517,9.2849,-12.6012,-2.35,2.1292,-2.5732,1.7383,-3.8009,-4.0984,1.3412,0.054704,3.0099,
-19.1757,6.4145,6.3707,11.6196,-6.0608,2.1291,2.9651,2.8836,-0.77635,-4.537,-3.8527,-4.0421,0.051193,9.5775,
-23.5687,4.8248,5.7474,6.3432,-9.7945,-1.6136,6.403,2.9515,0.95746,-4.9877,-0.005644,-4.0405,2.6997,8.28,
-23.6009,3.0888,-0.38221,7.8905,-11.1353,-1.999,1.6803,1.8103,1.3822,-4.6886,0.95833,0.058507,-1.8009,-5.7144,
-19.5337,1.6982,-2.5284,7.6581,-9.7442,0.28969,3.7482,1.4603,6.8424,-4.6483,5.4801,-3.5609,2.4045,-11.3971,
-20.7718,-1.7779,-2.377,-0.51396,-10.6056,-2.1376,3.5235,0.89098,4.022,-5.3335,2.2595,-9.6135,5.6345,3.3867,
-24.1048,-3.358,-7.2956,-3.6164,-8.2821,-0.80404,-1.2672,3.0067,-0.31671,-2.8443,-1.4915,-9.2777,4.0916,13.9093,
-23.6226,-3.1568,-8.3039,-7.2558,-13.5695,-4.6124,-0.22704,-1.5123,7.8972,-2.6734,2.9365,-10.1673,6.7384,-1.0252,
-21.4821,-0.31626,-10.9391,-8.5077,-14.9245,-7.9511,-3.3469,-0.69818,5.2542,2.0663,2.5194,-1.1213,4.6469,-8.797,
-18.2652,-1.7435,-9.8008,-2.695,-9.6911,-6.5102,-3.628,1.7538,0.11827,4.8344,-1.9706,2.3199,1.9575,5.2277,
-15.0002,-5.2541,-6.0795,-2.7741,-7.9042,-5.8784,-2.6872,-1.0027,-0.61196,-0.99908,-3.5393,-6.2547,-1.2932,8.0478,
-7.8334,-1.0827,-7.1608,-2.6078,-4.5376,-3.1153,-3.4901,0.98541,0.38885,0.50689,0.047253,-2.9871,-2.1797,-3.5225,
-6.6403,-0.77633,-7.9364,-1.2461,-4.9887,-4.6156,-0.62958,0.20339,1.0884,-1.2107,1.7316,-4.0132,2.0484,-14.157,
-10.5804,-1.2121,-9.3884,-0.68938,-3.7251,-1.4461,-1.0737,0.67312,-0.42268,-3.5482,-0.78238,-7.6288,2.8898,-0.77454,
-10.1866,-2.8264,-7.1377,-4.2634,-7.1172,-3.5288,-2.2144,-0.57233,0.80774,-2.6122,-0.4947,-5.4841,1.9933,12.5285,
-4.2725,-1.2103,-1.8889,-5.9356,-8.6181,-5.7269,-0.63548,-2.466,2.2053,3.3293,2.9097,0.14786,0.42767,8.8845,
-3.5342,1.2724,-6.1139,-1.2409,-1.3522,1.3651,-3.0075,0.092128,1.1091,6.986,0.32496,6.8879,-4.4182,2.085,
-1.3942,0.71368,-0.92683,-0.68452,-5.1279,2.2471,-0.89884,-1.8416,7.3091,4.6382,0.305,5.9922,-0.77916,-2.8609,
-0.82837,2.5993,2.503,-2.0897,-8.1944,0.18429,-1.3271,-1.2489,3.4963,5.3244,0.76886,2.7404,2.6418,0.68502,
-4.876,1.7202,-1.7443,-4.6156,-6.4977,1.3783,-2.9344,0.513,1.1172,4.2818,0.96393,0.88898,0.79631,7.1516,
-3.3784,0.41169,2.4577,-3.6156,-8.277,1.0546,-1.5535,-0.72262,5.6294,3.7839,3.0753,3.0048,-0.93869,7.9278,
-3.4169,0.14602,2.5512,1.1806,-13.324,2.6781,-2.1832,0.043642,1.6762,9.1001,1.6854,8.3681,-0.15947,2.3905,
-4.1757,-3.7191,-1.4582,2.0741,-19.2732,0.10731,0.35789,-2.3691,-0.35254,5.1801,0.62045,2.5634,-1.1138,-5.4657,
3.3054,-1.0859,-0.88881,4.8422,-10.8858,0.10087,1.3007,-0.29876,-0.33139,2.9411,-1.8274,2.8915,-6.3496,7.8776,
3.8302,4.5231,2.7802,5.7567,-3.243,1.3003,2.4278,-1.9683,-1.0342,9.7542,-3.4047,9.7081,-3.7992,15.359,
0.22595,1.8416,5.0235,4.9289,-6.9048,-1.6702,4.2103,-2.3321,-0.49019,10.1329,-5.1286,10.0895,-0.67921,0.33741,
2.1406,0.7668,-0.098641,7.0438,-4.0804,2.2864,1.0652,5.5206,-1.907,3.7403,-7.231,8.0379,-4.0129,-5.3472,
3.9406,-0.24307,0.38967,6.6212,-6.7276,0.22102,0.51931,2.2973,0.13557,-2.7506,-6.3152,1.771,-5.2179,3.1688,
5.3914,4.833,3.4995,8.8752,-3.6731,-0.51537,-0.23498,-0.0099492,-1.5596,0.54767,-3.7669,4.798,-5.1461,8.0402,
4.8267,7.1941,2.0843,7.1374,3.5372,4.0953,-1.4257,2.1598,-2.1893,1.2382,-2.3361,5.7154,-2.1857,2.0141,
2.8499,4.1113,2.2002,0.68362,0.19146,1.6804,3.721,-2.0671,3.0037,-5.826,-1.4726,-4.0275,2.5247,-7.5067,
0.26874,3.8647,-1.3058,2.5708,-0.30196,1.0972,1.0877,-3.3894,0.41335,-2.102,-2.3485,-5.2321,-0.51885,1.1384,
-1.1936,0.2581,-2.192,3.3806,-4.1405,-0.41466,0.54024,-0.29371,-2.0218,-1.9761,-3.1717,-5.4003,-4.3443,4.9262,
-0.39889,-2.8904,-3.2653,-2.3658,-10.3995,-1.1131,-0.69747,1.4111,-1.6595,-4.0267,-5.6325,-3.871,-2.8788,-2.8407,
1.312,-0.066128,-5.7207,-3.4289,-3.2678,0.64111,-0.89636,0.1214,-0.3549,1.2764,-6.0177,-1.4698,3.3197,-0.019368,
7.0184,3.7949,-0.075077,0.15103,11.0282,1.0848,8.3167,-1.3319,-2.2616,-4.1026,-4.2106,-5.7197,3.1207,9.1411,
10.6946,7.1824,2.0988,2.7933,24.4665,6.0812,9.9866,6.2196,-7.1873,-11.3281,-2.7529,-6.0997,-3.0923,12.2078,
9.3298,4.1001,2.2136,-0.50756,19.8653,4.9932,8.6643,5.6052,-1.6946,-11.3715,-3.7928,-15.6159,-0.25544,-2.6247,
12.3852,4.5773,4.7321,0.72796,16.0221,6.3806,8.3856,1.6537,1.5403,-7.556,-6.6985,-26.0071,1.4469,-13.9156,
17.4269,9.1233,7.8231,11.7715,29.1607,14.6748,10.2926,8.7853,-3.3724,-4.6925,-5.3322,-18.1797,-3.4602,1.0193,
20.2374,10.0217,10.2458,13.4753,35.0036,11.3842,14.0134,7.7763,-6.0625,-4.4109,-6.4586,-7.4482,-6.1451,10.4784,
20.9516,11.8308,6.7388,11.2208,34.3494,11.1833,8.3521,3.935,-8.1092,-1.254,-12.3378,-3.6271,-9.1506,3.5829,
22.587,13.5311,8.2626,16.3321,42.4118,15.333,11.7078,5.1452,-0.39176,-5.999,-7.2588,-13.5321,-4.2628,-4.3444,
16.893,6.4527,7.7669,9.5676,39.8666,8.1461,12.4511,0.98007,-1.8145,-17.2087,-5.8594,-26.8202,-2.5612,-6.9762,
17.8077,7.0294,6.3365,2.727,37.4746,9.1036,12.6684,5.2596,-7.9722,-11.3554,-5.0259,-27.5009,-1.4432,-1.7369,
23.9698,9.018,7.8848,4.4914,33.7801,10.9673,14.8001,2.5337,-6.0478,-5.8536,-3.2783,-16.692,-3.2851,-5.4893,
25.1832,14.0205,7.6526,9.2836,37.7789,11.9965,11.261,2.6226,-2.0695,-4.2976,-4.7688,-11.111,-3.3289,-1.5445,
18.8517,12.6976,6.2294,4.388,34.0661,6.9386,7.2111,3.4298,-2.4275,-7.8959,-7.8569,-18.1568,-2.1651,-6.2724,
17.9616,10.2485,8.0248,2.9199,29.3711,10.6196,10.8758,2.5011,-4.451,-8.627,-8.5903,-14.4163,-4.2043,-6.6189,
19.2942,13.0078,7.0611,7.5652,33.3931,22.5157,13.1156,8.1354,-6.1119,-4.7351,-7.5932,-3.4282,-3.4699,7.8782,
14.7619,6.9245,4.7095,-3.4942,22.7127,14.4161,10.4002,2.3449,-4.7816,-12.164,-9.548,-17.2021,-1.3338,6.8024,
15.0815,8.1962,5.1498,-4.9718,18.2164,9.9357,9.0533,1.4808,-4.2532,-11.1932,-10.1799,-17.375,-1.9766,0.85112,
14.8995,10.8379,4.1179,3.2802,18.8107,11.0268,11.1612,5.4893,-3.2752,-7.8705,-7.8824,-9.825,-1.1351,1.041,
10.1494,7.2954,4.835,-0.2908,13.8259,4.0984,11.4561,2.7501,-2.1145,-12.2183,-6.9268,-18.8763,-2.0311,-7.2164,
10.7455,8.5447,5.7499,-0.032158,15.1653,4.0933,10.0456,2.3439,-5.1209,-9.3163,-8.1986,-17.0208,-3.1143,-6.0603,
8.4137,3.4529,5.1637,0.21097,9.1939,1.1968,10.166,-3.8226,-7.9469,-7.5518,-8.4299,-9.9738,-2.6863,-6.9017,
4.7759,3.4867,4.131,0.92167,3.581,1.8479,8.3507,-2.8698,-5.7829,-2.037,-2.8624,3.8811,-1.8022,-1.4259,
1.3556,7.3746,2.1962,-1.7854,-5.5521,6.3165,6.6446,2.3638,1.5537,1.7004,-0.039317,11.1198,-0.0070614,10.4695,
-0.41295,4.2808,1.3413,-2.4014,-18.4752,3.7682,5.0409,3.9094,3.1475,1.3572,-2.6883,5.3911,2.1628,9.6006,
-3.2805,2.096,-0.66765,1.1173,-21.7052,2.096,2.3281,2.7103,0.066362,9.4707,-2.0448,8.4424,2.5152,5.168,
-7.181,-1.6454,-1.8327,-3.0473,-30.767,-2.1273,3.3934,-5.4058,3.1956,11.0714,0.72919,10.1047,1.1592,-1.6498,
-8.4371,-2.2693,-0.99956,-2.1413,-35.9106,-1.2761,0.056586,-2.9121,3.2451,7.7562,-1.0016,9.2577,-1.0798,-2.2735,
-6.7261,-1.8924,-1.1808,-0.80777,-30.1408,0.96941,-0.66994,0.87737,1.8453,7.0497,0.74507,8.943,0.67202,4.8521,
-5.5994,-3.4659,-1.3507,-4.3749,-26.1629,-8.489,2.5035,-3.7543,3.4216,5.4216,1.9059,9.1295,0.8729,6.7304,
-5.2634,-2.2938,-4.6443,-2.666,-24.1115,-9.4257,-2.4672,-1.6011,3.2165,8.4706,-1.5831,10.9921,-1.5898,4.3981,
-7.8399,-4.5666,-4.8478,-9.2547,-31.8236,-7.4141,-2.8013,-2.9511,5.9158,6.9982,-0.52406,2.6196,1.8798,-7.9171,
-6.8873,-2.8465,-3.5924,-13.5201,-35.6987,-6.969,1.2234,-4.22,5.5607,7.0605,0.95387,-0.42987,5.6236,-5.9956,
-4.7871,-1.9526,-7.4744,-6.6834,-31.8696,-7.7559,-0.53702,-0.83357,1.6118,4.4675,-0.79081,-1.1272,5.045,3.282,
1.7669,0.57466,-0.27706,-0.015387,-21.2803,-3.9161,1.4234,-0.78356,4.4072,-4.4772,1.6672,-5.8801,7.6348,-0.28939,
5.7582,6.5662,4.3188,4.0829,-5.9035,9.5752,2.0609,7.6991,1.4917,-3.0038,2.2901,3.3908,5.4895,0.45134,
6.6178,4.0026,4.3007,6.489,-3.2599,10.6875,4.1064,11.335,-0.76701,0.30996,-1.4627,8.7307,3.4729,8.8599,
9.3544,2.5578,5.7301,8.7515,-0.89489,10.7698,1.6911,3.6652,-2.408,-4.7701,-4.9902,5.0741,-1.7969,14.8365,
9.757,6.7427,4.422,10.6365,11.2104,21.6928,0.62529,5.8555,-6.1199,-4.0019,-2.7626,6.6979,-3.6173,9.6075,
2.9049,5.856,2.7106,5.1774,6.1987,12.6782,3.4801,7.4321,-4.7891,-4.244,-3.5609,-1.8994,-1.9542,-3.9846,
0.32022,7.4323,1.1017,1.0103,9.6832,3.7224,2.7889,5.058,-0.64533,-6.8819,-0.93712,-13.8368,-0.39072,-4.2274,
1.7475,3.6126,-0.41041,-2.4245,12.9593,4.4636,4.068,-3.9224,-0.60638,-14.1815,0.083201,-24.5755,1.0792,-3.4916,
1.8834,1.2265,-0.62698,-6.3766,5.6735,5.8828,7.4391,-2.9639,-2.257,-16.4639,-4.5013,-21.8959,5.5935,-0.14887,
-7.1475,3.3223,-3.2407,-9.6092,1.7179,0.46834,4.3419,-1.0991,-1.8808,-12.3428,-4.4724,-11.6641,3.5709,-3.2732,
-7.9237,0.95356,-0.87686,-5.8994,11.0146,-1.2472,7.6966,-5.6126,2.8115,-9.4328,2.786,-8.3131,-3.1511,-14.8872,
-2.1456,0.41418,-0.34208,3.1314,22.4051,11.3613,12.0553,0.99086,0.71487,-0.18999,5.9931,3.7553,-3.4442,-0.97828,
-10.4528,-2.7439,-5.8654,-2.5998,7.3227,7.5464,8.6806,2.1365,-2.9437,0.54454,3.4641,8.5914,-1.0681,13.1804,
-12.9591,-0.89229,-3.3441,-3.167,-5.4094,5.4062,9.8473,0.80322,2.2944,-0.69319,4.9437,11.2092,2.6112,13.2332,
-8.3252,1.0894,-4.1078,4.7358,-3.6386,12.3126,8.774,4.6114,-0.25339,3.6867,3.2008,16.8031,0.044367,10.993,
-6.8616,2.4703,2.4057,1.0772,-9.6868,10.1276,8.7295,0.96028,3.1363,3.4655,3.4907,8.0822,5.3444,15.1536,
-14.4036,2.0811,-0.87216,-8.3872,-19.9518,3.0125,1.2163,-5.6048,5.1173,-0.83977,3.0403,-6.5028,7.1928,5.3268,
-17.6367,-3.5873,-7.8097,-4.2688,-16.1032,-1.2656,-2.4721,-2.617,5.5336,0.41545,2.6169,-8.4022,0.73573,-9.0928,
-8.3838,-3.854,0.37166,3.7001,-5.496,1.2204,0.56832,1.8784,4.7192,-0.57334,3.9062,-0.18556,-3.6472,-9.1499,
-2.8191,0.4748,4.4469,3.7193,-0.10481,10.065,-1.1528,2.4888,-2.5536,-1.2621,3.4306,7.2976,-4.633,5.4991,
-6.7476,-4.1332,2.0107,0.3629,-8.5344,3.9178,-0.36048,-0.79425,-0.23102,4.8394,5.8761,13.3675,-3.1504,7.941,
-10.681,-4.3674,-1.0017,0.3409,-19.1094,-5.4766,-4.195,1.1818,1.7108,14.6722,7.9339,23.6524,-4.4074,5.0542,
-15.3428,-5.0697,-5.7623,-7.8743,-28.0862,-2.7378,-9.246,-3.2274,-1.7663,10.4174,6.4935,22.2333,-1.2504,16.3201,
-14.4222,-5.2472,-3.0067,-12.7045,-31.7036,-0.16322,-6.7632,-5.4441,0.75004,7.8639,7.5499,16.0788,5.5733,9.0741,
-16.4492,-5.4147,-7.6466,-9.0499,-27.8732,-4.4917,-13.1063,-1.743,-0.25883,10.7666,4.6868,14.6321,-1.0281,-5.5703,
-13.7752,-4.8489,-7.4287,-6.3377,-24.0314,-7.8377,-13.0429,-2.8437,2.8897,4.5769,5.1285,11.1026,-4.0994,-10.659,
-7.1639,-2.6295,-2.1625,-1.1365,-14.8766,-3.0289,-11.7781,-1.2266,1.2703,6.2308,6.7492,16.7037,-5.2995,4.0805,
-7.2162,-1.5077,-2.033,0.37723,-11.0921,0.045167,-14.4461,0.29255,-1.2163,11.1593,9.2366,18.1114,-4.0179,8.0538,
-10.1577,-2.8632,-2.3927,-4.9478,-18.1391,-7.6705,-14.0611,-5.9913,1.749,3.2587,12.539,3.0452,0.079799,-6.5295,
-4.7276,-2.6917,-6.1058,-4.1688,-14.1585,-6.7282,-15.6278,-3.2215,-0.76583,4.5097,10.3406,3.3446,-1.371,-5.535,
1.0995,-1.807,-3.57,1.1428,-7.7656,-2.2273,-12.5212,1.069,0.96711,11.2287,8.0327,13.508,-2.9762,1.3043,
-5.2328,-0.25213,-1.9098,1.0744,-7.2994,-7.3957,-13.6979,-2.3694,-0.05501,8.1451,6.1047,15.5898,-8.1001,-3.594,
-11.4267,0.48567,-3.9646,-3.0876,-10.4767,-11.0495,-14.081,-2.4684,0.18949,4.5227,7.4254,11.0393,-1.1063,-5.0658,
-10.259,-3.8818,-4.6906,-10.133,-17.0789,-13.761,-13.2362,-4.7305,5.4808,2.3231,8.9081,-1.6746,7.1552,-3.3156,
-6.7514,-2.2026,-8.2656,-7.597,-11.7161,-11.9715,-14.8521,-3.9647,5.6334,5.0758,6.4454,2.2822,2.869,-4.5629,
-9.2384,-1.1064,-8.2518,-3.7665,-12.4589,-15.5913,-12.033,-6.6191,2.4036,4.7715,4.6127,11.3046,-0.19539,-12.0021,
-8.9252,0.16507,-0.28464,-0.88966,-14.3629,-10.5587,-12.0342,-3.5706,0.089955,7.6185,7.4692,8.9388,2.4677,-6.2201,
-9.3538,-1.2909,2.1423,-3.7286,-13.5012,-9.9249,-14.6864,4.3566,0.084328,6.6792,4.6107,-2.6845,2.3198,-12.596,
-4.2131,-1.9368,7.0755,-5.1921,-10.5219,-14.3911,-4.4052,-0.0026016,8.033,3.6273,-4.1017,-3.2468,5.3137,-25.9403,
2.7884,2.0361,7.615,-1.9883,0.23252,-5.3327,1.6435,-3.8586,9.9614,6.7839,-14.4611,4.661,5.477,-19.6836,
-0.27098,-2.4247,4.7478,-8.1353,1.1831,-3.0843,-2.3113,-0.7348,7.9177,-2.7819,-20.3416,-9.7186,4.1843,-4.4026,
0.95034,-0.59195,6.1501,-8.3703,0.38877,-7.479,-0.48538,5.3348,9.1298,-9.6049,-21.7727,-17.9329,11.405,-10.2845,
1.6164,3.0588,1.2016,0.085689,0.12448,-10.1635,-0.21506,3.8097,5.9307,-0.59268,-23.5996,-2.7569,10.9619,-16.1751,
0.31394,0.70607,2.8167,1.7678,-8.8013,-11.2409,1.0027,-0.034316,3.8877,7.3966,-20.9788,11.2671,1.8681,-14.9636,
-0.1866,1.1459,4.5762,-1.7125,-5.3805,-6.2279,-1.9498,5.7526,-1.1661,13.22,-20.2017,24.6911,-5.4746,-15.9938,
-2.3448,-4.4667,-2.2061,-9.0818,-3.3706,-8.0236,-7.3762,-2.5466,-2.7831,8.8112,-22.6053,37.3096,-3.4591,-1.2961,
8.16,-0.58307,5.3978,-0.58315,5.7494,-1.5164,0.05604,-5.0451,6.3017,4.1849,-12.8131,20.971,5.6662,12.8817,
2.3677,0.41601,0.73541,-1.9942,5.4047,0.020574,-6.2141,-0.88578,-0.82507,-6.1893,-15.9004,5.6128,-2.8682,9.337,
-2.3536,3.5243,-1.4776,-5.9719,-9.0196,-4.0778,-5.6,4.7108,5.7321,-5.0948,-17.5977,-8.824,4.2935,-5.3232,
-1.7302,-1.9898,-1.8709,-6.5777,-16.7938,-5.7613,-7.1922,3.9462,7.3164,0.031586,-17.506,5.8054,8.8566,-4.16,
0.060352,-8.3781,-0.55406,-2.5678,-3.4941,-6.6212,-7.4838,-0.87011,1.3336,-0.21151,-12.3583,10.2778,1.3351,-0.7776,
4.8774,-4.0188,3.3358,3.8528,9.7307,-6.706,-1.7324,-1.782,3.6639,1.2472,-5.8324,-4.4388,0.77286,-6.0334,
8.4414,-0.8854,2.1716,4.104,9.6295,0.92738,-6.4489,1.6996,3.9262,4.5471,-6.928,-13.6928,2.6549,-1.3324,
12.9964,-2.5197,5.1745,1.6884,6.4004,3.5231,-5.8208,0.3921,6.8239,6.4432,-3.8615,-0.57892,5.1469,-4.3861,
12.2166,1.4881,1.4898,3.5152,9.8725,1.3833,-7.8819,-0.59552,2.5583,7.0207,-6.0397,3.7939,2.9097,-2.1945,
10.2783,4.532,1.6412,6.4376,10.9672,3.4697,-8.614,2.5735,-1.2108,2.5023,-7.8467,-6.3154,3.9402,5.4087,
7.2515,-1.5242,7.3275,4.1234,6.453,-0.59514,-10.0256,-0.95517,-2.1023,-4.8789,-7.3761,-8.8288,-3.0449,-7.4491,
6.0935,0.25422,5.6828,7.9736,6.7889,0.64609,-11.593,1.7535,0.6752,4.3321,-3.7999,3.0289,-3.1029,-11.5816,
4.5226,-0.9661,2.2086,2.4337,0.35582,-2.044,-12.1025,0.4432,2.3221,9.1337,-3.3311,11.2831,3.5909,-4.861,
0.87678,-2.8363,1.5937,-6.3894,-0.62985,-5.2958,-18.1253,-1.512,-2.156,4.7293,-5.0595,13.9805,-1.4452,6.0355,
1.0654,-0.97892,3.1857,-1.9087,3.0238,-1.8446,-15.8324,-1.1799,-1.3032,4.2045,-1.6224,10.0082,-4.0096,3.5042,
5.5807,-2.6074,5.1637,3.2675,1.1552,-3.4211,-8.375,-1.8325,-0.02022,3.7108,-3.2123,8.2029,-3.0461,-9.4805,
4.7637,0.92326,2.9255,4.0351,2.5319,-4.1804,-12.693,2.1341,-3.3932,5.4166,-4.948,13.0131,-5.7557,-7.4656,
2.0678,2.7963,3.7141,1.3831,-0.51232,-4.4113,-11.9316,-0.4043,0.18459,1.7174,0.65179,6.4475,-3.4819,-9.4276,
4.595,0.94128,1.804,0.094797,1.2056,-1.0136,-9.5285,-0.13908,-0.067455,-2.9654,-1.0745,1.4814,-0.62189,-7.1747,
6.7295,0.8848,-0.23244,2.9816,11.7381,2.9036,-7.9925,2.7618,-2.4735,0.58697,-5.3489,5.7308,0.86169,7.2351,
8.2539,-0.61454,3.156,6.1767,11.0339,-2.0909,-4.6209,-2.2246,1.0489,2.9619,0.27473,5.8689,-2.0825,1.0164,
9.4461,3.038,2.2435,7.4936,9.6491,1.1678,-5.5487,2.0064,2.1915,3.0254,3.8739,8.6505,-3.6446,-9.8906,
4.2996,2.6143,-1.0246,1.9823,8.8288,0.37442,-5.9391,2.6089,-0.10964,-1.7359,-1.4202,3.0698,-0.29288,-5.1998,
5.4877,1.0112,0.96505,3.3096,11.1916,-3.5044,-4.1365,-0.92205,-2.9951,-3.078,-5.6738,3.3675,-3.1674,8.6095,
9.2562,2.156,-2.2257,7.6905,13.1714,-3.5349,-6.0573,-1.5894,-5.4667,-0.72348,-5.5741,11.1195,-8.5207,6.4059,
4.6032,-0.14274,-5.7078,-2.1707,3.9452,-5.4917,-4.9707,-2.2172,-0.077288,-2.3675,-2.1064,5.3908,-3.9123,-1.4504,
0.71163,-1.8214,-9.945,-9.9946,-0.87125,-3.4755,-5.3958,-1.3612,-0.79555,2.8362,-2.7029,5.7903,-2.4723,5.1445,
5.2485,-1.4712,-5.7329,-4.8152,2.7969,-3.0255,-3.3844,-3.4487,-1.9531,5.7995,-3.746,10.5045,-2.5649,6.5231,
11.4413,1.2684,0.1549,0.053235,10.5826,-3.5671,-1.9762,-4.4469,-3.5229,-1.0566,-6.6545,3.8485,-1.206,1.5522,
13.6471,3.6027,-0.33656,0.53174,15.7325,0.021135,0.070289,1.1224,-5.7219,-2.9212,-6.255,0.7253,-0.16952,3.8694,
14.5157,-0.22866,1.3711,-1.6691,8.7627,-4.0773,1.7535,-2.5602,-2.7273,-4.4329,-2.7465,-3.8973,-2.8107,0.98591,
12.6802,1.713,2.7344,-0.12291,9.683,-1.9051,-1.2444,-2.8887,-0.15373,-3.6852,-0.65371,-3.6641,-3.6061,1.8904,
5.6529,0.64592,-0.80366,-3.0081,9.102,-2.2727,-1.1698,-1.2691,-0.62644,-6.3562,-3.0246,-5.8544,-2.9078,-0.63316,
9.1703,-0.83887,5.0294,-0.89915,10.9663,-5.0282,4.2033,-0.22889,-4.9269,-3.0825,-4.2892,0.7636,-5.1433,3.2614,
8.6201,-1.7524,4.2452,2.0469,14.6466,-3.7626,2.5048,2.195,-12.3441,3.3689,-7.4063,10.3588,-10.6197,11.7424,
5.2104,-1.1653,3.0266,-1.9319,6.5374,-4.0188,4.2827,2.0633,-7.2651,1.2386,-5.9976,7.3271,-3.7155,11.5203,
2.9696,0.83279,1.3988,-4.7085,-0.60373,-1.3676,0.16939,-0.95304,-3.9372,0.19997,-4.1919,8.3337,1.8096,14.6854,
3.2733,1.2645,1.3146,-2.9799,-1.5316,-2.2496,-0.32294,-2.8238,-1.7725,-0.29419,-1.0481,8.7973,-0.22696,9.4657,
3.8005,1.912,3.8873,-1.5959,-2.6445,-6.6939,2.8299,-2.4134,-1.4252,-5.8197,-1.2262,4.1726,-7.6852,-1.4661,
5.259,3.4843,2.9309,4.5252,0.165,-1.2313,3.8652,3.7567,-3.5091,-3.7835,-0.91188,7.0551,-6.9833,12.7219,
1.3285,-1.3041,3.478,1.6026,-7.7986,-5.7367,3.8742,-3.9401,-4.0214,-4.7618,-5.4365,8.3194,-3.9128,26.0586,
0.52567,1.4257,8.8134,4.6399,-11.91,-5.1511,0.9907,-1.0526,-4.0211,0.58605,-6.797,11.9176,-4.4009,10.5156,
0.25294,0.61684,7.0788,8.4589,-14.3289,-2.1909,1.1722,5.0361,-2.0926,3.202,0.6002,4.6946,-3.4139,3.8586,
-1.4492,-4.9638,4.4854,3.3721,-14.1921,-5.6749,4.2354,-3.7017,0.68403,-2.5338,5.1439,-3.5408,0.40632,8.2068,
2.976,-0.32741,1.8059,2.6876,0.15658,-2.4421,2.5348,-1.5516,-1.285,-2.8639,2.4249,3.9023,-1.5465,13.4988,
9.064,-0.30777,1.6975,3.4902,3.0397,-2.2956,2.3827,4.3265,-2.1722,-5.1022,-1.095,7.525,-4.3458,13.6532,
5.3871,0.4336,1.3547,4.0041,2.134,-0.47061,2.4807,4.7898,-2.2828,-1.663,-0.78834,6.8325,-2.8797,15.0032,
-2.4079,3.0594,-0.41355,2.0769,3.2115,-0.20118,2.573,1.8511,0.50546,3.0167,1.9103,4.2532,0.90826,8.0776,
-2.7456,-1.9449,0.57513,0.50556,-5.1764,-5.0098,3.8649,-0.18816,5.7778,-1.985,2.7595,-4.1972,1.3357,-2.0484,
-0.17051,-0.86412,0.54039,5.2962,-5.348,0.11125,3.6328,1.2692,4.467,1.0264,3.5585,-4.909,0.29146,7.2337,
-3.0528,-0.33057,0.99013,3.5319,-2.1348,-0.37759,4.3789,-4.5913,-0.13956,-0.48167,4.791,-4.6147,1.2381,10.1739,
0.50483,3.5459,1.8948,7.1766,10.5265,-0.8371,4.1164,-1.906,-1.5772,-8.1653,5.4677,-4.338,-0.28225,0.40423,
4.09,7.4305,2.9864,9.8795,19.2954,-0.54544,5.5567,-0.58631,-2.2059,-12.2547,2.9704,-14.4416,-2.4345,-11.9121,
5.7728,6.9851,8.5918,7.3585,12.835,-1.959,13.418,-4.8895,0.81894,-7.1811,4.2385,-10.6826,0.12172,-9.2692,
-0.11723,1.986,-0.35959,1.8551,3.1466,-3.047,8.9972,-0.98089,-1.8815,-1.2068,1.8148,0.80439,1.3195,-0.27711,
-9.5102,-3.1944,-7.8098,-6.6921,-10.2986,-8.8897,7.2526,-0.68107,0.88246,-1.8573,3.8751,-10.5721,7.7483,-11.5887,
-5.8061,0.61273,-1.3157,-5.0853,-8.4753,-7.151,12.361,-5.2195,3.963,2.8339,9.1862,-4.3941,9.9345,-15.9546,
1.7729,0.093574,-1.2367,0.52226,6.1332,-1.4193,7.281,-5.8702,-3.5056,4.5916,3.8143,9.9695,-0.30258,-6.3207,
6.7282,1.2933,0.52468,1.2143,9.7423,3.7275,4.675,-2.385,-4.5001,-1.7095,0.4524,-1.1132,-4.3818,-0.39781,
9.2168,7.9643,2.4212,2.5875,3.8549,13.1446,4.3943,2.0967,-3.266,-0.64281,2.8352,-9.7238,-1.7085,1.554,
5.7715,2.1841,0.34793,2.9144,-5.5352,8.0174,4.1304,-0.9214,-0.17776,-1.0864,2.6653,-8.6582,0.32196,-7.698,
1.5686,-0.35734,0.32683,3.2212,-9.5417,0.78767,0.99029,-3.2765,2.2428,-2.9492,1.0593,-12.9592,0.30287,-7.2364,
-1.8998,4.9665,-1.6207,3.0282,-14.7535,7.0072,-3.4072,1.2587,1.1441,2.0483,4.8519,-4.951,2.2127,6.2135,
1.1063,0.81214,-2.9698,-0.046038,-23.5097,2.7303,-2.2389,-1.7094,0.11162,0.96103,4.5608,1.613,1.598,-4.2827,
7.0659,1.4863,0.82384,3.0902,-14.1449,-0.084577,-2.3455,-0.40152,-2.0642,3.5549,0.18981,7.0599,-3.0777,-11.9795,
3.0265,2.6024,1.9797,6.0383,-10.1628,-0.32047,-3.4096,-2.5466,0.71071,7.439,-0.062548,11.6979,-3.1335,-1.8603,
1.1575,-0.68721,-1.2726,8.3271,-14.1327,-1.0246,-2.0002,-5.0453,5.2474,6.7517,4.0386,8.3445,0.18753,5.2408,
2.2933,-2.333,-5.2938,8.5506,-14.9718,-0.72193,-5.0135,-2.0913,0.35346,5.1415,5.0013,7.6026,0.41748,-2.0633,
3.6022,-1.2289,0.80865,3.2171,-16.966,-2.607,-1.3384,-5.34,2.7426,5.3152,5.1834,10.0392,1.8385,-16.0395,
2.1803,1.4962,-0.92733,-1.0735,-15.7073,-5.1019,-0.53501,-4.7789,6.1928,11.5035,5.5951,7.7494,2.4508,-15.6798,
-0.36061,-1.0042,-8.1025,-4.3836,-18.1391,-9.1341,-6.2875,-2.0816,2.4472,14.1878,4.2955,3.91,1.8218,-4.6161,
5.2049,0.26135,-2.0728,0.94111,-17.2917,-8.8271,-9.0437,-1.7157,4.4695,14.0594,4.2787,12.1115,3.3998,2.6507,
5.8564,2.656,-4.3583,3.7769,-11.4337,-5.8871,-12.3573,-2.5769,6.6117,12.2522,3.5403,15.7234,1.2678,-0.4006,
6.7104,3.7017,-0.48161,0.899,-6.6501,-7.2213,-4.1442,-2.1811,9.3483,10.312,9.3537,11.1643,5.2893,-3.9918,
5.8256,2.5158,2.4398,-4.4576,-10.5897,-8.7162,-3.8956,-1.5683,0.11029,2.462,4.9356,6.6381,5.9358,-2.3064,
8.8505,3.3289,-0.59887,-3.708,-8.0261,-4.8186,-2.2158,1.9,1.0682,-6.8445,4.6397,-6.7754,8.9539,-3.1322,
11.9349,3.3701,-1.2863,-3.7265,1.3736,-3.8066,0.56868,-0.38311,6.5473,-11.4955,10.8688,-19.1433,8.6576,-5.5953,
6.8805,3.1679,-5.5474,-6.3949,3.2193,-5.5064,-7.6602,-2.2883,-0.594,-2.1287,7.3246,-3.8947,-0.05653,-8.6341,
6.9496,2.9779,-2.8045,-4.5654,-2.2765,-7.1042,-7.6829,-0.22283,2.3337,5.7118,6.4027,10.439,2.357,-9.0803,
8.943,1.3532,-2.636,0.52943,3.163,-3.7856,-10.5962,-1.6555,-0.21622,0.066658,3.6087,4.2692,-1.1587,5.5645,
12.2625,3.1999,-0.067454,3.39,14.5421,3.1902,-9.9602,-0.59206,-1.6493,-1.8653,3.3924,1.6027,-2.0532,19.3306,
11.5268,-0.84845,1.3824,-1.1522,9.8132,-4.2321,-6.9524,-2.9667,1.3417,-4.6459,1.7426,-0.42162,-0.48378,4.0708,
12.5222,2.8176,2.0226,3.0145,10.4295,-5.6651,-10.1509,0.34459,-0.42622,-1.2339,1.8788,1.2907,1.2322,-10.2735,
6.4687,4.5772,2.8656,-1.5047,0.16276,-5.3252,-11.4701,-0.64041,1.0456,-6.4625,5.6224,-6.9815,6.461,3.5996,
5.3572,4.5436,1.9703,-5.0301,-2.0162,-2.8366,-9.0947,0.60331,5.0802,-8.7259,7.9366,-9.6961,7.7605,7.9633,
11.5439,2.584,2.0932,3.2259,12.2048,-3.3895,-9.2716,-0.15602,2.1246,-3.6228,3.3628,-2.1242,0.78719,-1.9147,
16.8768,4.1161,10.8857,9.5399,18.5829,-6.8015,-6.0643,-2.7978,-1.1364,-5.0926,1.4738,-2.7201,0.49899,-3.0047,
12.0074,6.2788,6.3757,6.075,14.5754,-2.5371,-6.6647,-0.21976,-2.5145,-9.6078,2.8317,-11.7159,3.843,4.8879,
8.1539,4.6975,-0.032137,1.1312,5.2654,1.2308,-2.1673,0.99849,8.9648,-7.8258,12.062,-11.2537,11.5669,-6.7328,
4.29,2.9689,-4.8509,-4.7215,-1.3175,-2.6999,-4.4478,-0.98961,8.9089,-2.0541,12.7841,1.9545,7.9804,-16.4527,
3.0689,0.86284,-8.416,-7.3301,7.9204,-4.4659,-11.4111,0.033859,-3.1946,-0.96627,4.7864,3.2837,-1.6573,-1.3655,
11.5615,3.2212,1.248,-0.1418,16.6042,-3.716,-5.4242,-0.45011,-1.0752,-1.3907,3.053,-1.734,-2.0402,12.8164,
11.1087,6.6433,2.3779,3.9641,12.4744,-4.6978,-7.7499,-0.18213,-2.6979,-0.58435,-1.7099,-0.42512,-4.087,2.8886,
8.9964,5.7628,1.2714,2.7624,10.7621,-3.4521,-6.803,1.757,-1.0898,0.41504,-0.64302,0.082784,-0.94923,-11.3847,
10.3846,2.0428,-1.2153,-1.26,9.6342,-2.2809,-5.9126,-0.75879,1.386,-0.092025,3.2522,1.5238,1.5176,-1.4221,
5.9049,-0.008173,-9.3373,-5.041,2.7894,-3.1081,-11.3427,-0.71349,-2.0719,-2.9788,4.5031,3.3604,-1.4657,8.3044,
6.0325,-0.0076821,-4.9207,-3.2923,10.3348,-4.3679,-6.8057,-0.67068,0.46302,-3.7644,4.7148,0.2667,0.55041,1.5392,
6.153,-0.97109,-3.6611,-2.1304,23.8147,-2.6596,-8.8075,-1.5943,-3.4211,0.31832,-0.87025,6.9996,-1.4104,-0.96284,
3.3734,-4.2875,-6.3337,-5.8592,10.6962,-6.8385,-12.1357,-1.0165,-1.7698,2.2272,3.0381,10.4358,-2.2903,-3.3159,
5.0992,-4.0298,-5.4718,-6.9535,-0.55039,-7.874,-8.515,0.9727,3.639,-1.2804,9.6047,-1.2776,0.73965,-5.5271,
6.7217,0.068148,-7.5538,-6.5365,13.5826,-2.0992,-6.0757,0.43217,-1.8818,-6.0241,3.7256,-6.9853,-1.2327,-1.3388,
16.2003,6.0896,1.8175,-1.0831,26.8677,0.19594,3.2065,0.16528,-2.0103,-7.8323,2.7787,-3.4331,1.01,0.42828,
19.8081,5.9657,3.3957,1.6335,39.3556,-1.503,-0.11895,2.3245,-7.4328,-7.1209,-0.52106,-2.9857,-2.1837,0.16208,
15.2451,3.6791,-1.1464,-1.3571,28.9196,-1.8948,-3.9687,1.7031,-8.4331,-3.3197,0.95646,-9.0736,-0.60638,0.15189,
13.1251,4.6636,3.5017,-1.0342,22.6051,-2.9864,-2.0433,-1.0502,-1.9016,-2.8795,4.0326,-11.6626,1.5992,-5.4004,
12.3376,4.3833,4.2554,2.8838,16.91,-2.8072,-4.3308,0.94058,-1.7875,-1.7429,1.38,-3.2501,-0.90737,-15.1997,
14.0077,2.6743,1.1078,0.78277,13.9675,-4.0848,-3.5888,-1.0438,-0.2342,-2.12,4.6714,-1.1267,0.59356,-15.7338,
15.0952,7.3348,0.077259,2.6638,21.8063,-1.9118,-4.82,-0.49903,-2.6305,-2.475,5.8376,-2.0232,-2.8167,-0.68974,
12.9844,6.1716,4.6521,8.5297,21.2211,-3.4841,-4.2896,-0.22835,-2.7134,-2.5672,-0.53839,-0.21478,-3.3704,2.3644,
13.4109,1.7037,7.5067,7.2953,9.5837,-6.8902,-2.3448,-0.93732,1.065,-2.6544,-2.675,1.9675,3.3395,-11.0336,
14.5342,6.422,1.7534,5.893,11.901,-3.5845,-5.5788,3.457,-3.8198,-3.4592,0.85971,2.3316,1.6927,-6.0335,
16.3132,10.6159,3.8174,8.6729,24.4433,-1.6827,-1.1467,5.4188,-5.7598,-3.0107,1.531,-0.45984,-2.9882,8.4285,
10.7549,2.9898,0.4551,5.5012,18.3972,-0.37618,-4.2111,1.9604,-5.6549,0.7856,-1.6941,2.2191,-4.4959,4.4283,
0.95083,-3.9387,-8.731,-1.0956,3.1933,-3.2459,-9.743,-1.0495,1.433,0.2563,1.7818,2.0862,0.11196,-7.8887,
-2.7219,-1.0511,-5.0739,-1.2711,-7.7238,-9.0769,-6.025,-0.26344,6.8904,-2.4104,4.3262,-2.1366,4.2028,-8.139,
-3.2812,-1.7112,-2.6001,3.8671,2.6218,-2.5065,-7.3505,0.4755,-1.9589,2.3137,-0.51289,6.9094,2.2637,-2.1068,
2.941,-5.7056,2.1355,3.3939,5.5977,1.2591,-4.2586,-0.7581,-2.0825,1.9337,-1.6872,13.0026,2.3686,-0.77531,
8.5493,-0.060854,2.489,0.29796,7.1898,-3.637,-4.4848,3.1435,-2.9217,-7.823,-3.5139,2.0993,-3.5579,3.1278,
11.4106,10.0659,3.3038,4.6186,20.738,0.43786,0.6048,10.6679,-1.7823,-6.3896,1.035,-5.2573,-1.4165,7.2787,
6.3876,3.195,-0.2689,-4.3356,17.5655,-1.999,1.5324,-1.5413,0.73477,-5.0423,4.3474,-7.8344,1.0787,-7.258,
5.7632,2.2806,-0.97543,-4.3162,16.7528,-2.6017,0.7173,-2.172,0.44995,-5.9448,3.8458,-8.087,0.77321,-6.4611,
5.6583,2.3848,-0.67594,-4.2986,15.9886,-3.169,0.91523,-2.2826,0.66392,-6.3115,4.3379,-7.8432,0.48539,-2.9404,
6.042,2.0005,-0.87658,-3.7995,15.7524,-3.22,1.1015,-2.3868,0.86528,-6.6555,4.8008,-8.0957,0.69746,-0.11265,
5.9207,2.1216,-0.58279,-3.8123,15.0484,-3.7495,1.2766,-2.4844,1.0541,-7.4612,5.2359,-7.8507,0.41488,3.0278,
5.8066,1.7531,-0.78902,-3.3428,14.8687,-3.7657,0.95883,-2.5765,1.232,-7.7367,5.1625,-7.6209,0.14879,5.4975,
5.9399,1.6482,-0.74145,-3.142,13.9763,-4.5039,1.3835,-2.9041,1.6403,-7.7546,5.3349,-7.6453,0.14009,8.5419,
6.0659,3.4775,-3.1071,-3.4354,5.9069,-4.7156,-0.14581,-0.80164,-0.38632,-1.5048,5.0148,-3.8121,-2.2789,3.691,
7.6299,1.8228,-0.028373,-4.6758,6.9985,-6.843,-0.13683,-4.6097,0.11902,1.9597,-0.58852,8.4675,-2.1419,-10.6304,
8.1365,1.7134,6.2398,1.3898,15.2557,-5.95,-0.12862,-4.3331,-0.85245,5.2166,-2.4814,19.0471,-4.4235,-8.9083,
9.0945,4.0208,11.65,6.1267,10.484,-2.219,0.36103,-2.6269,-2.7295,1.5291,-0.40433,3.9245,-9.4608,5.7262,
10.718,9.3231,7.3356,9.3745,5.7576,12.0141,-4.2404,3.5563,-6.6631,-2.178,-3.5136,-6.1929,-11.5447,14.18,
9.1108,6.3534,3.5213,7.8479,-8.6879,25.3933,-4.4677,9.1273,-2.8891,-3.0114,-3.7849,-4.8572,-4.1033,1.2779,
2.7794,-0.77649,2.8278,1.1103,-22.2666,24.3516,-6.128,7.1336,0.17657,-1.8667,-0.66552,-3.1198,-1.9287,-6.9937,
-1.7259,2.1624,-3.6086,1.5258,-35.0306,23.3727,-12.991,7.6697,-1.762,7.4046,1.3028,10.565,-3.7409,4.9953,
1.2699,1.5505,-7.7306,0.95212,-38.3521,15.2216,-11.2474,1.4251,-2.1384,8.8883,-1.6676,20.0538,-3.9987,10.4804,
4.8091,0.25262,-6.0615,0.1721,-30.5074,16.4775,-5.5109,2.0625,-3.2154,4.74,-4.7011,18.6096,-4.964,11.5388,
-0.058697,1.4423,-1.6005,3.2948,-32.2919,21.5144,-3.0111,8.4467,0.59292,-0.60605,0.64269,10.9855,-4.4252,11.5694,
-2.7067,-0.33147,-0.29914,7.6769,-36.8623,16.1262,-3.5538,5.7703,1.7626,-2.2569,4.2195,7.6749,-4.8826,10.1518,
-2.0622,1.6168,-1.2453,8.6623,-32.2402,12.7482,-4.7866,5.4243,-1.7178,6.073,1.556,9.1428,-3.1436,13.8813,
-3.6257,1.2789,1.4805,3.5633,-30.0649,11.7424,-4.2584,2.9297,-1.3733,7.8782,1.2217,3.0506,-3.196,8.4691,
-3.8901,0.23781,0.42783,3.3495,-26.3328,13.448,-4.4848,0.34333,-3.7015,6.9236,2.1123,7.6883,-5.8967,1.6945,
-6.067,0.7057,-0.56194,1.702,-25.7169,7.8206,-2.2878,-4.0158,0.37721,7.4718,1.9857,10.6012,0.72382,-1.2995,
-15.5849,-5.3622,-6.5538,-9.2459,-37.4303,-0.60191,-8.658,-7.3898,4.4519,3.8905,0.17938,0.56513,0.43942,-6.2832,
-19.9527,-6.0046,-14.8379,-9.6557,-44.3435,7.6287,-14.8874,-1.644,-0.15373,7.9956,1.1327,8.2438,-7.2999,-2.0501,
-16.104,-2.9932,-7.9216,-2.5684,-42.8879,10.7864,-3.1477,-3.2326,1.5427,9.685,3.2339,19.0778,-3.7285,2.6527,
-10.7992,0.56109,2.1944,4.8167,-33.0838,10.6214,4.7537,-3.0384,2.8966,7.176,0.14759,21.3074,0.83379,9.7241,
-10.1512,2.4556,0.13458,6.9379,-27.2424,11.4303,3.5046,-1.8923,0.31226,2.4066,1.585,15.6906,-1.6264,7.2125,
-10.9884,4.2365,1.5728,3.1471,-21.2695,5.9238,7.6327,-4.1888,1.7398,1.7803,7.7569,7.5183,-0.56491,-7.1995,
-10.5699,4.223,2.6835,0.30698,-11.0753,4.3633,7.8978,-4.1787,0.91227,5.2887,5.604,6.826,-0.28982,-5.0806,
-11.141,0.83661,2.7634,-1.8806,-14.9901,6.7526,6.7011,-3.687,0.61656,0.39206,0.20608,-1.0553,-0.5134,6.0705,
-11.9188,5.1247,2.1157,-1.7678,-15.5369,12.132,7.2629,0.39059,-0.86669,0.85047,-2.2164,3.3463,1.9275,9.0807,
-13.373,3.6117,-2.1088,-0.93902,-11.9539,10.199,6.104,-1.3198,-2.5017,7.3071,-0.39643,17.2455,2.535,3.474,
-8.714,-1.4255,-0.53628,-0.88245,-9.3082,7.6587,9.5944,-2.2048,1.5046,6.3866,3.9659,20.1879,-1.4737,3.7477,
-9.8784,0.3473,-1.7089,-2.9987,-6.5805,10.3326,9.7416,4.9169,-1.2368,-3.3966,2.5227,4.8766,-5.0007,5.692,
-14.8293,1.0496,-0.40134,-6.4339,-9.8011,3.205,14.2185,6.3094,1.4887,-11.6287,5.9869,-9.516,5.1815,-0.19289,
-11.2882,-0.70016,1.31,-2.9149,-10.4181,-1.5666,13.1245,2.7973,2.1223,-12.1359,6.3506,-12.3193,6.0759,-5.243,
-1.9343,4.1621,3.1596,4.9728,2.2581,10.5785,10.4088,6.4859,0.06678,-5.1412,3.0771,-1.4572,-0.073689,-6.3747,
-4.4691,2.7073,2.7288,-1.3509,0.43557,7.2924,8.5792,2.9635,0.30397,-5.5558,-0.72274,-0.1647,-0.31001,-6.7149,
-14.8063,-1.7934,-6.1116,-7.5368,-10.1954,-3.7499,2.2799,0.37554,-1.6425,-1.848,0.76688,2.7377,0.19053,7.6673,
-21.8719,-8.194,-11.7707,-12.628,-16.5738,-7.1406,0.93802,-2.2983,0.14308,-1.9784,3.3722,0.88598,-0.54403,2.6278,
-16.4622,-6.979,-6.0032,-13.0756,-13.4102,1.2416,3.5328,-0.95558,-0.10647,-4.0288,2.4465,-2.3007,0.6939,-7.8942,
-13.3051,-3.9089,-4.9199,-8.6754,-11.8824,1.8902,2.1158,1.2711,-5.6435,-2.1001,-2.2793,-2.4034,0.89346,-1.3948,
-16.8453,-3.6744,-3.1784,-8.6373,-17.9182,-6.8998,2.9527,-1.6972,-5.3049,-1.9741,-1.1787,-2.7411,1.8037,-2.7569,
-16.3165,-0.56165,-3.9518,-5.7087,-8.6479,-0.70149,0.84759,1.2969,-7.3969,2.001,-1.1078,4.654,-0.71486,2.229,
-8.1067,0.43592,-2.7504,-0.06352,0.5476,4.6432,1.7606,4.1112,-2.6148,9.5937,-2.0056,15.9439,0.29236,15.1107,
-7.6205,-2.0001,-0.175,-1.5057,-3.8238,-3.8303,2.1371,-0.47404,-0.047543,9.5002,-0.92119,22.7003,-2.1355,12.2756,
-14.3941,-2.3623,-1.611,-3.3438,-3.5942,-6.0108,-1.3653,2.4467,-2.937,4.5917,2.0264,16.5178,-5.864,6.2362,
-13.5303,-5.1128,0.89603,-1.2148,-9.6452,-4.2037,1.127,4.2283,0.13153,-1.9506,3.8332,1.4267,-0.69124,7.7904,
-6.6927,-3.1188,0.6013,2.9555,-8.8256,-3.2286,0.33598,1.3231,-0.11733,-2.0745,-0.97653,-0.70757,0.073137,7.564,
-1.953,0.92444,0.56499,4.2242,1.8271,-4.9628,1.7623,-0.68429,-0.59245,0.46032,1.0105,7.0474,-3.3055,-4.4588,
0.57475,0.86897,3.4236,7.3452,2.6818,-5.147,0.21031,-0.64323,-1.0388,6.2173,2.878,12.4096,-7.4455,-3.2274,
-3.5571,0.57587,1.531,8.1098,0.83366,0.22306,-4.864,1.5645,-0.73554,14.2799,-0.42812,19.6188,-6.2758,11.0662,
-10.8155,-4.038,-1.6939,-1.7768,-3.3137,-4.8515,-2.8849,-3.1086,1.9597,7.88,0.80286,12.898,-1.32,20.4049,
-11.1309,-2.8318,-5.4487,-5.0447,-1.6691,-5.5248,-1.7475,-1.9582,0.87824,2.1045,4.6111,5.8572,-1.7227,5.0806,
-9.7399,-1.4564,-6.8092,-3.055,-4.2198,-1.0957,-0.91952,-3.0458,2.0306,5.1115,6.5038,0.9267,-1.8601,-9.3242,
-10.1198,-3.7796,-4.9544,-5.7642,-4.9309,-2.9586,0.099518,-6.7195,3.837,2.8766,2.7387,-7.3241,-0.3027,-3.4623,
-8.5483,-0.66053,-6.5856,-4.4538,5.97,-1.8165,-0.87055,0.91432,-0.73181,-1.1526,-1.7637,-4.4743,-1.7306,7.8329,
-4.4202,-1.3443,-5.9495,-4.428,4.8884,-4.841,0.38652,0.13656,-0.92886,-2.2887,-0.45309,2.3017,-4.2783,-3.4834,
-1.7444,-1.2631,-4.6282,-0.78787,5.5594,-5.0325,-0.11861,-3.2461,2.5013,5.5618,3.9129,10.8407,-4.9855,-5.6845,
-5.2554,-1.4285,-7.4837,-0.017466,6.4309,-3.0436,1.0936,-2.3282,1.6281,4.505,4.8832,4.1645,-0.58875,-0.76392,
-3.2526,-0.61971,-1.9733,-2.1858,-0.46263,-3.5841,6.0899,-0.98344,0.32536,-4.6836,3.867,-6.9314,2.0974,-1.9236,
2.9681,3.9968,2.2425,1.5608,7.0369,-1.6818,0.1804,3.6549,-2.8276,0.17716,-0.46233,2.402,-3.0896,6.6279,
2.3081,3.275,5.4824,6.2878,14.3275,-3.5091,-1.2762,1.5078,-0.72979,5.4692,-2.3628,6.5967,-3.3862,1.8919,
-0.9639,2.8376,3.9482,2.7771,7.4423,-1.6113,1.4519,-2.1981,1.4832,3.4538,0.91247,2.1035,-0.049983,-9.5498,
-5.0037,2.4261,-4.2427,-6.7893,1.4519,0.17236,1.1231,-2.7893,2.1173,3.0054,3.9905,5.1106,-0.28818,-1.9871,
-8.8008,-1.3347,-6.639,-10.9615,3.0523,-5.3814,0.33308,-3.3451,2.7134,1.62,2.0645,3.117,-0.51163,0.78342,
-9.2368,0.19169,-5.7587,-6.4474,3.3511,-4.0946,-1.6151,0.23008,-0.82387,-0.88734,-0.46991,-0.9269,0.48294,-8.9046,
-5.3082,3.0722,-0.59295,-5.0967,-0.70639,-1.4388,1.8558,0.69821,-1.2564,-3.2447,1.0041,-2.3175,0.45396,-4.5144,
-1.1335,5.2983,3.7812,-0.45234,6.0847,0.094003,6.083,0.17416,-0.69883,-1.1216,-0.50219,-2.6602,-0.53737,6.844,
-8.7783,3.5341,-0.30208,1.503,10.0584,-6.6605,2.826,0.16371,-0.6569,-2.5005,-2.4003,-9.7314,1.9055,-0.31558,
-13.795,0.67097,-2.935,-6.059,5.3571,-8.912,1.933,-6.3536,4.4437,-6.4479,-0.086617,-14.2092,5.4065,-13.0706,
-10.7981,1.3536,-3.4823,-8.3465,13.4718,-0.90548,-1.316,-5.2495,1.526,-2.4456,-2.733,-3.9562,1.9487,-9.6353,
-12.3194,-1.8606,-3.5143,-9.051,11.9406,-8.323,-0.51411,-2.283,0.71156,-3.5041,-2.328,-1.0677,2.5546,-4.9598,
-12.0622,2.1072,-2.3394,-8.0258,4.9574,-8.7877,3.3734,-1.6638,5.9713,-4.7399,6.0066,-3.896,7.7042,2.5688,
-12.7849,5.355,-2.6812,-5.6161,5.1416,5.2367,0.7606,-2.0462,0.79252,-5.4196,5.6464,-7.0369,5.3136,0.48627,
-9.8482,4.7929,6.8799,4.1209,12.3052,3.7179,2.8844,-0.23639,-2.8702,-0.032531,1.6924,-4.4448,1.8615,-13.6429,
-8.0522,4.2644,6.2262,12.7917,19.5211,-6.8695,-1.868,0.018764,-7.7597,6.4769,-4.917,4.7395,-6.2039,-4.0267,
-5.159,2.562,3.4422,12.9883,18.3496,-3.0831,-0.30989,-2.3927,-2.4736,0.78587,-2.2117,0.59848,-4.8676,10.3149,
-4.3675,2.4085,5.6461,9.7986,8.0893,4.3325,4.0468,-0.32073,5.8693,-6.0104,5.6336,-4.2579,2.6551,-2.4758,
-13.9874,-0.3873,-3.1286,5.1136,-4.6879,-2.9166,-2.7033,0.90358,3.3482,-3.4804,4.5729,-3.7612,1.2907,-16.4273,
-13.1482,-2.7742,-1.4951,6.2526,-0.068724,-6.5985,-0.61333,-2.5251,4.5936,0.10287,5.7443,-10.7664,5.0696,-15.5621,
-8.0209,-1.6439,1.9691,6.8413,13.9151,0.54633,-0.57653,-1.8917,-0.50277,-2.7958,2.9895,-16.3869,2.3553,-6.4337,
-1.7549,1.8294,2.3335,6.431,13.0805,0.51378,2.3508,0.15027,0.0095578,-6.4842,2.8104,-15.8859,2.6962,-1.7091,
3.4119,5.3349,6.2907,11.589,10.6082,-0.72257,6.7893,-0.58188,6.0348,-4.4082,4.8107,-10.3532,6.1496,-4.2579,
-5.9519,1.6403,0.61057,11.3756,9.9717,-0.67922,-1.8132,-1.9932,-0.5943,-1.2512,0.66567,-2.5012,1.4423,-8.8231,
-9.9333,-5.6887,-2.3184,3.9439,-0.74974,-3.5308,-5.0791,-7.176,-0.55841,1.7157,2.0718,2.4694,1.3555,-2.5089,
0.78581,-3.4194,-1.2152,1.2974,1.7056,-3.3187,-3.8098,-7.2276,-0.52514,2.095,2.9116,1.3571,1.2744,5.8365,
8.2102,5.2216,5.3655,7.7268,15.7033,-3.8431,2.926,-1.7325,1.1934,-4.0565,6.3521,-10.5347,0.95677,-8.2522,
7.7179,6.3548,12.2741,13.5304,25.0047,-5.5405,9.4996,-4.0385,4.4964,-7.6693,7.8994,-19.5438,2.8278,-18.8441,
5.3268,2.5991,6.7174,12.2362,25.4326,-1.8336,4.5908,-7.1706,-3.0042,-1.4245,-0.28738,-9.2121,-1.1987,-8.5549,
5.4889,1.4786,3.904,5.2353,19.5681,-4.6159,1.905,-8.1869,-3.788,2.0351,-3.6444,2.4276,-3.5372,2.0816,
5.4005,3.0771,5.839,3.2344,8.994,-8.9187,2.996,-5.526,-0.42725,5.5285,1.6355,5.8974,-0.19144,1.7157,
0.97939,3.6158,3.3195,3.2813,1.465,-5.732,4.0215,-5.4355,1.7675,5.9201,4.6709,0.4823,4.8817,-10.1974,
-0.28467,0.74757,0.46897,1.8794,3.546,-4.665,1.6109,-7.7606,2.3846,-0.46087,2.7036,-5.5724,1.9375,-16.5752,
2.143,0.22078,-0.041102,6.1049,13.4566,1.3995,-6.6805,-4.4029,-3.0611,-0.91515,-1.315,2.4747,-4.4453,-1.4807,
3.2195,-3.4077,4.5409,5.0155,13.3723,-0.37146,-6.0385,-6.3077,-7.457,-3.0296,-5.8156,6.9057,-7.3118,12.7082,
3.2673,2.34,5.9557,3.9917,14.7387,-4.9289,0.83132,-4.7244,-8.6968,-1.1606,-7.1539,9.1429,-8.5603,3.9917,
-1.2673,7.0205,2.706,7.1264,13.8546,0.66969,1.2636,-1.5487,-4.3183,4.6938,-4.7967,12.4505,-6.1187,-4.4427,
-3.8426,-0.3906,3.2666,3.0834,8.926,-0.093852,1.4288,-3.6249,-0.92576,-2.5777,-2.3393,4.7141,-3.1001,-1.5246,
0.72629,1.5608,3.5527,-2.404,14.1748,-2.0166,6.1635,-0.51511,1.5397,-7.2435,5.5136,-2.7998,-0.50416,1.4587,
2.6109,4.8414,3.3393,-3.7063,14.7708,-3.8236,12.0604,-3.3765,4.3396,-10.1831,10.0033,-15.647,3.8646,-12.7288,
7.034,4.7921,7.2366,3.9881,18.464,-0.46093,9.1674,-4.379,0.94596,-6.9208,3.8597,-14.9494,3.392,-8.7109,
3.9609,-2.9672,1.7407,0.61581,13.7408,-2.1205,-2.7108,-4.8391,-8.0284,-0.48001,-3.3617,0.047558,-4.7652,5.9118,
1.7946,-2.3073,1.6362,-2.3137,9.0599,-2.9571,0.82629,-0.69239,-2.2445,9.6717,1.6607,14.1447,-2.0692,8.5698,
-3.1334,-0.24019,-6.1747,-3.1387,11.4084,-0.36959,-0.66955,1.7593,-5.9662,5.7174,-2.7773,22.937,-4.3552,6.1274,
-1.7403,0.01496,-5.563,-0.29952,11.447,4.2321,3.4682,0.44866,-2.9569,-0.65143,0.52261,13.6073,0.48519,10.3393,
-5.2513,-0.70907,0.79608,0.44158,2.8062,1.3269,5.429,-2.2296,1.3181,-3.2637,2.6602,3.3906,3.1074,6.5857,
-8.7926,0.77974,1.2307,4.7534,3.6022,-3.5735,5.1033,5.135,-0.68921,-4.5141,0.090445,-10.3102,2.921,1.3698,
-3.4443,0.25125,5.9773,8.3248,2.422,-8.1791,8.6537,3.8628,2.7264,-5.6893,2.0134,-19.3323,6.1204,-2.0866,
-3.4791,-0.96935,9.2339,9.0304,-6.1593,-6.0013,4.5189,-1.9128,1.8397,-2.6971,2.6153,-9.255,5.0296,1.1719,
-10.9831,-2.3572,7.2338,8.4883,-10.6102,-7.0878,3.2836,0.13041,0.76518,0.83944,1.4943,-0.9867,2.3179,-1.3088,
-15.8675,-1.4927,2.2203,3.4,-5.3941,-8.8314,6.2203,0.36378,1.9248,4.8867,3.574,3.652,1.4557,-4.3635,
-18.2899,-4.2958,-4.1797,-4.517,-4.1063,-4.9273,1.9905,-7.3711,1.8091,3.147,5.2875,6.8071,0.88619,-1.2094,
-14.7822,-6.9299,0.40965,-9.0665,-9.6448,-6.0777,1.8713,-10.7854,7.0029,-0.41607,5.4525,0.13195,4.6896,0.30918,
-11.4851,-4.104,2.3133,-6.1124,-4.7277,-3.7848,-2.5798,-2.9074,0.79819,4.4291,-0.65927,4.4628,1.0338,7.5215,
-14.6522,-1.4474,-0.23588,-3.3353,0.37686,0.7808,-2.9067,-0.80457,-3.5883,3.1998,-3.512,8.0512,-2.4024,11.4087,
-16.9065,-1.6018,1.4657,-4.3402,-4.2253,0.97468,1.3648,-1.9614,2.1709,-2.5361,1.7602,-1.8316,0.87496,3.2526,
-22.1589,-4.3982,-1.5147,-8.4181,-13.1308,-1.012,-3.0554,-3.2899,2.0406,0.50861,4.0651,-7.0244,0.34053,-7.0659,
-27.8192,-5.8215,-3.1111,-14.9031,-17.8866,-3.6024,-1.1848,-7.1904,4.5693,-0.24526,6.9543,-2.5056,2.9712,-8.8111,
-28.8012,-5.2308,-7.5037,-14.2499,-14.1623,-0.73513,0.0911,-3.6254,5.9824,-3.3636,6.296,3.1884,3.0339,1.1176,
-24.4218,-9.0143,-6.3306,-10.2612,-15.4817,-0.93153,0.32706,-5.0947,4.4186,-2.4389,0.85705,-0.61835,0.68269,0.80955,
-15.0027,-5.3404,4.8955,-3.62,-10.4554,-2.5633,4.8867,-7.9225,0.53759,-1.5696,-3.2922,-2.2685,-0.081171,-5.2646,
-11.6922,1.7289,7.0119,2.3818,0.77719,0.96493,8.4499,-1.1806,-3.833,-2.4393,-3.5766,-2.6143,-0.076301,-2.5386,
-11.4728,-2.7134,3.217,-2.5821,-9.3926,-1.9853,11.7991,-2.0739,1.6994,-8.0778,2.9048,-16.5574,2.3382,-7.6891,
-9.3382,-0.14044,1.5777,-3.8729,-19.4343,0.062053,9.1634,-3.3957,5.4538,-6.6288,4.1763,-19.7818,3.1622,-8.6736,
-9.501,3.4836,1.7242,-0.98923,-15.135,0.29953,6.9261,-1.505,5.3678,-6.4722,2.2387,-9.6771,4.1775,4.1391,
-6.5206,1.3462,2.5849,-0.93011,-6.9958,-4.5389,11.8134,-0.45012,3.1178,-8.0119,4.0328,-7.6504,4.4091,7.265,
-5.4063,1.5066,-1.6678,0.81315,-9.2274,-1.1333,6.0432,0.30002,-2.1308,-0.059585,3.0677,2.2088,0.52932,-2.5707,
-8.6975,-0.27123,1.5655,1.487,-20.966,-2.2704,3.5112,-3.8156,2.5762,9.8262,1.6786,14.8505,0.25636,-7.9603,
-8.1757,-1.2188,2.4359,1.3978,-5.6081,-4.5448,4.2644,-5.5148,0.011456,8.2723,-1.3147,13.4776,-0.72334,3.1226,
-3.8285,-0.66353,-3.977,-0.61402,8.8284,-5.2357,8.3471,-1.8097,-2.8815,-2.8291,-0.75362,-1.4311,1.2485,9.202,
0.01638,-1.829,0.84092,-5.6389,22.3987,-14.804,18.6925,-5.3166,4.2812,-7.7211,2.907,-10.6247,6.2348,-5.4501,
-4.3229,-3.6475,0.30853,-8.1926,35.1548,-23.0748,13.7146,-9.8178,0.16798,-0.99084,0.32201,-6.1309,-0.40581,-19.2231,
-5.5098,-4.3927,-3.0842,-5.2907,47.1455,-21.69,9.9994,-6.8188,0.15767,3.8891,2.2311,-2.8707,-1.8275,-12.7673,
-9.5175,-9.4316,-10.1298,-8.3475,42.991,-21.8347,5.0609,-9.3015,1.5947,-3.0929,2.5794,-0.77007,-3.6458,-5.2526,
-13.285,-8.8659,-11.4504,-12.6676,36.5554,-22.453,4.757,-12.6001,1.0169,-2.9076,2.4244,-0.72409,-2.4634,-0.59887,
-8.8725,-6.1648,-4.7378,-13.1126,39.9057,-23.7572,10.0152,-12.085,3.125,0.40036,2.5204,-8.1525,2.2641,-8.5167,
-3.5197,-2.4204,-4.9355,-8.9516,39.4391,-21.8498,6.0398,-9.9141,0.044986,1.3402,-0.041431,-3.325,-1.7281,-14.7546,
-1.8622,-1.7931,-4.1572,-7.4499,25.9862,-21.9846,5.6777,-12.2111,1.9707,1.26,2.8538,2.6593,-2.1066,-10.4946,
-5.125,-6.0243,-3.4258,-9.8957,13.8212,-23.558,5.819,-12.4428,3.7807,-0.74377,2.6821,-6.1773,-1.4983,-5.0447,
-5.2996,-3.7346,-2.2564,-3.9991,13.9563,-17.8062,4.506,-4.9478,3.0714,2.1929,0.11106,-6.2886,0.037903,-6.6702,
-3.7766,-3.2693,0.04836,-1.1083,8.0575,-19.8711,2.5481,-8.748,1.6821,-0.10759,-3.5113,-0.84986,-0.6875,-13.2596,
-4.2729,-6.6886,-3.57,-4.6567,7.815,-21.8121,-2.184,-8.946,-1.0699,2.55,-4.5054,2.3346,-4.7436,-1.1359,
-6.1857,-9.9025,-3.1146,-8.4749,9.9974,-19.7803,-0.84793,-5.758,2.1275,11.3153,1.3088,6.2921,-2.7715,10.7426,
-6.0557,-8.5852,0.20556,-6.2794,2.8899,-15.4602,-1.5202,-9.5101,2.723,11.359,4.363,5.1915,0.045624,1.1798,
-6.6565,-8.0703,-4.1453,-5.9024,-2.104,-11.6403,-1.4287,-9.4216,3.0418,5.3751,6.5116,-2.3511,5.3458,-8.0498,
-6.9802,-8.7912,-3.6554,-7.2355,0.19116,-15.0392,5.6466,-4.759,9.8489,4.3294,10.7004,-5.8252,11.5323,-4.4336,
-13.3101,-8.2635,-7.2927,-7.2835,-1.7483,-17.5113,-2.4052,-5.4373,0.58111,0.69543,2.3459,-5.4759,1.6815,-1.7572,
-11.7884,-4.1525,-4.6857,-3.713,-5.2586,-10.917,-2.5016,-3.906,-0.65882,-3.4439,1.9639,-4.9062,-0.10636,-2.8568,
-6.7427,-2.9392,0.89782,-3.0083,-3.0151,-7.3697,1.5046,-0.77934,6.6113,-2.7551,8.1128,-5.5759,5.6844,-3.6495,
-7.7842,-2.7629,-3.0124,-3.7919,-0.42406,-9.3379,-3.4059,0.71322,3.3221,-2.5898,4.7335,-5.2414,5.3433,0.42585,
-3.2196,-1.874,1.7478,-0.91308,-9.7984,-9.0184,0.41366,2.8398,5.7746,-3.6395,5.655,-6.1319,7.1921,2.5697,
-1.0982,-1.7613,4.5352,-0.8583,-9.6926,-7.5132,-1.5391,2.6697,1.0896,-1.9751,2.9054,-4.7999,1.9401,-0.47678,
1.6188,-0.45078,5.4684,-0.5656,4.9889,-7.3036,-2.6521,-1.5883,-3.0736,-0.65126,-2.813,-3.789,-1.3098,-5.9922,
5.8604,0.54059,8.5148,0.43266,11.0768,-9.2755,3.2916,-4.3851,0.003302,-3.9866,-1.6794,-7.4176,0.21505,-6.1142,
1.652,1.4718,4.1473,0.40601,3.1811,-6.3091,0.20185,-2.194,0.0028745,-4.2296,0.83076,-9.3834,-0.76195,-0.92731,
-0.37511,3.7938,7.2727,-0.58222,2.0266,-3.038,2.6001,-3.9903,4.8236,-3.9756,2.7093,-12.6765,3.1404,-4.7278,
3.9859,3.0845,7.8004,-0.06489,11.0638,-2.8557,2.9263,-4.715,1.1595,-4.7012,-1.3094,-7.5774,1.9879,-5.4083,
6.8798,0.24766,3.7172,4.5181,11.1231,-3.4075,-0.38304,0.14739,-1.0794,-4.1783,-2.4363,-2.5437,0.66307,-1.4686,
5.021,0.71496,5.4221,4.2472,5.6353,-6.5773,0.60404,-0.34361,1.8781,-5.3737,0.60259,-3.3547,2.5517,-3.3084,
-0.10075,0.67229,-0.68757,-0.82811,-1.4515,-4.7366,-2.8064,-3.2153,-2.0912,-6.4973,-4.2545,0.2208,-0.49369,4.6026,
-0.81783,0.39076,-2.3338,0.42664,-15.4644,-4.2114,1.4595,-3.2636,4.542,-3.4561,2.0265,2.3765,4.1155,11.3161,
-1.9736,-0.35559,-1.4704,1.6063,-28.6366,-7.5739,0.16668,-2.8266,3.0646,-0.59767,4.5565,-0.89913,1.2174,2.2015,
0.072783,0.62984,0.063871,2.956,-26.1955,-3.7453,-0.32549,1.6814,0.47039,0.40229,0.90842,0.11892,0.66222,-2.7511,
2.9607,0.59205,1.9882,3.2606,-19.803,0.33582,5.4786,1.5805,4.7805,-0.10378,-1.5562,3.4862,4.9608,-2.1041,
-0.59116,-1.8538,-3.9159,0.17264,-23.9177,-1.1304,-1.5988,-1.4066,-3.2193,0.38461,-6.2833,1.8306,-2.5675,2.8426,
1.1313,-1.5014,-1.0296,-0.56085,-27.5441,-5.6421,-2.7079,-1.563,-2.3031,1.5666,-3.255,-0.44819,-0.72641,8.2155,
4.9198,0.99858,0.9606,3.3294,-22.9992,-2.4112,-2.0633,-0.9875,1.2094,0.99044,-1.1317,-0.42153,3.1733,4.8302,
6.0707,2.3849,-0.061359,8.4318,-10.532,7.3744,-1.9395,2.9281,-0.30947,1.8949,-2.0277,-0.87817,-0.39152,-0.27983,
8.5989,0.31387,5.2452,8.4081,-7.9717,7.896,2.0335,2.7527,3.5657,-0.62871,0.50432,-3.2358,0.59653,-2.6734,
3.5035,1.982,2.7611,7.1805,-14.4835,4.2888,-1.7042,2.8283,3.1106,0.61407,0.23287,-0.39037,4.1759,0.62026,
0.64195,3.0682,2.8366,8.919,-18.6759,0.8982,-0.39684,2.8998,3.6471,5.1567,3.3522,-2.0539,6.0948,8.537,
4.701,-3.6232,5.3178,8.1432,-14.4216,-5.181,-1.5781,-1.3714,-1.1508,0.74976,-0.46417,-5.5459,-2.7068,9.7123,
7.07,-1.7192,2.8293,7.4129,-3.1927,-2.7012,-0.76028,3.29,-0.35909,-1.4646,-3.0876,-1.116,-2.7856,0.69315,
5.1998,4.169,5.0697,6.9686,-6.3751,1.3175,4.588,6.9494,5.9294,-2.3406,0.954,-3.4592,7.0225,-2.2405,
1.9955,2.9547,1.8732,8.4784,-12.2594,-0.20784,0.93848,4.1221,-0.21115,0.21019,-0.067333,-5.1801,3.2269,3.1964,
-0.53455,-3.4893,-4.024,7.9695,-12.006,-6.9443,0.88195,-2.392,-2.6088,3.5718,-1.5098,-2.4589,-1.3052,-1.8159,
-0.26128,-2.557,-0.16669,7.2508,-16.8292,-12.071,-1.8221,-3.4537,0.68118,2.6346,-2.624,0.33973,-0.98597,1.4265,
3.6108,1.9352,4.1816,8.262,-14.3732,-5.5619,-5.0872,1.5742,-0.80549,-2.3442,-3.9124,1.7656,-0.92635,9.5356,
6.5276,1.0959,3.2076,3.6687,0.58918,2.2438,1.2438,0.75662,-0.99836,-8.2289,-5.847,-5.8119,0.81623,0.52806,
6.6177,2.476,0.60502,2.9662,14.6538,6.4471,2.1331,2.1575,-3.349,-5.3255,-5.4962,-9.32,1.7311,-3.3605,
9.1131,-0.56466,1.5326,5.1988,14.2568,1.7219,-0.40506,-1.3464,-3.63,-6.9337,-2.2744,-14.545,0.18145,-0.74825,
18.9304,3.0844,8.4303,7.0558,-0.69864,4.7519,5.6446,-1.5068,-3.171,-9.169,-4.3068,-17.7698,-1.9988,-2.8727,
31.8946,16.3972,11.2989,10.0069,13.4433,18.5667,10.6085,5.3325,-5.8733,-3.3166,-7.4229,-14.2935,1.0132,-3.1823,
40.4653,17.8232,10.6212,7.4786,26.7367,22.153,9.0079,3.0841,-3.1105,-7.4557,-3.6033,-19.7027,7.2191,-5.4017,
41.894,17.236,6.6093,9.9221,39.2325,17.9315,8.9496,9.6477,-5.3343,-13.2751,-6.2794,-20.9306,4.3756,-2.6673,
42.2726,22.4686,9.1054,14.1473,50.9785,22.158,12.2693,15.818,-12.2448,-13.4427,-14.5795,-15.336,-1.6713,-1.5431,
48.4134,19.6742,11.9331,9.4421,62.0198,32.3977,3.3379,6.6738,-15.3665,-15.0467,-19.4893,-9.1137,-6.8736,-0.96862,
54.4264,21.1451,12.4222,12.0088,72.3986,44.1924,-5.7802,8.4427,-7.4549,-9.082,-11.8122,1.7973,-3.8099,13.1895,
44.4119,19.3944,10.713,10.8063,82.1547,28.0435,-3.0232,1.6692,-7.0076,-11.9116,-8.6934,-10.8441,-4.0632,4.3239,
42.9525,17.5079,6.9367,9.917,91.3254,23.7098,-2.6009,1.3281,-12.1307,-9.5096,-7.4484,-11.8802,-5.9886,-2.4435,
37.724,9.9497,0.49521,4.7425,99.9459,30.7231,-10.3983,8.2385,-9.7154,-5.3234,-4.8326,-0.80328,-4.4242,2.765,
21.3606,4.0498,3.3578,3.9757,108.0491,25.0231,-15.0773,7.262,-1.9019,-6.9324,-2.6142,-1.7192,-0.78455,6.9372,
5.9789,-0.53171,6.0486,10.9678,87.4662,14.3625,-28.2727,2.0058,-4.1981,0.71412,-4.8677,7.5428,-3.6298,20.621,
-8.4798,-7.7304,6.6493,8.8637,68.1182,1.4494,-32.7226,-3.8993,-2.5002,6.938,-5.0578,19.1415,-2.9303,25.0476,
-3.9941,-5.5796,3.5995,4.7162,51.3769,-0.80651,-26.1797,-3.4242,-1.6271,5.7986,-1.6211,13.4135,-1.5489,9.4448,
-3.9955,-1.6292,0.24982,8.5308,62.3943,3.8214,-38.7089,3.7709,0.15799,1.3531,5.4658,-1.1298,2.1592,2.7323,
-17.8557,-10.6905,-0.72904,3.6807,44.5507,-6.5312,-50.4864,-0.31173,4.4868,-11.2616,3.2097,-15.162,3.4759,4.4965,
-24.6179,-7.3979,2.4477,1.7726,36.0933,-5.416,-57.3391,-1.9803,5.9049,-7.4524,3.2581,-13.8909,4.9546,10.2523,
-16.6329,-5.7485,2.0601,1.4251,48.0277,-4.3679,-49.8012,-3.5487,4.3455,2.8769,6.1963,-2.2112,8.2725,9.3959,
-14.912,-11.4296,-0.23264,2.0629,59.246,-11.5779,-56.2131,-5.0227,0.95128,5.8378,-0.68341,6.3576,6.0889,7.1454,
-16.6684,-9.0564,4.8428,5.5543,60.9939,-8.2317,-53.5635,-7.8549,-0.79279,6.6926,-6.1858,15.8579,4.5185,13.2244,
-13.981,-10.6822,5.2756,-0.32255,71.4343,-6.5329,-51.5547,-14.8552,-6.2888,5.0857,-4.6094,11.291,-1.2962,14.1182,
-12.6602,-11.0056,-3.7181,-5.6058,81.2482,-7.5872,-55.2104,-7.6973,-6.8758,7.6731,1.4513,6.2752,-4.1105,15.6812,
-20.5775,-11.7913,-5.9053,-10.5719,72.5167,-12.9163,-49.9693,-4.3432,7.5162,8.6588,8.1134,4.4527,4.3311,16.6683,
-26.3325,-13.7349,-5.792,-12.1068,54.0657,-14.7924,-47.2121,-11.0722,11.645,10.3089,11.242,6.3547,7.2047,17.3554,
-22.3424,-8.5727,-7.3729,-7.5237,58.414,-6.1923,-42.9334,-6.5515,9.4998,11.6183,14.4236,2.5992,8.7004,9.5654,
-20.7609,-8.7812,-5.7252,-5.8675,45.0273,-7.5078,-33.8496,-3.5071,9.6532,7.3058,12.3534,-4.0647,9.8656,-3.3006,
-24.8177,-11.1467,-7.7916,-7.9253,28.2256,-12.36,-39.5314,-7.1531,-0.5672,7.8315,3.8992,8.2305,1.0787,7.5025,
-27.1852,-9.9959,-7.8065,-9.8604,12.4321,-14.5107,-42.4622,-12.0265,-1.0151,8.8079,4.1472,17.3776,-2.8424,9.9444,
-27.7233,-10.1193,-9.9894,-9.51,18.4346,-13.8812,-36.7812,-13.9563,4.1073,3.6999,5.5858,9.3453,-2.9131,-1.0163,
-24.8548,-9.2712,-14.4518,-7.7341,3.2285,-8.9508,-30.9589,-9.0215,4.5837,5.1651,3.081,4.2053,-0.086719,4.5883,
-17.8197,-7.0274,-5.6307,-8.4751,-11.0652,-8.6547,-21.1474,-5.3468,10.8169,7.5065,7.9581,2.2655,7.8725,6.9643,
-16.9915,-5.8829,-3.6056,-9.6536,-24.5013,-8.3764,-20.1195,-2.8566,7.5163,3.4407,8.2035,1.4067,6.6767,0.038961,
-16.6956,-6.735,-3.6305,-5.4594,-18.3312,-7.1511,-16.2615,-2.4447,2.4858,1.0649,2.1674,2.5274,4.1068,-1.1689,
-19.0681,-9.7051,-0.037958,-4.1677,-31.3313,-8.1679,-17.6959,-6.1539,-2.9658,0.51884,-6.1571,5.7499,-3.3703,4.686,
-19.3698,-4.3021,-3.8921,-4.3992,-43.5514,-0.44695,-20.9723,-3.3745,-4.2341,3.8622,-5.3057,14.0821,-5.0962,7.7793,
-16.5208,-4.7673,-8.7202,-9.1973,-48.169,-3.5536,-14.6527,-6.7877,-0.847,0.015015,-0.89003,7.6935,-2.1394,-4.0156,
-15.7705,-8.0967,-4.5816,-7.9221,-58.5352,-9.3662,-10.1581,-3.7291,2.3373,3.6295,2.7788,6.0266,-1.2877,-5.9443,
-21.0908,-10.0213,-4.3069,-6.4827,-69.1231,-8.322,-9.0665,0.83316,6.0537,8.2322,6.9506,5.1833,2.6458,0.67956,
-14.2818,-4.8405,-5.2536,-9.2272,-60.7576,-2.7613,-2.9791,-0.42189,8.3418,4.1231,6.7743,0.77473,7.5485,0.87952,
-4.2658,-4.0679,-6.8663,-10.1196,-43.0122,-1.6313,-0.87194,-3.7708,-1.3175,0.019116,-0.38036,5.5487,0.34734,-4.9576,
-2.8048,-9.8494,-0.91073,-7.3431,-54.5315,-3.7026,2.7958,-5.2318,-1.4799,2.6695,-1.0809,14.6158,-1.3607,-2.9729,
-6.2522,-8.0536,-0.61512,-5.6977,-65.3596,-2.2756,-0.023504,-1.7848,0.77805,9.4988,-0.29315,18.3181,2.3359,3.2305,
-6.8407,-6.1241,-5.8809,-11.1401,-51.1942,-2.1388,-2.432,-0.7132,-0.2325,8.9293,2.617,11.4349,7.4988,4.9654,
-3.5382,-5.2745,-3.6,-12.8821,-43.3025,-5.3849,2.5342,-3.081,4.6019,1.6444,7.2804,3.0358,9.9407,4.1853,
-1.8796,-4.958,-4.8298,-7.2887,-52.7554,-3.6156,1.9002,-0.96771,0.95137,1.5457,2.0233,5.7457,4.524,3.4522,
4.9818,-6.1068,-0.20173,-2.995,-53.4465,-2.9167,3.2322,1.0183,-0.55198,5.3094,-0.50864,13.1138,3.2883,0.83451,
10.2265,-4.5349,2.4617,0.31844,-42.2857,-2.5005,0.86935,2.1627,-4.134,3.3038,-1.2008,15.9426,1.404,-0.42016,
11.5409,-0.88877,-1.0605,6.0835,-38.7847,0.059423,1.2989,2.5149,-3.886,1.6593,0.79899,12.0935,0.35541,0.56891,
12.5357,-3.9687,-0.2737,3.0671,-42.9653,-2.1133,9.1749,-0.28754,1.8905,0.35471,1.9561,5.8245,2.5035,3.1861,
12.0245,-4.9359,-2.9088,-1.6964,-41.1103,-1.7455,5.9731,2.381,2.5005,3.4665,1.1158,7.1618,3.0762,2.7535,
13.2315,-2.7115,-2.7338,0.33379,-40.5719,0.28762,6.5788,2.7203,6.6888,3.2589,4.9053,4.8044,5.7841,-8.9809,
15.5708,-2.7898,-0.88304,1.0367,-35.4865,-1.4169,11.2455,-0.57637,4.1183,-0.070096,0.51361,2.8289,1.8216,-11.575,
15.8416,-1.4171,0.37523,0.25156,-24.9216,-3.0191,11.7759,-0.30082,-1.1905,-1.2712,-3.6146,8.2023,-0.9392,2.8578,
16.5786,-2.5372,2.5221,-0.0042697,-27.0415,-5.489,10.8286,-1.9698,2.4966,-2.4,-0.74636,6.0236,1.7689,4.8557,
16.3068,-2.1442,-2.2087,1.2011,-31.4443,0.3837,11.8659,0.31758,3.0699,-0.086587,1.4674,1.0822,0.45727,-0.97948,
16.2925,-2.4975,-1.5943,-1.7638,-30.0401,0.84261,20.7949,4.1549,8.1879,0.40054,5.2357,-4.2853,4.2862,-2.367,
19.4123,-4.5168,0.67054,-4.7912,-21.2478,-2.3412,17.8602,6.0748,4.5636,-0.34639,2.7524,1.0335,3.3062,1.8729,
22.1042,-2.3176,-1.7798,0.79892,-13.7064,8.4048,12.4503,5.7107,-2.4591,2.5665,1.1415,10.1305,0.21572,6.5807,
25.3574,-0.49153,0.97829,4.8486,-14.571,14.8901,21.5852,2.2346,1.3041,-1.2027,5.6525,6.8713,5.2642,2.5707,
28.4153,0.74325,-0.76763,2.3885,-9.5994,11.8271,21.9771,4.7519,-1.4257,-2.3359,0.25165,5.2538,0.85056,2.6574,
27.4335,-1.9527,-3.3724,-3.2982,-9.7461,5.5741,18.0073,4.2256,-0.61705,0.45562,-6.2712,7.1084,-6.1897,1.2929,
24.5822,-1.5945,-3.4115,-3.8237,-16.6336,4.5163,14.2754,0.83854,2.553,0.18732,-7.5821,3.5479,-6.5416,-7.7027,
24.7945,-1.2579,-2.9659,-1.4251,-12.9845,8.8251,12.2138,2.9574,-0.7332,-0.064889,-5.9224,-2.2086,-1.5699,-2.1793,
27.1634,-1.1822,1.5506,-4.2319,-6.4206,9.2597,19.6759,1.8163,1.2392,-0.54316,0.69973,-3.0397,3.8272,5.6644,
24.5693,0.81693,-0.95252,-6.3883,-5.0711,6.7759,18.0132,2.1893,-1.7277,-1.9568,3.5503,1.963,-3.1513,2.4325,
26.4696,1.7318,1.9967,-2.1484,-2.8386,6.8513,15.9685,7.8425,-3.0703,-2.8033,1.4091,1.3632,-7.7825,1.3222,
28.979,1.8691,5.0106,-0.81443,-6.2835,11.984,16.6979,4.2387,-4.573,-2.8763,-2.7731,-7.1545,-9.003,2.4484,
24.8297,1.275,-3.9671,-5.1039,-11.2091,13.1932,14.7317,2.5381,-4.7806,-1.7394,-3.0886,-4.3151,-7.9809,-3.4835,
26.7146,-0.72993,-4.2113,-8.6545,-10.5368,4.2067,18.6682,3.3499,0.80866,-0.18899,-0.97534,4.6207,-2.6816,-5.6849,
32.3423,0.27796,2.3082,-4.7608,-6.048,7.8104,13.6915,3.6311,-5.5066,4.6428,-6.2192,5.79,-6.3768,6.7075,
32.8124,3.1538,2.6516,0.82752,-9.0596,13.6088,9.496,3.8951,-8.0683,1.4722,-10.1844,2.55,-9.3687,6.7875,
31.0846,3.6875,-1.1229,1.9832,-9.2389,4.3561,10.6135,1.4923,-3.4868,-8.9805,-8.368,1.1922,-6.6374,-5.4299,
32.3528,4.1894,-2.7425,0.65911,2.6434,-1.4486,9.2536,4.536,-5.447,-11.093,-4.7327,-3.9412,-4.0697,-6.7916,
34.9909,3.697,2.9656,-2.032,-1.6125,1.2894,11.8314,3.0585,-2.951,-11.6327,-1.7976,-15.033,0.27179,-3.733,
29.7579,1.788,-0.82773,-5.0433,-11.3982,2.8992,7.9882,2.1521,-0.6048,-7.8012,-4.3409,-10.5156,-1.4317,2.0346,
18.8139,-5.0682,-11.3834,-8.1152,-17.9447,-4.9875,2.6885,1.0587,-1.5324,-0.10231,-5.5267,-7.9564,-4.7203,-5.3178,
23.2282,-3.5588,-4.1929,-4.495,-15.6632,-6.8574,11.4452,2.6824,1.2107,2.5549,-0.6158,-10.1301,-1.3036,-11.0248,
28.1013,2.4391,1.3616,-1.333,-1.7077,0.30272,11.2402,4.4499,-3.6825,-0.97259,-3.4711,-0.84546,-4.5996,-6.0247,
29.5489,0.60572,2.003,-1.4938,12.4947,0.043816,9.3612,2.0135,-3.2203,-3.5656,-2.5397,4.2667,-3.6005,-4.4577,
31.6319,-1.3588,-1.0097,-1.4042,13.3113,-0.44121,8.7991,0.92835,-1.0989,-1.9054,2.4329,-0.32806,-0.010469,-2.7445,
25.6366,-2.0002,-6.4927,-5.8996,-1.5873,-0.17377,6.5839,0.63168,0.17186,-2.032,3.9741,-4.8877,-1.2147,-6.6772,
26.0271,-2.8445,1.1277,-4.0994,-11.2533,-3.5373,13.9021,0.59424,4.0184,0.50003,6.1463,-0.73802,-0.17793,-15.4356,
33.3831,0.94159,4.1935,2.6545,3.5219,-3.0841,17.6473,1.7634,-4.1769,3.6035,-0.24804,3.4036,-1.3721,-16.1966,
37.4059,4.9827,5.6289,3.2184,15.2412,-0.73015,20.2036,1.4169,-4.167,-1.6741,-1.9206,-6.2004,1.8435,-14.5017,
37.3309,4.9245,6.4962,3.266,10.7115,-0.92708,17.3044,2.5369,2.1083,-4.7074,0.36401,-9.4435,2.938,-15.801,
34.8496,2.4598,1.5272,6.2035,6.4534,-3.523,15.5428,2.6257,-0.18735,-2.7377,-3.2732,-4.7796,1.0744,-13.1657,
35.4102,3.0356,3.1228,5.5903,4.8609,-5.9627,17.7442,3.191,-2.3453,-4.2602,-5.246,-7.1439,0.28708,-10.2062,
36.1776,5.7455,0.52526,7.1831,8.4256,-2.2305,11.8588,6.374,-4.1327,-0.63063,-3.485,0.99705,-3.1046,-3.3273,
34.4894,0.58053,-1.9168,7.2341,-1.7209,-2.5791,9.701,1.6533,-3.4028,3.7455,-3.2759,12.9888,-6.7747,-3.6096,
36.0352,-0.17743,2.7777,8.487,-11.9817,0.70894,14.6623,4.6873,-3.9218,7.6184,-2.8386,13.4145,-8.0557,-3.6342,
33.1502,0.074185,1.8881,6.773,-13.432,2.836,14.024,6.0933,-6.3376,3.0639,-4.3555,4.174,-4.4389,3.5737,
30.92,-0.6534,1.0517,4.6791,-17.6875,-1.9137,13.4233,0.66626,-1.3778,-1.2175,-2.4067,2.7185,1.3713,-0.73827,
29.0646,1.3138,-4.7962,2.9523,-14.6983,-2.7629,10.6899,3.5181,-2.7412,1.7478,-3.2264,5.4472,-1.6037,-11.7814,
26.5978,0.51204,-5.2313,-0.84021,-11.1653,-3.8025,16.0741,2.1022,-1.8538,0.92007,-2.3099,-5.2435,-0.78413,-15.6538,
28.1354,0.24036,2.5544,0.89743,-12.1821,-5.2611,20.6533,-2.1213,2.3552,-1.3043,0.96215,-11.4364,1.9145,-10.6168,
30.0625,-0.4972,1.678,3.4949,-6.8722,-4.223,16.7627,3.0674,3.4185,-0.020972,4.5196,-6.1711,1.5579,-8.2932,
26.0896,-5.529,-1.5562,-1.7765,-8.1466,-11.4412,15.9979,-0.25009,2.9724,0.22125,4.9718,-6.0418,0.25964,-13.3388,
21.6321,-2.7867,-3.873,-5.0439,-13.9243,-14.6111,12.146,-5.0553,-1.0623,3.1005,-0.14723,-0.37668,-0.23787,-6.7539,
24.1904,0.27278,-2.6765,-2.3313,-16.4635,-10.3602,9.0069,-5.2342,-0.51639,2.9142,-3.5126,4.9483,1.7044,-8.2771,
29.4876,-2.1539,3.2689,6.4859,-6.7984,-3.9538,9.9125,-1.5459,-0.96757,2.7396,-5.2303,5.616,-3.2184,-9.2265,
30.6109,-0.096515,3.5547,14.2914,2.2861,3.9962,10.2821,5.2958,-4.7659,3.5391,-6.3623,4.3147,-6.8817,5.4271,
26.3641,-0.090724,-0.033019,5.2388,-3.1537,0.382,12.5572,2.0855,-2.0694,-4.386,-3.0885,-7.0314,-0.68419,-0.80382,
23.5772,0.63785,-1.2361,0.82732,-4.1695,0.60028,12.5269,1.2377,1.67,-2.9178,0.71249,-9.2608,2.9725,-5.817,
17.3416,-0.84691,-0.19784,6.0801,-3.4376,3.4565,11.2931,-0.765,2.0515,-0.33237,-0.29482,-9.6693,-0.098586,4.1727,
15.5782,-1.519,1.9832,4.0281,-4.9181,0.5976,12.7847,-2.8883,0.24164,-2.964,-2.9282,-8.3662,-1.7794,-2.1032,
22.1153,0.25937,1.6232,4.9917,-1.0076,1.767,11.2947,8.1313,-1.4601,4.2037,-1.0653,6.2357,-3.3599,-8.0025,
22.9576,-3.3716,1.2849,6.8613,-5.5265,3.3482,8.4479,9.3306,-0.64958,7.085,-1.2424,17.7924,-5.8094,3.3239,
19.8929,0.4461,2.895,4.7624,-9.2927,8.2086,6.7357,2.7448,-1.3335,2.0801,-1.8912,2.6249,-4.7379,11.5601,
18.2174,3.7938,3.2032,1.5842,-14.0378,6.2703,9.2236,-0.31241,0.1923,-2.383,1.1148,-11.6326,-0.11534,-3.2335,
17.6065,0.19194,2.5289,2.4532,-15.6054,-0.85464,12.5268,2.5991,2.5911,0.17036,0.56577,-6.1142,1.82,-12.5595,
12.2118,-2.2297,-3.407,1.8241,-13.2228,2.0892,7.4369,4.3713,-1.9027,5.4628,-3.8065,7.2686,-0.69932,-0.71872,
7.6225,-4.9887,-5.131,-3.1058,-20.6248,0.035389,6.9905,-0.71143,0.62185,3.2066,-1.6501,5.386,0.78867,-5.0141,
10.0572,-3.725,-5.3055,0.93689,-19.8693,-0.44913,5.6072,0.77706,3.9585,3.4961,2.7872,6.5091,0.74089,-3.7494,
8.9718,-2.0553,-6.9149,5.2195,-17.2309,2.4703,3.3425,2.6591,3.2395,8.1071,6.4768,10.4568,-0.26743,6.5989,
7.7104,-2.6551,-3.3668,0.80871,-18.3664,1.599,3.8651,-1.598,3.2859,10.272,7.7752,11.5164,-0.97452,5.4798,
8.6942,0.87845,-3.6469,1.2423,-11.4796,5.8416,2.6691,-0.056128,0.67886,12.066,3.4525,16.1283,-2.3621,8.5253,
8.4136,-3.7535,-1.7409,-2.4476,-18.2626,2.3581,2.7499,0.6706,0.3967,3.8702,-0.85198,6.2426,-0.05119,9.701,
10.3189,-5.9389,2.22,-4.229,-23.9158,-1.1579,3.5488,0.14797,-0.10903,-2.1466,-0.80133,-2.8091,-1.012,-0.52205,
14.5204,1.6483,4.015,1.3274,-8.3808,6.6244,4.7821,3.9955,-2.5126,0.8743,0.21108,2.6621,0.012601,-6.7572,
9.7926,2.0315,4.7382,-2.6088,-4.624,4.2985,3.5311,2.7917,-3.8084,-4.963,-3.1763,-2.3181,0.49401,-0.08552,
5.8304,1.4275,4.4536,-2.4525,-15.916,0.66636,0.90889,4.5521,0.7587,-3.7011,-2.9855,-9.4096,0.94607,14.0196,
8.855,1.3418,4.6684,0.10475,-17.3711,3.5184,3.7469,0.905,7.4616,-2.9966,2.4963,-14.1477,1.8536,5.8271,
12.4213,1.9844,4.6294,0.33966,-2.2289,10.2974,3.2809,0.12757,1.4705,-4.9862,2.5877,-12.5757,-1.3908,-5.8505,
6.6146,3.0704,0.25456,-0.88578,7.9075,12.3309,-0.049243,4.2175,-7.5355,2.3026,-1.6651,2.2788,-4.4406,-0.91993,
4.7714,1.4404,0.72122,-2.2784,-3.6542,8.6985,3.8101,0.10806,-2.7446,7.9495,-0.60088,16.2421,-2.246,6.3661,
8.3413,3.7639,2.124,0.26817,-4.399,11.5509,2.6174,-1.8268,-2.5802,4.0978,-0.56506,18.6416,-1.1472,12.2504,
5.1895,2.333,2.7197,0.49282,-6.7864,8.2065,3.1835,0.45169,-2.6666,-3.6201,-3.1825,6.677,0.12674,7.9002,
0.29884,0.02385,2.3155,-2.1878,-16.2611,3.6167,3.7154,-0.78024,-0.81933,-4.1258,-4.6788,1.6971,-1.5681,2.3645,
-1.1651,-0.94168,-0.7157,-3.5026,-9.5007,10.6308,4.457,0.71306,-0.28801,2.3885,-1.5057,4.0057,-2.4381,3.1872,
-5.4333,-7.6339,-2.6007,-8.5949,-11.341,5.6544,9.0101,-3.6683,-0.75289,0.31724,0.031092,-2.019,-1.8097,-2.3069,
-5.1078,-4.7657,-4.3729,-8.5611,-15.9632,4.3513,7.9871,-1.52,-0.70772,0.2982,0.99309,0.030307,-1.7011,0.72402,
-1.9088,-1.5872,-5.5568,-8.0474,-13.5591,7.9461,5.0977,0.98134,-1.1472,-2.6122,2.3798,-3.8284,-1.1171,3.5726,
-0.1068,0.195,-1.1258,-2.0212,-8.1661,10.1211,7.9251,5.9844,0.1267,-3.6605,3.442,-4.8037,1.6013,3.1175,
-3.4751,1.1474,-2.0228,2.9205,-11.0508,8.5493,5.0393,9.9634,-0.84499,-1.0305,-0.62109,2.2332,-1.3871,7.7505,
0.10788,0.59662,-0.45515,0.81712,-15.208,6.1082,5.2188,5.9911,1.1339,-4.3432,-1.0658,-5.1316,-0.82194,7.2855,
5.4041,3.4529,0.054088,3.1782,-8.9929,10.5624,7.7982,5.6317,-0.38039,-3.1183,0.44444,-12.5365,3.0838,-0.86442,
0.982,1.0765,-1.6364,3.7104,-13.515,6.3128,11.4277,4.5704,-0.59854,-2.2083,3.5508,-19.7381,6.0322,-5.8742,
2.1284,0.77099,2.5596,2.283,-18.2477,4.2472,15.3218,2.6094,7.3911,-1.8348,9.3638,-21.2049,6.8756,-1.9059,
2.4826,-2.1678,-1.9327,0.21779,-9.922,5.9206,7.6536,4.863,4.0556,1.1678,4.4632,-10.2916,1.1604,0.13665,
6.1898,-0.1093,1.0755,2.6146,-4.5066,5.5651,9.1223,6.9811,3.812,-0.83068,3.7132,-7.2642,3.9826,0.61016,
8.229,1.3435,3.9035,1.9758,-9.0565,5.2312,6.6468,3.6702,-2.2013,-9.9399,-0.84791,-16.4693,-1.5585,4.4299,
12.5557,4.6371,7.0435,5.2319,-2.7283,8.774,5.2839,8.2704,-3.0333,-3.5587,-1.2792,-9.6964,-2.4291,15.2516,
6.9819,0.98468,5.1749,2.9896,-4.975,2.4627,1.1107,5.3643,-4.2973,-1.4172,-2.6485,-4.776,-1.8012,15.7825,
1.0196,1.1663,-0.19707,2.0871,-12.6304,2.5561,0.32091,6.7295,-3.3164,-0.60903,2.09,-3.2844,-0.0061387,12.1843,
-0.72878,-0.10848,-0.42621,-1.1712,-18.3801,-0.24832,4.399,4.1565,4.8364,-0.33152,6.5443,-7.1847,1.1995,-2.6468,
-0.92625,-0.8251,-1.6062,-5.1985,-9.3233,-2.8847,1.0018,0.77389,4.7874,0.89344,1.0897,-12.2975,-1.0418,-9.5984,
1.5397,-0.29343,-2.4739,-4.8863,-3.9434,-0.30176,1.9058,5.0655,2.0898,-0.12427,1.9884,-14.9338,2.3949,0.13681,
4.8215,-1.2399,1.5312,0.70927,-10.4557,1.1628,7.5763,5.7262,3.8924,0.36535,4.2795,-10.6636,4.6616,8.3235,
1.6402,-0.68359,-0.97084,1.1486,-10.3105,5.4314,-1.5554,4.4183,-1.6434,7.0923,-4.172,4.0762,-2.849,17.947,
0.3367,-1.8476,-5.0102,-6.3919,-9.4507,5.3467,-4.5953,1.5019,-1.786,6.908,-4.1629,10.2191,-2.4368,13.255,
5.1367,-5.5932,-7.6016,-6.9727,-9.3656,2.1334,-4.3196,1.4117,-1.6788,3.1191,-0.53863,3.8214,-1.8087,1.8544,
6.2748,-1.4012,-2.8072,1.1585,-2.5372,5.3798,-3.5785,5.6658,2.2783,8.2341,1.4219,6.9661,-2.664,2.7075,
3.247,-0.59399,-1.4337,1.3302,-0.69747,5.2982,-3.1226,0.74635,6.2392,10.3918,1.0958,10.6457,-2.7454,0.37565,
4.2572,-2.2458,-10.7479,-1.8829,1.0314,7.1493,-6.0685,1.4242,-1.6072,11.9373,-3.0675,10.2482,-2.3395,5.8965,
1.3502,-3.3164,-11.7903,-4.4215,-13.1305,2.141,-4.9815,3.5079,-0.30547,12.4259,-1.6786,6.4998,-0.029947,15.4246,
-0.8997,-1.4299,-3.1284,-2.9507,-26.4427,-3.0489,-3.9595,3.0567,7.1849,11.4396,4.4483,9.7255,-0.75128,13.2946,
1.3232,-3.5135,-3.6643,-0.12277,-10.7561,1.2312,-4.445,-1.7062,-0.71824,0.3891,2.4935,0.70556,0.016926,-1.6031,
6.7874,-0.16921,1.1353,3.0181,2.543,8.1472,3.7754,-0.39898,-0.43418,-7.588,3.0673,-13.4368,7.0053,-10.0636,
3.4881,3.6973,1.0672,5.2471,-7.7327,3.802,0.65682,2.9994,2.002,-7.6146,0.95504,-9.3764,3.211,-2.2289,
4.2429,2.5114,3.413,8.7889,-10.161,-4.6211,4.4736,1.3734,6.2204,-5.2298,4.272,-3.9933,3.5001,3.2073,
2.0604,-5.3518,5.6186,2.4768,-12.9256,-7.7181,4.6873,-4.9757,-1.3834,-4.4338,-2.2506,-8.0923,0.88015,-3.7339,
2.9006,-5.5131,3.8357,4.2564,-16.0065,2.386,0.54969,3.036,-2.7467,3.545,-4.5262,3.4805,-2.5471,-4.9561,
4.1726,-5.664,2.1591,4.0012,-14.082,0.31487,-2.3756,2.8536,1.7567,2.3682,-3.2905,6.6459,-3.3584,-0.80211,
1.5121,-1.4683,3.9577,3.7611,-11.3091,0.29552,-4.1612,1.7181,-1.2412,2.2261,0.28136,-0.50176,-1.7106,10.8152,
-3.8815,-2.8262,4.2024,2.5709,-23.164,4.1344,-2.9475,4.0254,2.2075,1.128,4.1206,-6.7384,0.80192,4.8634,
-4.8534,-6.272,1.2992,-1.1983,-22.979,-0.21101,-2.5297,1.6147,2.7984,-2.5547,0.25844,-2.2363,-1.8973,-7.2385,
-2.634,-2.0393,-0.22503,2.73,-9.067,1.2479,-2.3779,3.446,-0.26205,5.7933,2.1711,11.9979,-2.2654,7.2958,
-3.681,-3.604,0.99354,0.39725,-13.5842,-0.51396,0.41612,2.0342,-0.0051271,6.1693,5.6565,11.8809,-4.7808,12.7636,
-2.0139,-0.49568,-1.4762,-2.0372,-13.2516,2.8909,-0.090779,1.9121,0.47711,3.3885,3.3885,4.9011,-4.012,-0.053814,
-6.2316,-0.94764,-4.7623,-7.2174,-12.4565,1.2714,-2.0138,-2.5411,3.8227,4.1493,3.1849,-4.0699,4.9056,-3.4253,
-8.5093,-5.4705,0.58511,-7.5077,-12.9141,-0.49212,0.27623,-2.6296,8.655,7.9977,7.0916,-5.9948,11.1192,1.36,
-6.5525,-4.6604,-3.3064,-5.6112,-8.7651,3.8757,-6.0069,-0.54367,2.3511,8.4817,5.7018,-1.2968,1.293,-2.578,
-1.8205,-1.9702,-3.5899,-5.2743,-7.757,3.6432,-6.6103,-2.4392,1.7281,4.1164,7.2879,4.0836,-0.71277,-0.013186,
-2.4344,-2.5751,-2.1695,-4.2347,-4.1583,1.7376,-4.5267,-3.9803,0.90133,1.2181,2.7535,5.5256,0.53506,12.2799,
-3.0117,-2.1796,-1.7983,-6.1498,-1.2575,3.3206,-2.5679,-1.5719,-2.2862,-1.0241,-2.9553,-1.7958,-1.1843,8.4101,
2.9538,0.36153,1.2018,-8.1914,-4.5565,6.4956,-1.4497,2.8605,-2.1488,-6.2651,0.59622,-7.9548,-0.63105,-3.6639,
1.5717,-1.8293,-3.4496,-7.4585,-2.1135,6.3468,-6.9063,2.9303,-3.7071,-6.1301,3.212,-2.4154,2.0584,-1.7569,
-2.1385,-2.4429,0.37238,-7.2522,0.18224,1.3867,-2.8765,-3.2715,1.577,-1.1831,3.7422,-0.58367,7.478,0.99965,
-2.2511,-0.12719,3.4835,-5.6117,-1.9979,-0.38373,-5.8374,-4.7625,-1.1692,1.0571,-0.097768,-1.2716,-0.44247,1.663,
3.669,3.2554,4.2388,2.4377,2.4606,3.9776,-5.4867,4.6828,-1.0986,4.8505,-0.091901,9.892,-2.826,12.6505,
4.4125,-0.79704,3.5023,-0.60127,1.8305,0.36427,-1.7838,2.4734,0.89483,3.5949,-1.0505,11.2264,-1.6924,12.3731,
2.4605,-0.025859,3.0512,-2.252,7.2648,0.58384,-5.2917,-1.2904,-2.2919,3.6207,-1.2284,11.2762,-1.3499,9.9435,
-1.7842,-2.1932,3.5913,-2.358,6.1058,-1.1382,-6.6616,-4.8282,-2.8775,-0.69417,-1.8778,2.1637,0.41857,0.91148,
-2.1596,-3.9903,2.4115,-4.6267,1.8828,0.85784,-4.8157,-1.6464,-1.7405,-0.17058,-2.7295,0.10524,0.393,-3.9639,
-4.6811,-3.028,-3.2768,-7.4826,-2.3277,3.4579,-5.2501,0.6215,-0.91319,1.0449,-1.3604,1.7861,-2.2817,-6.8596,
-5.1231,-0.67668,-3.3212,-6.3105,-0.50063,1.0813,-0.83728,-2.5488,4.6852,-0.70498,0.89035,-0.97211,0.024384,-3.7964,
-3.3697,0.80995,-4.086,-4.9678,2.4215,0.052311,-2.2335,-2.8781,0.06555,0.78335,-3.5016,4.3886,0.98702,9.9285,
-3.1675,-1.6488,-4.8052,-7.0801,-5.4366,0.53111,-3.0634,-1.7415,-0.42032,1.7007,-2.3272,2.1971,1.8921,5.9583,
-6.3519,-3.4785,-5.4807,-8.1015,-6.5567,2.4274,-8.1822,-2.6013,0.56877,2.0806,1.6688,-4.2012,1.2962,-8.3785,
-8.6224,-1.5826,-7.8034,-6.8923,-2.0657,0.59456,-9.3785,-2.6862,-0.18826,2.1967,1.3273,-1.2981,0.013597,-5.2247,
-5.9354,-1.2462,-2.7555,-5.7554,-8.9311,-4.9847,-1.8259,-2.2836,5.3667,-0.10426,1.971,-0.014879,5.0745,1.5967,
-5.8203,-1.4124,-3.313,0.13355,-12.975,-1.5522,-3.8855,0.50448,5.768,3.0355,-0.31643,0.22698,3.5647,1.26,
-9.0867,-3.979,-5.2837,2.2947,-11.4736,-0.7359,-4.8579,-2.659,4.2164,8.3967,-1.0206,4.7929,1.1814,-2.4313,
-7.0952,-3.2583,0.81794,1.6751,-6.4467,-0.69174,-1.192,-2.0176,3.9634,10.7855,2.4151,12.2181,1.1105,3.4992,
-5.2233,-3.0628,1.7332,3.0208,-7.0237,1.7599,-3.5306,2.4423,0.35163,4.3537,0.34201,9.0749,-1.3662,6.1817,
-5.3918,-3.8429,2.1111,6.2136,-20.5818,-2.684,-2.8364,-3.4888,2.2587,-0.24626,-0.64283,0.8176,0.64395,0.026262,
-4.5863,0.24361,0.53821,10.1791,-16.9368,-4.9336,-2.1847,-4.2438,3.569,4.5892,3.7341,-0.19578,2.0516,0.50662,
-4.07,-1.9399,-0.21721,6.9175,-5.0743,-6.3246,1.562,-0.85596,5.0423,1.6626,4.7155,-3.7992,5.0617,-2.1751,
-3.3438,-3.7517,4.1346,5.5381,-3.8058,-8.3552,1.4683,-3.2147,5.7036,-0.84733,0.57622,-4.5356,5.24,-3.9728,
-8.4459,-3.0447,-0.93419,6.6521,-7.916,-7.8539,-4.8863,-3.9862,2.4694,5.952,2.9518,3.9317,2.5154,3.0145,
-12.5189,-8.4056,-3.0473,2.6375,-16.841,-11.4805,-3.8702,-4.9518,3.0441,3.9076,8.3183,8.2751,4.0517,-1.2637,
-10.3212,-6.9372,-0.9365,2.9614,-12.9383,-10.7914,-3.1559,-1.7624,0.93349,0.29893,5.8912,12.1171,2.3626,-4.5621,
-9.461,-3.3875,-1.6032,3.5067,-5.6542,-9.4206,-0.31542,-0.93379,0.63652,1.0044,4.8144,6.8108,0.53362,0.77281,
-14.4367,-8.2457,-4.1583,-1.2828,-14.7148,-15.3633,0.42663,-6.4211,0.35713,-2.6716,4.2848,-3.48,-0.22153,-0.96055,
-13.3295,-7.0276,-5.1137,-0.48293,-17.9295,-13.2362,-1.7681,-2.9024,0.57667,1.1042,7.6431,3.2367,4.8534,0.30237,
-12.0478,-8.0526,-7.2174,-4.3106,-19.2641,-16.7808,-2.144,-6.1027,2.4703,-1.8546,6.7021,-0.8143,3.116,0.76616,
-10.8433,-2.2666,-3.8921,-1.1597,-16.6622,-12.3995,-0.087368,-3.8086,3.2861,-2.225,3.8897,-2.2115,0.036731,1.2019,
-10.9156,-0.44338,-0.52509,-0.36694,-19.7596,-9.4861,-0.80503,-0.44657,1.8841,-3.2968,1.4871,-1.3554,3.168,-9.2341,
-4.2349,-1.6218,1.6758,-2.0322,-15.4407,-7.23,0.93027,-0.17858,4.422,-2.8578,3.0853,-3.4435,8.5213,-9.8851,
-5.1858,-2.7301,-4.4505,-1.6693,-13.3092,-1.2526,-2.2588,1.5191,2.9516,3.8214,0.2489,-0.10363,2.9486,2.5179,
-7.285,-3.5303,-2.2555,-2.5332,-21.1875,-1.6596,-2.123,0.94582,6.6311,8.8945,-0.73013,9.0614,1.3252,4.2953,
-5.8838,-1.8725,-1.638,-7.6839,-19.9165,-2.0422,-3.9241,-0.075025,6.233,10.2888,-0.68655,14.3025,3.1741,0.18092,
-13.2436,-4.6522,-10.6988,-12.0433,-21.1317,0.97289,-7.0631,-0.070523,4.4128,7.7433,2.7291,6.6955,4.9118,-5.6145,
-12.9314,-4.8552,-4.2723,-6.5002,-22.2741,4.289,-1.8186,0.41564,9.4506,7.7606,7.8675,0.50916,8.4735,-9.616,
-9.022,-5.2871,-2.3287,-3.4589,-12.9837,2.8263,-4.361,-0.3322,1.8937,6.0901,-1.5221,6.5042,1.9396,-3.0135,
-5.3472,-5.6927,-4.3581,-4.9383,-7.1432,4.8259,-1.4478,0.89303,-1.8349,2.1093,-4.0819,13.1038,1.5822,6.0854,
-7.9189,-6.7974,-7.953,-7.0524,-12.0173,7.4289,-3.2891,1.8033,-4.6173,-1.8736,-3.8374,8.4612,-2.3696,0.41764,
-10.577,-5.6665,-9.1629,-5.4242,-12.0191,8.6701,-6.7074,2.4182,-3.6171,-0.55616,-4.3299,5.3022,-4.8783,-4.6689,
-11.1474,-7.0135,-1.6234,-5.3397,-11.5392,4.0528,1.167,-2.7883,1.1794,-3.1741,-2.3831,4.2609,-0.97036,1.1546,
-15.7812,-7.075,-3.9366,-8.3938,-11.8109,3.8092,3.0252,-3.5853,-2.2658,-5.3938,-3.6863,4.4872,-2.8403,7.8343,
-20.6187,-9.0604,-9.0024,-15.1205,-21.7071,-0.27552,1.8796,-7.7083,1.7268,-4.588,-2.983,0.3618,-1.7058,-6.1329,
-16.4893,-9.9631,-6.0523,-16.1417,-25.2254,-5.5614,3.2129,-8.2099,4.0331,-4.313,-0.8756,3.2324,0.32495,-13.4779,
-15.018,-9.3655,-10.5099,-15.6554,-9.7324,-3.7819,4.9483,-4.8252,-6.3318,-8.8744,-5.1618,1.1102,-4.5153,-4.9565,
-13.8757,-6.6342,-8.6738,-16.885,4.1082,-4.7596,11.1591,-5.2589,-4.2645,-10.5114,-7.503,-5.4641,-5.4494,-3.936,
-13.2846,-6.9595,-10.323,-15.6312,2.6562,-7.1256,6.3922,-3.7385,-2.8038,-5.3014,-9.2224,-1.0389,-6.8097,-6.8333,
-9.836,-10.6388,-10.9084,-11.0776,-2.0822,-6.939,5.7677,-3.2728,-3.8404,-3.2956,-6.9819,1.1931,-6.1601,-6.6643,
-10.2099,-9.0364,-5.9154,-10.4132,-0.51128,-3.6304,9.2778,-6.933,-5.5384,-6.4726,-8.4909,-0.80694,-6.7546,-7.2285,
-13.9356,-5.1202,-5.5605,-11.2344,0.96543,-1.4844,6.7929,-3.1426,-7.1343,-8.0124,-8.9458,-0.75852,-4.4211,0.43605,
-13.0995,-7.7051,-2.8167,-9.5963,-8.2515,-9.1081,5.9034,-2.4721,-3.3317,-9.9418,-3.1064,-6.4976,0.18245,-0.55444,
-10.1446,-7.484,-1.9246,-2.513,-8.4796,-6.3927,1.934,-2.0826,-2.8911,-2.8376,-2.1969,2.3282,-2.9618,-8.9571,
-10.9822,-8.4812,0.11909,-1.8801,-8.4527,-3.1166,4.2281,-4.3677,-0.30751,0.70668,-5.4395,13.2752,-5.1942,-12.758,
-11.0464,-11.5875,-1.0936,-3.9367,-11.0791,-9.4373,5.1795,-6.757,-0.047865,-3.9152,-7.7645,10.3098,-6.0876,-3.5566,
-0.74241,-4.1436,-1.9916,4.9766,3.6857,-4.0506,3.4227,-0.084835,0.9191,6.9252,-1.9957,22.2245,-4.2763,10.7568,
2.4356,-4.6179,2.7072,2.9908,11.7802,-5.0124,4.9046,-0.8031,1.5873,8.1969,-0.67115,25.4707,-5.707,9.268,
-6.6286,-7.4743,-0.58828,-1.7679,7.9401,-4.9526,6.7794,0.45037,-0.67708,1.6796,-1.8357,15.5064,-7.5337,-5.3881,
-11.0516,-7.0261,-6.338,-5.0365,-0.24928,-4.174,6.8546,2.3515,1.7732,-0.83181,2.1304,2.5244,-1.779,-14.3445,
-8.4601,-6.604,-4.5112,-11.4828,-1.1982,-8.7436,1.6228,-0.68184,-1.225,-3.1918,-0.8893,-1.9651,-2.6364,-12.5198,
-5.3009,-1.6285,-1.5895,-7.6606,6.8274,-2.1934,1.2845,6.3489,-2.3568,1.579,-0.59497,6.5885,-2.2372,-4.7787,
-5.465,-4.905,-6.7965,-5.7547,-0.81305,-4.4722,2.6535,-0.78067,0.19496,-3.3362,-2.0058,-1.0375,-1.1389,-12.6869,
2.8166,-1.4772,-4.7015,-2.7581,4.2974,-2.0347,2.2533,-2.903,-0.53964,-0.48496,-1.644,1.1939,0.61666,-12.1667,
0.2375,-3.7992,-0.081099,-5.4851,8.3779,-2.8764,0.67184,-2.2469,-5.328,-4.7942,-1.0634,0.64038,-1.8305,-9.5085,
-1.4642,-0.91991,6.4315,-2.0225,8.1162,-1.4988,4.7291,1.0212,-1.875,-8.6041,2.1336,-4.4595,-0.51558,-6.2866,
-0.89442,3.9555,3.1531,1.4731,9.5574,5.3396,1.0709,4.8163,-2.2445,-2.7852,-1.3688,3.5208,-2.4128,-0.12487,
-3.2511,-2.0661,1.0355,-2.9539,2.2351,1.1626,1.4888,1.6346,-2.592,-3.1003,-3.6971,8.1296,-2.7502,2.7749,
-5.9481,-5.3166,1.4557,-6.1509,1.619,-2.7631,3.8096,-0.87362,-3.4008,-4.8424,-4.4391,3.7859,-3.0671,-1.248,
-6.0732,-1.1408,1.8508,-6.2637,10.6811,-0.66912,4.5454,-0.82074,-4.1606,-2.1413,-5.1366,0.6667,-0.47299,-10.3321,
-5.4676,-2.7598,2.9443,-4.6829,13.6555,0.57609,2.5852,-0.53076,-1.7416,-5.6285,-5.0696,-5.8815,-1.6497,-8.0252,
-2.9701,-2.8349,1.5631,3.0699,18.8619,5.603,0.74308,5.0449,-1.3959,-2.6395,-2.5961,-5.7693,-2.2738,3.7847,
-3.0333,-4.3525,3.638,2.6445,16.5249,-0.27681,5.2778,1.1268,-1.5536,-2.2401,-2.6817,-6.1465,-0.9321,-8.7349,
-2.8513,-3.1273,7.2761,3.9321,15.5334,-1.7065,5.4435,2.505,-1.4603,-3.0696,-0.11069,0.0068531,-0.87618,-8.2108,
-7.5007,-2.9394,1.0552,4.6603,9.299,1.2887,-1.1498,3.8012,-3.7826,-2.8856,1.3424,0.971,-0.82384,2.405,
-6.8097,-3.0042,1.2328,-1.1632,-2.5874,-0.95827,2.0522,1.8854,-1.8689,-6.8098,1.9848,-10.8978,2.841,-5.693,
0.58873,1.7553,4.7743,-0.85218,6.4857,3.1966,5.0625,9.7265,-0.06953,-10.0167,3.5529,-12.4131,3.8754,0.67409,
4.1688,4.3015,9.0676,3.7787,12.1226,5.6563,8.3742,8.902,3.5501,-9.6566,5.9913,-11.4274,4.3662,4.7315,
8.498,4.2844,11.1746,7.6491,12.1181,8.9324,12.451,7.1625,3.0961,-4.498,3.4622,-5.6801,5.3095,-6.3987,
7.265,0.41215,1.1039,3.575,17.4168,8.1552,5.6787,8.4202,0.74094,-3.9869,-5.6634,-2.206,1.3753,-6.256,
-1.3654,-3.4692,-2.8185,-3.3882,4.8026,-3.4211,1.9637,-1.2442,3.1068,-5.1937,-5.8057,-6.4122,1.775,2.7963,
-8.2734,-2.5377,-4.8185,-4.8721,-7.7778,-5.8669,-2.7339,-2.8563,-4.069,1.1435,-5.6983,-4.3402,-2.4289,5.762,
2.5871,2.1936,1.4959,-1.4466,6.7889,6.7769,1.0454,8.643,-3.5841,-0.6126,-4.1514,-3.3567,-3.0063,1.8006,
16.5319,9.2929,8.155,4.425,20.4815,18.4219,2.9108,9.0883,-3.3691,-9.7344,-3.4204,-4.1196,-2.8259,0.7287,
24.3374,17.6534,8.3891,11.6313,33.3526,28.1628,3.9415,9.7483,-4.8541,-4.5711,-2.9737,-0.25702,-0.96913,8.6387,
25.2877,15.1484,7.4034,6.5951,32.9182,27.9193,6.5975,11.0916,-2.6347,-7.6708,-10.0261,-6.0262,-2.8392,6.6746,
28.3495,15.4441,6.236,8.8503,45.0431,32.7514,3.5503,14.5237,-5.6099,-11.3081,-14.0041,-7.834,-7.2483,2.1765,
30.5049,15.4817,7.7901,15.5501,46.7993,32.7145,0.92673,11.7241,-6.7195,-7.2556,-8.8255,-5.9177,-5.8496,-2.7748,
27.9517,12.3837,5.1535,12.9299,30.735,25.208,0.14822,7.8871,-3.1829,0.16957,-8.055,2.8735,-6.7034,1.4891,
20.731,9.471,0.74694,9.5025,27.2037,23.9365,-0.10164,9.1011,-4.6791,3.2924,-8.2946,12.1011,-8.9528,14.1742,
21.897,10.8312,9.379,12.3071,26.0532,23.4644,6.6531,7.591,-4.3986,1.1669,-5.387,7.0365,-3.5951,11.8772,
25.8861,14.0379,9.7803,14.4609,21.1157,22.0568,3.8441,6.1714,-5.5807,3.9892,-7.9556,4.6863,-3.3792,4.4164,
19.7534,11.0263,4.614,14.3164,12.3772,17.6001,3.3722,6.5243,-2.5946,6.4012,-4.827,4.1639,-1.4894,1.982,
12.3015,6.0261,3.855,11.0471,9.7062,13.6518,6.0622,5.6506,-1.9567,0.71467,-3.0913,-5.2452,-0.91791,-1.9935,
16.8663,11.4494,7.4803,10.8664,17.8011,15.2431,3.2881,8.6863,-3.2854,0.18963,-7.2444,-3.9659,-0.86261,-0.42742,
19.9514,10.5212,12.093,9.0094,11.6711,7.8208,2.3677,4.5495,-1.4012,-1.5087,-9.943,-2.0409,-1.534,-2.0888,
16.8264,7.4801,5.583,8.4686,7.1147,9.2795,2.2258,5.2406,-2.2813,2.9203,-8.3823,4.3483,-3.8523,2.3746,
10.2729,6.3081,-1.7421,1.9351,4.0365,9.4459,0.40483,4.203,-1.4213,3.9502,-7.6382,2.8823,-3.8624,1.0271,
13.0312,5.9294,6.5574,0.85493,3.3122,7.4331,0.8627,1.0585,1.0744,-0.62539,-6.6982,-3.5574,-2.1841,-9.1577,
16.1057,6.056,6.164,6.5882,6.9698,8.4334,-0.63486,4.3695,-3.3284,2.7866,-6.7782,1.9587,-3.4993,-5.2337,
13.6931,1.3539,2.9021,7.1568,5.5878,4.5529,3.2592,4.5892,-2.1648,5.9938,-4.4433,3.287,-2.3255,7.6138,
11.9075,-0.17337,5.6202,6.7276,10.073,5.7258,0.65371,3.8317,-4.4453,3.7058,-3.2126,1.6437,-5.5602,9.0849,
13.6031,-0.16297,5.7649,5.3596,16.6994,7.3104,-2.76,5.0481,-6.1068,-1.8192,-0.60976,1.5451,-7.6367,-5.4395,
15.4385,2.4979,5.66,3.3508,17.8666,5.6665,2.9492,4.5042,-1.643,-2.9153,5.4528,-2.163,-4.0455,-10.1748,
8.245,2.8302,0.98187,2.6676,15.8301,4.3624,-1.5667,3.7518,-2.9905,-2.7402,1.269,-6.3718,-5.7307,2.969,
8.2329,1.6963,4.2976,2.0259,13.9166,4.1009,-0.50816,2.0807,1.5275,-5.95,0.2288,-7.435,-2.0122,12.432,
8.9438,2.7998,4.2807,0.69901,13.3226,3.1319,-0.2367,2.6787,-0.7333,-4.3882,1.4204,-3.8559,1.2416,6.6244,
7.9252,3.5957,0.16751,2.5853,12.5232,2.944,-1.6688,8.3031,-4.5457,0.69583,-1.5574,-1.6964,-1.2431,-4.8603,
11.5468,-0.23571,3.2907,6.0453,9.6025,-0.36634,-0.8455,2.743,-2.104,1.8591,-6.5254,0.57435,-7.1943,-7.7019,
13.9877,3.3941,3.334,10.7445,14.5697,6.6453,-1.9998,2.3376,-5.111,11.1474,-6.857,12.3502,-8.932,6.8602,
6.8815,5.6006,2.1701,8.6536,8.8753,11.0673,-1.8798,3.1613,-6.7326,8.5503,-5.4817,11.6092,-5.5035,9.9435,
6.4686,5.2645,2.0399,7.1701,8.3427,8.957,-2.249,2.9716,-6.3286,6.1091,-4.6704,8.9845,-5.1733,8.3826,
5.5986,5.4306,1.9175,5.776,7.8422,7.4557,-3.0784,2.7933,-5.9489,4.2968,-4.3902,6.5172,-4.8629,6.9158,
5.5036,5.3457,2.0434,4.7061,7.6126,6.285,-3.1346,2.8667,-4.8691,2.3517,-3.4039,4.439,-4.3302,6.2594,
5.1736,5.5071,1.9206,4.4239,7.638,5.4262,-2.9463,3.1768,-4.0948,0.7646,-2.7175,2.7266,-3.5882,5.4021,
5.1044,5.4179,2.0465,3.4358,7.4209,3.8956,-3.0107,3.2274,-3.6079,-0.96827,-1.8313,0.876,-3.1317,4.3549,
4.7977,6.0572,2.4057,2.7473,7.4576,3.1794,-3.312,3.5157,-2.9095,-1.8745,-1.2395,-0.62282,-2.4619,3.6116,
5.4741,7.14,3.2257,2.5824,8.4564,2.9891,-2.6314,5.2329,-1.2886,-2.7264,0.76308,-1.5493,-0.86792,3.8769,
3.9409,2.6142,3.2731,2.1865,4.8155,-0.80564,2.5882,2.2679,0.95784,-6.6601,2.4045,-7.9643,0.38899,5.3315,
7.0786,6.7955,4.0408,7.8401,8.3832,4.0632,5.3252,4.5422,-0.063727,-5.2964,-0.63204,-6.5223,0.84782,6.4576,
5.4484,8.5571,1.147,4.236,6.1928,4.5421,4.7645,5.9566,0.66323,-3.7736,1.0929,-7.818,4.4121,1.973,
6.0858,4.1873,1.5601,3.4999,5.3393,3.7876,3.9967,4.153,1.1054,-3.0652,3.4379,-11.2058,3.6655,-0.55592,
8.8537,5.6228,2.6718,12.2075,14.9009,8.1396,3.5154,6.073,0.79808,-2.1584,0.098131,-6.918,-0.16987,5.503,
7.5998,5.0447,3.2347,8.8242,10.3912,0.17968,5.9558,1.1291,1.9553,-6.608,-1.5952,-10.1181,1.0454,1.0757,
7.6257,5.7059,2.0762,6.8485,3.5012,-0.31304,4.1527,3.9538,-0.57218,-0.90884,-2.4634,-7.5828,0.018793,1.4931,
4.2759,2.4713,0.023709,10.2942,-0.08312,4.5262,-0.91695,3.2344,-1.9839,1.0737,-4.7259,-2.7893,-3.357,-1.0069,
2.5731,-0.087125,1.9505,12.0862,-0.078132,3.2903,-1.3443,0.14785,0.062884,-0.91896,-2.5142,-3.1043,-2.6737,-0.46452,
1.4544,0.88197,0.38719,10.8791,3.7829,3.0929,-2.2275,3.0315,-1.3867,0.58244,0.5292,-3.882,-2.0309,3.4197,
-0.56084,-3.0271,2.7743,8.7803,3.0738,-0.46689,-0.16546,1.4036,2.0707,-3.7911,0.49721,-9.9158,-2.3912,-1.6055,
-0.28622,-2.1226,4.2951,11.8689,3.1303,0.76642,-1.8428,2.0423,-0.22267,-4.2865,-1.2198,-7.1517,-3.453,2.5882,
-0.99195,2.5845,1.8682,12.844,0.77336,4.8178,-4.3837,3.607,-2.8604,-0.89628,-1.8696,-5.0353,-2.0405,3.1558,
-3.3428,2.9112,6.0942,7.7348,-1.201,2.1184,-3.1566,0.49825,1.1674,-2.7705,-0.79328,-8.1074,-0.95399,-8.1205,
-3.6242,1.2907,8.1391,6.3069,2.7274,3.4375,-3.4492,0.46836,1.0973,-2.1223,-0.26375,-0.39016,-0.89675,-6.1875,
-5.5761,-1.4381,5.4814,6.6511,-5.8721,2.0257,-1.5552,-0.76481,-1.6198,-2.7181,-1.9349,-3.5005,-0.11981,-7.9852,
-7.8929,3.7097,5.3937,7.9395,-6.7248,4.556,0.70749,1.45,1.1287,0.096314,1.3144,-9.3158,3.5026,-7.7473,
-14.6499,3.4873,3.6241,-0.24939,-6.8035,-0.53786,0.18288,-2.4931,5.3995,-3.7656,2.1997,-14.5412,4.7389,-3.9077,
-13.5297,1.1087,5.0936,-1.4399,-14.8312,-4.6032,2.8232,-2.5848,6.7625,-6.191,-1.0656,-13.428,5.6596,-1.9863,
-8.3798,3.9344,-0.99681,8.2876,-12.0134,6.76,1.6897,3.8371,-0.39189,0.92913,-1.4838,-4.4273,4.356,1.0252,
-9.805,3.2162,-1.4187,8.2726,-6.4716,10.211,4.963,0.23263,2.042,-0.090715,3.9081,-7.054,5.5406,-4.8207,
-14.5194,1.0951,-0.36971,0.062967,-3.6737,7.1878,5.6291,-1.2276,2.4014,-7.3161,2.7093,-12.4158,3.28,-11.2808,
-12.6839,3.4399,0.1344,-2.3509,0.88554,7.2389,10.1121,3.1844,1.2934,-7.3591,3.0287,-11.1884,4.0475,-8.1934,
-12.4052,0.34102,0.12634,-2.2099,-2.542,3.4301,12.8794,-0.86307,1.2158,-6.4356,5.2571,-11.4815,3.3223,-4.3273,
-16.7221,-0.40234,-3.9786,2.5025,-4.0763,2.0195,3.6709,-1.5342,-0.062406,-0.023918,3.7368,0.053679,-1.4563,4.8504,
-16.9241,1.309,-2.5346,2.1113,-6.4833,-2.6814,1.7634,-3.1294,1.6286,-2.6736,1.8254,-1.1544,1.2826,-5.805,
-8.1959,4.6045,4.8479,3.9129,-1.756,3.264,6.9603,0.91479,1.5309,-6.8519,0.26959,-6.3878,4.5796,-11.7232,
-5.294,3.3643,6.4852,9.9446,4.134,9.8166,5.5783,6.1625,-1.9355,-5.4765,-0.71045,-4.5587,4.3049,2.9595,
-6.4224,-0.21174,6.5782,6.9376,-1.8984,2.9614,5.2439,0.49038,-0.85523,-5.6301,-0.66805,-7.177,6.4569,1.8178,
-7.9652,1.7287,1.8452,0.73673,-0.3387,1.8193,-0.37341,0.94289,-1.7678,-1.4359,-3.52,-2.4081,3.177,-7.4503,
-10.6206,-0.062023,1.4938,0.45179,-2.4873,3.8796,-0.10981,3.0557,0.025282,-1.5905,-3.0676,-2.5048,3.2276,-5.3158,
-9.2607,-2.2277,4.055,5.4857,-16.4381,1.9593,0.13751,0.22058,-1.6637,-5.1107,-3.1252,-3.5596,4.239,6.3311,
-11.3561,-2.335,2.1249,8.29,-18.7058,-0.32738,-8.3064,0.44877,-9.0352,-6.0089,-9.4452,2.1976,-4.9334,6.1922,
-8.9873,1.9027,6.0946,6.1056,-3.4834,-1.9947,-6.121,-0.78322,-7.77,-9.7459,-11.5293,-0.10315,-8.7346,-5.0253,
-7.243,6.368,5.4882,4.5342,10.8256,-2.5982,-0.69186,-2.4237,-7.545,-10.3662,-9.6325,-9.9791,-3.149,-11.7135,
-6.0855,5.745,4.9174,4.5031,24.2761,-6.5396,8.2673,-3.0012,-1.0667,-2.7544,-0.6189,-13.4782,3.5474,-10.2878,
-5.479,3.7131,5.8277,3.0281,25.8327,-13.1371,7.5303,-4.0264,0.6845,2.4721,0.1416,-3.269,-2.2086,-5.5727,
-12.1401,-2.5353,-2.4757,-2.6976,29.8259,-14.0361,-3.7678,-3.5438,-10.2028,-3.2198,-10.7132,1.0245,-9.5484,-4.9974,
-12.6172,-3.1067,0.80609,-3.2589,30.6877,-12.9528,0.073441,-2.6081,-7.9037,-8.5705,-6.4552,-1.2064,-3.4321,-6.385,
-11.619,1.1777,0.51699,-2.3398,28.6057,-11.4525,-2.0999,-3.1747,-5.2596,-9.7428,-2.9346,-0.41089,-3.9488,-5.2787,
-10.9218,-0.82161,-3.3709,-4.1281,23.9968,-8.3552,-2.9382,-2.0199,-1.0881,-3.856,-4.6867,1.542,-2.2656,-5.444,
-13.4,-4.3877,-1.9633,-5.0857,19.4235,-10.023,-3.4848,-3.104,-4.6382,3.8471,-9.9491,2.1723,-2.853,-6.3226,
-12.837,2.3835,-1.6046,-2.6109,23.3198,-7.7344,-5.9273,-3.6411,-10.3855,5.3035,-7.665,3.7292,-6.2973,-0.88157,
-6.5227,3.9277,1.1433,-3.6591,21.6796,-7.5113,-0.027587,-4.6275,-1.3262,0.88795,0.26674,0.37245,-2.3036,-7.8185,
-7.3369,0.55877,0.35154,-2.7169,25.9222,-2.9631,2.6254,1.194,3.8148,3.486,1.4558,0.59084,1.9318,-12.8928,
-12.44,0.28405,0.089247,-2.3127,27.0182,-1.0983,2.7086,-0.082704,4.791,2.5537,4.9841,-3.5417,6.3954,-8.0217,
-14.104,-2.6253,-2.8084,-9.8869,11.4176,-7.7815,-1.3105,-7.7907,5.4676,-3.8663,7.5769,-10.0784,6.0114,-8.9869,
-12.0529,-1.2625,-8.6654,-8.0884,13.3841,-4.6631,-3.883,-3.2259,4.4167,4.3195,7.8456,1.3726,1.0715,-4.3503,
-11.5705,-3.838,-6.4585,-5.4342,18.1245,-4.624,-1.4806,-2.3093,1.5003,6.7116,3.7597,5.8698,-0.67983,-1.9199,
-8.7069,-3.3666,-3.4197,-3.9026,16.3139,-2.6596,-3.0788,-0.96564,-1.241,5.1039,-0.56346,8.6508,0.084089,5.185,
-6.0155,1.8969,-2.9733,-1.4995,15.5762,0.63323,-0.72512,0.77929,-1.4077,2.1463,1.6397,4.9985,0.80171,5.1151,
-3.0033,2.5057,1.7842,-1.1683,19.7031,3.7285,4.3798,1.4557,2.7743,-5.9364,5.1565,-9.4014,3.4049,-5.074,
-0.89464,1.8737,0.23107,-3.0267,28.1621,9.2896,1.7071,4.2606,2.6081,-8.4725,5.3293,-15.7065,4.1647,-9.1081,
-3.2513,2.243,-1.7108,-7.1836,23.0977,2.4655,4.4965,0.14882,3.8976,-5.0719,6.4556,-9.9436,4.8789,-10.972,
-14.8666,-1.0249,-5.7057,-9.8859,7.6118,-4.6726,3.986,-2.0295,1.0124,2.2221,5.8271,1.0171,2.8992,-0.91344,
-23.8565,-8.4347,-11.3889,-13.872,-6.9449,-7.5252,-5.1712,0.26189,-4.1095,6.6685,2.8263,8.9103,0.5561,3.7211,
-14.4714,-6.2419,-4.1981,-11.8344,4.5593,-3.9402,-1.2455,-1.9234,0.23394,4.0992,5.3083,10.0624,-2.1288,-3.0101,
-6.1313,-0.80568,-0.81271,-8.4732,18.3857,3.768,3.4085,-0.12081,-3.3955,1.6841,1.3739,9.6997,-8.5086,-1.1423,
-7.2095,-3.6496,-1.2461,-11.339,20.7775,3.0597,2.2399,0.3686,-4.1559,-1.7916,-2.0827,3.3333,-5.5877,0.3723,
-7.4998,-3.1897,0.033945,-10.4177,12.0591,2.1533,-0.54559,-0.8588,-2.7012,-4.8172,1.1757,1.4461,-2.1194,-0.37294,
-5.3626,0.61712,-1.6553,-8.1054,16.3972,1.3012,2.6206,3.7725,-0.85193,-3.8048,1.3461,0.63643,-1.7508,-1.5559,
-4.0772,0.097928,1.3363,-8.5837,11.5567,-2.634,6.3195,1.6177,4.0197,-0.20272,-0.18111,-0.84824,-1.646,-8.6936,
-6.7244,0.092281,0.29202,-3.2477,5.5609,-1.9933,-2.2541,-0.88926,-1.042,5.5942,-0.65195,9.3258,-4.9215,-9.6175,
-8.7315,-0.87758,-0.20744,0.3216,3.2986,-2.3561,-2.6012,-1.3183,-0.97948,5.2586,1.3154,16.479,-4.1442,2.0463,
-5.5563,-1.0661,-0.91858,1.5069,3.3419,-0.52775,-0.75818,-0.51607,2.2125,4.2199,-0.45102,15.731,-2.6905,14.2158,
-10.0436,-3.4123,-8.0938,0.45263,-1.1969,-0.013688,-6.0149,-0.96704,-3.7048,4.4487,-4.2799,12.377,-5.4212,4.6862,
-9.1998,-0.07383,-1.5824,-1.2615,0.56188,-0.25406,0.3718,-1.1502,-0.83118,5.3873,2.0022,11.3937,0.4475,-3.5489,
-5.7558,3.3046,-2.4518,-1.6682,8.7229,1.6894,-1.5792,-1.0812,-1.7456,4.0997,1.8821,7.3356,-0.54368,-1.4078,
-6.8565,2.6246,-3.7507,-1.086,4.8253,1.1063,0.44401,-0.53417,4.6259,1.9258,4.1795,-2.7457,-0.028892,-6.6257,
-14.64,-0.90755,-5.4541,-5.8413,-5.105,-6.1911,3.3097,-0.50234,8.6868,0.36374,3.4466,-6.4372,1.4189,-13.9412,
-19.0638,-3.7452,-12.3573,-7.9009,-0.94229,-6.7835,-4.1198,-1.4361,1.4172,4.1983,-2.5448,4.5544,-1.0764,-1.0532,
-15.2686,-4.7255,-8.0006,-5.2575,1.2832,-5.6534,-3.1494,-4.0012,1.091,6.1158,0.25922,10.3064,-1.7349,10.8199,
-14.5937,-0.82679,-5.3512,-4.7013,0.0011198,-3.1453,-0.79109,-3.038,-0.66195,3.5795,2.4131,9.4468,-4.2822,5.1093,
-9.3798,4.5255,-2.1381,-3.9373,6.2676,-0.064028,3.5947,0.036316,2.2703,-0.0097639,1.7859,6.4699,1.2774,-1.4638,
-4.2377,3.0486,1.1237,-2.9777,8.0611,1.1446,2.6557,1.2394,2.375,-0.25014,-1.4543,1.5024,3.3699,3.6852,
-10.0088,-0.26753,-6.4158,-7.3786,2.9979,3.2454,-4.4933,-0.04,-4.7571,2.4162,-8.3567,0.68915,-5.2682,7.0798,
-5.0697,2.6408,-0.246,-5.9717,4.746,3.0504,3.4893,-1.966,-0.13313,8.538,-4.4811,5.4683,-0.61353,-2.0219,
0.29572,1.2771,1.456,-4.4086,15.3075,0.69822,2.0746,-2.089,-2.7767,10.6768,-3.4893,7.7913,-2.2639,-1.6596,
-3.5784,-3.6198,-2.0058,-6.5542,18.2455,0.65633,-4.3164,-3.4099,-7.4304,4.734,-4.2438,3.4674,-8.8766,9.5272,
-2.1584,1.6591,3.1762,-3.5094,16.4278,5.6786,-0.44196,-2.0001,-2.8872,1.7984,-0.85615,6.3929,-5.2109,10.6428,
-5.4031,3.9694,-3.2811,-4.7453,11.1036,2.4456,-1.3795,0.5303,-5.6062,-1.6837,-4.179,7.4553,-2.9699,-0.1189,
-0.49989,3.9724,0.049012,-3.7375,13.5707,-1.3168,6.1748,0.73922,1.2378,-0.37765,1.6151,4.8386,3.716,-4.2093,
4.833,2.2881,1.4921,-3.0311,22.3976,1.655,4.8402,-0.75116,0.68141,2.0554,0.072184,6.9586,-3.7375,4.7201,
0.92759,0.4631,-3.1767,-4.0545,20.8123,2.2786,1.8987,1.4631,-3.9392,-0.23712,-1.1374,4.8539,-9.0573,8.0523,
-2.9847,1.8818,-1.5401,-4.2934,9.4405,-3.6429,5.6409,-0.55268,1.1176,-4.0795,4.7156,-7.0063,-1.7652,-3.5178,
-3.2875,1.7689,-2.4115,-4.0353,3.5718,-0.53184,2.4104,0.44435,2.0149,3.878,3.4688,-3.2114,-0.21306,-7.1632,
-3.8134,-6.2912,-3.4724,-8.3732,-3.6326,-1.2231,-1.3498,-2.7156,-0.27539,7.7429,-3.7294,5.8991,-1.8873,-1.6719,
-4.5487,-5.9135,-4.7101,-6.9062,-6.3064,-1.6318,-5.6069,-3.0348,-3.1512,4.3861,-5.4336,6.0273,-5.1483,9.9978,
-5.722,0.22542,-3.9455,-3.1179,-5.4466,3.2863,-6.7168,0.03981,-2.4802,0.74845,-2.6975,1.8088,-4.3574,6.023,
-0.31727,3.3456,3.7632,2.613,-1.5041,4.7766,1.1578,-2.132,0.80191,2.3905,-1.8125,2.4234,1.9293,-4.2201,
-0.05681,1.4577,-1.5242,4.6254,5.576,-0.089739,-1.0808,-3.6913,-5.7537,2.9705,-5.8011,5.8934,-4.212,-1.3158,
0.18757,0.64729,1.2188,6.5171,7.8925,2.0853,1.1532,0.14562,-0.82872,0.62308,1.0544,6.7451,-2.272,4.7892,
-1.9931,-1.079,5.2428,5.8853,6.2139,1.719,-1.0849,-0.10386,-3.4303,-4.9581,-0.21388,-2.0955,-2.3764,-2.4883,
1.2602,3.0833,6.6157,7.7016,12.3488,-2.4813,0.66715,1.5894,-4.4296,-4.4195,-4.2982,-9.9233,-1.5107,-12.2207,
4.3176,6.5137,6.9416,8.4443,6.0642,-3.5377,7.1351,1.253,1.8618,-5.8415,-3.7993,-11.4975,2.1953,-13.6566,
-1.9672,2.9897,-2.3927,5.7683,-0.32493,-1.1561,0.19925,0.93667,-6.2039,-5.7322,-7.6689,-7.192,-2.034,-1.9912,
-3.0542,4.0153,-1.526,3.2532,-0.0647,-4.2204,2.8382,2.0855,-4.1442,-3.2189,-5.5218,-7.0017,2.1852,-4.0411,
1.9495,7.631,3.386,4.0221,-2.4707,-3.0026,4.5963,1.4787,1.4068,-3.9899,-2.7801,-8.9919,3.9825,-16.3319,
2.0735,6.9318,1.0137,4.9856,-4.4921,4.1669,0.70509,2.5948,-2.293,-3.0276,-2.3724,-5.3189,0.61007,-11.2546,
2.9134,6.5163,2.8811,1.7944,-0.36572,3.435,7.8936,2.4396,-0.70915,-2.3635,0.66249,-7.8923,3.9479,-6.723,
3.4617,8.7762,3.9133,1.4456,9.056,7.3265,9.5894,5.9084,1.5028,-1.981,0.86394,-8.6238,5.8804,-4.6321,
1.0847,2.2238,2.9553,3.5282,2.4869,8.0919,2.9883,3.3845,1.1714,-5.4773,-0.87535,-7.3833,2.3944,-0.73901,
-0.90862,-3.6942,2.778,4.2804,-3.9289,1.3395,-0.083556,-0.67496,0.13682,-5.1487,-1.3048,-1.6376,-3.052,-0.21273,
-1.8182,-1.5441,1.6472,4.5057,4.9837,2.2232,0.40362,0.32964,-1.3174,-0.50166,1.1834,6.6551,-3.351,1.2461,
-2.1913,-0.96928,4.9226,2.7894,7.577,2.09,1.3435,-1.1362,-2.2025,-0.95326,1.1126,6.256,-1.222,-0.27473,
-4.9519,1.9809,0.77089,-0.27051,-0.59039,-1.8918,-2.1116,-1.068,-5.4448,-1.378,-1.3642,6.845,-1.6306,-0.25825,
-6.5829,2.8264,0.72464,-2.1825,-10.6779,-4.6703,-1.0205,-5.3422,0.66695,-0.81339,3.0559,0.16778,0.87783,1.2035,
-8.1164,-0.23547,3.5735,-4.4619,-6.663,-1.9802,-3.8516,-5.5039,4.0012,-2.693,2.3904,-3.6989,1.3069,3.5417,
-9.3166,1.9478,0.22556,-3.4708,-2.6478,2.7179,-5.3077,-0.59435,-2.7469,-3.2543,-2.8142,-4.2003,3.88,-0.28627,
-5.3832,8.5799,8.8891,0.11189,-12.6123,2.0729,8.0262,-3.4508,4.1669,-2.0947,4.1031,-12.6249,10.878,-9.4281,
-4.5778,9.5113,12.2126,2.5153,-9.4449,8.2155,5.1345,-4.208,5.3631,2.3693,6.7494,-7.5291,6.369,-3.0779,
-7.4364,1.4686,1.1153,-1.7332,0.52152,10.3739,-5.0558,-10.4633,-2.4307,-1.3881,-1.1271,-2.0155,1.4073,-0.72379,
-3.8574,2.1036,4.1816,-2.8343,6.0336,6.1358,-0.6553,-14.8969,-0.11548,-5.8848,-2.265,-3.1001,1.0817,-2.3678,
-12.7848,4.8697,2.0028,-4.1102,3.2617,5.2855,-0.61576,-15.4491,-3.4832,-6.4958,-5.0214,-4.842,-4.2856,-0.29733,
-13.2225,7.2286,4.5337,-1.6945,-2.9595,9.5481,8.8212,-9.9429,3.7156,-3.4545,4.1979,-5.2749,7.2997,3.8179,
-9.2961,8.0002,4.5027,-0.8699,-4.4697,8.7338,6.6047,-10.0697,1.3235,-5.4164,4.669,-5.1993,7.1027,-6.7755,
-6.8099,11.8587,9.0534,6.4134,-0.34487,9.1743,7.1725,-10.9115,2.2082,-0.27091,1.0146,0.41504,2.8199,-5.8868,
-13.6324,8.7368,10.4382,7.9565,-14.4242,-2.4636,12.0446,-11.2209,6.8962,-2.1831,-1.4566,-4.4303,6.0249,7.964,
-16.9116,10.382,5.2324,7.7203,-27.6587,-2.5565,5.7785,-6.4501,4.3135,-0.84657,4.1746,-3.4414,8.3152,10.1374,
-14.2099,10.9642,2.7491,2.6776,-11.8992,11.6969,-0.11158,-8.7144,3.8135,2.8194,7.5393,1.3446,3.7187,-3.245,
-15.2855,3.0755,-0.78988,-2.3033,2.9148,19.3103,-4.9256,-10.1193,0.69263,5.0604,-0.62581,3.6745,-4.6991,-0.6402,
-22.0814,-0.48374,-1.2247,-2.6477,-11.3601,9.4748,7.4213,-5.656,-3.2055,6.2028,-2.0343,2.0076,-3.4535,5.1826,
-23.8895,1.233,6.3206,3.5371,-24.7785,-2.4219,14.4478,-10.8602,-2.2903,4.6258,4.5952,3.0924,1.8154,1.7386,
-19.0817,1.1585,6.4233,10.0734,-20.8817,-2.2766,-0.51908,-23.224,-1.1886,9.6509,3.8376,15.4399,-2.1499,10.7933,
-16.4908,0.12538,1.6998,-0.65372,-6.6131,-1.1759,-14.5879,-29.0612,-1.5994,5.2152,-3.1413,7.7653,-8.2872,4.8433,
-10.6808,10.2405,3.5258,-1.0967,7.2812,12.9946,0.38735,-13.2175,-1.0213,3.9382,-3.917,-1.8599,-4.4158,-2.6784,
-7.6296,12.0365,7.6528,10.0561,17.9314,17.8788,3.859,1.6755,-2.4065,0.80962,-5.6104,-4.6406,0.66966,0.85654,
6.9282,10.109,15.1474,14.0321,30.9555,13.6731,-10.1113,-12.525,-2.5031,-6.2288,-5.9966,-8.4595,-2.504,0.56418,
20.6125,21.0721,10.8641,12.7082,43.1981,26.9527,3.5108,-21.7762,-14.8859,-10.6754,-12.8677,-9.8801,-15.8511,1.4947,
32.6319,29.6894,15.7556,16.5252,54.7063,39.4355,-1.2793,-6.3696,-13.2701,-12.2042,-15.2289,-12.4206,-8.8747,-3.1745,
31.6383,35.6208,28.9103,27.1029,65.5239,51.1694,-15.3026,8.1126,1.0239,-3.2773,-6.6024,-5.4088,5.7577,-2.0202,
35.5246,27.2171,21.2708,22.1027,75.6925,35.4453,-15.71,-6.4742,-7.7146,-8.8647,-10.5445,-8.9407,-3.3846,2.9217,
31.7059,19.0766,16.8611,19.0893,85.2509,29.7031,-14.5264,-20.1857,-8.939,-16.2871,-12.5634,-16.8404,-10.1714,2.5055,
22.5724,26.6084,24.0444,24.2102,94.2358,42.0209,-27.7548,-4.8746,2.6844,-5.6686,-4.0966,-10.5271,4.5389,2.3549,
9.408,21.3969,16.0942,15.7682,102.6817,40.5845,-40.1895,9.5179,1.8004,-5.5695,-1.6817,-14.4748,6.3152,0.52638,
2.577,13.8461,14.6462,14.8221,110.6208,25.134,-51.8782,2.6799,-0.71774,-5.2358,-1.0988,-10.7142,1.1156,14.5948,
-11.6776,7.9542,15.4546,18.0301,118.0835,30.6154,-62.8655,-11.5809,0.048225,-1.3062,-2.7201,-0.67136,2.7359,19.6244,
-25.077,-0.4773,10.9119,8.5127,125.0985,24.6811,-73.1935,-16.5499,4.6251,0.45939,-0.3873,1.5381,6.1872,4.3469,
-37.6724,-5.2691,6.4011,4.1453,131.6926,9.1002,-82.9019,-7.8444,2.9011,8.1448,5.4203,7.2306,4.3699,9.7502,
-49.512,-14.8347,11.0785,4.6197,137.8911,-5.5458,-92.0278,-14.3634,4.8964,6.933,7.7464,2.2173,6.2766,10.8522,
-58.5926,-16.114,10.6549,5.0656,143.7176,-15.5771,-100.6062,-25.3117,7.7359,-1.9189,2.2202,-9.7261,8.5514,4.1758,
-57.0055,-8.3985,1.8202,6.2077,149.1945,-2.5912,-108.6698,-18.4906,5.8257,-4.2141,0.64046,-10.5891,9.9662,13.084,
-49.0054,-11.5102,-0.93983,-0.67244,154.3429,5.0363,-112.152,-15.6939,8.1275,-5.1663,8.0741,-7.3024,10.5738,14.4679,
-58.1164,-14.1936,-3.776,-4.0065,159.1823,12.9289,-91.3229,-18.1267,4.2654,4.3027,7.5896,6.6336,6.083,11.6716,
-68.7294,-13.5832,-4.7545,-0.1505,163.7314,10.9481,-88.6153,-20.1722,-1.052,9.106,1.5909,13.7071,4.5129,13.6231,
-63.5211,-12.527,-0.85401,3.4737,168.0075,1.3733,-89.8061,-16.7929,-0.26575,1.57,1.7362,2.5206,6.893,12.5645,
-56.8175,-4.5445,1.1259,1.3371,172.027,5.1473,-76.2228,-7.1082,6.0167,0.51146,8.3809,-8.7179,14.6746,15.667,
-67.5085,-9.3335,2.7456,-1.3942,175.8054,0.2592,-68.9981,-18.0097,7.3429,-4.5805,6.1908,-17.1124,14.9994,10.1477,
-62.8553,-15.281,2.3399,5.1969,179.3571,5.3049,-71.8479,-21.5086,8.5896,1.7199,5.5784,-4.2755,10.966,12.6719,
-59.325,-22.8003,-8.6468,-5.9612,182.6957,10.0483,-66.3319,-12.7465,8.7971,7.1603,4.5208,0.078361,10.067,12.6349,
-57.9349,-18.7809,-3.0665,-9.2187,185.8339,4.8658,-57.2906,-6.9203,7.0642,14.2023,4.0083,-1.6133,11.6324,8.2612,
-61.6894,-14.7616,-0.47242,0.011542,188.7839,3.1276,-67.9531,-11.3256,-1.5543,16.7246,-1.5348,7.1601,5.1494,7.7655,
-64.9779,-20.384,-5.0236,-4.0867,191.5569,8.4834,-64.9608,-15.7077,-0.25602,9.2134,-2.1658,6.9717,5.0817,9.9509,
-64.6946,-19.8841,-7.8554,-10.8316,194.1634,10.1437,-47.3246,-13.078,2.8926,8.4194,2.0617,1.9739,9.3563,15.3796,
-67.5616,-21.5829,-9.7945,-14.5198,196.6136,0.37632,-45.4492,-16.6317,5.6113,6.9506,4.8303,-2.965,11.6872,9.6364,
-70.0154,-24.8677,-8.0015,-16.7821,198.9168,-4.226,-43.9273,-17.8029,8.8901,1.9538,6.2277,-4.4744,14.1194,6.889,
-66.2967,-23.8573,-12.3419,-13.8468,201.0818,-2.526,-40.3276,-10.468,0.16173,5.2113,3.9256,7.8454,6.5236,14.6706,
