"AF3","AF4","F3","F4","F7","F8","FC5","FC6","O1","O2","P7","P8","T7","T8",
-11.5692,-7.7128,13.0154,-7.7128,76.1643,9.159,38.0819,-0.48193,-1.4463,-5.3026,0.48193,-10.1229,8.6771,5.3026,
-12.5625,-6.5273,12.9572,-6.0449,76.1735,11.7427,35.5558,-0.69421,-1.1183,-5.7076,0.69421,-9.7567,7.9153,3.779,
-14.7008,-6.1352,12.6621,-4.7179,75.46,13.9307,31.4947,-1.1345,-0.56926,-7.2934,0.65256,-11.0995,5.5122,0.17823,
-7.3113,-2.6341,12.6253,-1.7838,83.2244,21.5305,29.846,1.1027,-2.2223,-7.0967,-1.0738,-8.2644,3.4942,1.8548,
-2.2931,-0.78859,11.627,-0.47166,89.5589,26.7464,26.8497,1.7597,-5.7042,-7.876,-4.625,-7.0454,0.63323,1.9842,
3.1472,1.1869,10.9294,1.0029,95.2726,32.3725,24.2749,3.1004,-8.2544,-8.8497,-7.2396,-5.6583,-2.2968,2.3476,
5.6097,0.39257,7.6223,-0.26234,97.9926,35.0096,19.2032,1.2269,-13.3026,-11.9339,-12.8305,-7.0063,-7.7029,0.037313,
9.3702,1.0921,5.4775,-0.005863,101.9948,38.9344,15.8816,0.91209,-16.602,-13.8692,-16.1587,-6.8271,-11.3383,-0.68806,
12.4236,1.7497,3.9438,0.23568,106.2392,42.1422,12.7593,0.61663,-20.1854,-15.2064,-19.7683,-6.6582,-14.2732,-1.3699,
15.5346,2.1267,2.2614,0.22154,109.5058,45.3982,9.5836,0.57963,-23.3126,-17.1861,-22.9205,-6.7407,-17.7551,-2.2516,
18.6999,2.722,0.92042,0.44922,112.8178,48.6999,6.8395,0.30389,-26.0112,-18.3241,-26.125,-6.5772,-20.7871,-2.8398,
21.6757,3.282,-0.82204,0.66323,115.9307,51.8034,4.2599,0.044684,-28.5483,-19.8762,-28.6549,-6.424,-23.6377,-3.3923,
23.9901,3.808,-1.978,0.8644,119.3387,54.2388,1.8347,-0.19896,-31.4147,-20.8528,-31.5153,-6.2795,-25.8349,-3.9122,
26.4071,4.0615,-3.3051,0.81254,121.8194,56.7691,-0.68549,-0.18703,-33.8682,-22.4941,-33.9627,-6.3847,-28.6231,-4.6413,
29.1615,5.264,-4.5531,0.76379,125.5974,60.1118,-2.5726,-0.1758,-36.6568,-22.5903,-37.7095,-6.4835,-31.244,-4.8448,
27.6525,8.5634,-0.18277,0.95916,103.9616,57.2283,-1.6951,-0.40645,-26.9858,-15.2096,-31.3498,-4.4075,-23.3441,-4.7953,
25.9934,10.9421,3.6846,0.90161,83.6239,53.7946,-1.1114,-0.38206,-18.1358,-8.5124,-25.6125,-2.6968,-15.6765,-4.5076,
22.7468,9.5624,2.7408,0.12438,68.2426,43.5772,2.5709,0.36399,-9.5756,-2.4578,-13.2292,-10.9709,-6.3,-10.2624,
18.7306,8.2656,5.7096,-5.4265,59.0866,36.865,7.96,5.8855,-2.4934,-4.9617,-3.0357,-17.7847,-1.8248,-13.7443,
13.9914,11.3851,5.1261,-9.6806,41.4414,29.1095,9.6516,6.2558,5.128,-0.084682,5.1006,-8.7634,5.2745,-4.9659,
5.6805,9.9791,0.72118,-18.0174,24.8549,17.481,6.9038,2.7469,7.9538,0.16182,8.41,-4.1402,7.6096,-1.0525,
-0.4451,1.1854,-4.625,-21.2749,13.4814,6.791,3.1149,-2.7203,-3.1285,5.4545,5.977,4.785,0.40434,7.2056,
-3.0699,-0.57298,-4.5884,-19.2755,3.7545,2.7681,1.7227,-2.3161,-2.6998,3.922,5.3774,3.2926,0.62105,6.0499,
-5.2959,-1.9849,-4.3131,-17.1551,-4.6655,-1.2544,1.1374,-2.1772,-1.5739,3.2047,5.0548,2.1308,1.5477,5.205,
-6.9065,-3.3118,-3.5722,-14.6793,-12.5805,-4.0714,0.587,-1.0824,-0.51539,2.5303,5.2332,1.5212,2.4189,4.8924,
-8.1789,-3.836,-2.6349,-12.1113,-19.2975,-6.4782,0.7932,-0.29458,0.72082,2.6194,5.6425,1.189,3.4791,4.3584,
-9.6166,-4.5699,-1.9947,-9.9386,-26.3346,-8.9818,0.26345,0.68719,1.6417,1.9806,5.7862,0.63547,4.2344,4.0967,
-10.2447,-4.5369,-0.66994,-7.1734,-31.7441,-11.0947,0.97031,1.851,3.7121,2.5844,6.6441,0.83808,6.1493,4.574,
-9.871,-4.0237,1.5399,-3.609,-36.347,-11.6339,2.1174,4.3915,6.1409,3.6346,8.4146,1.9935,8.4319,5.9868,
-10.484,-4.0233,2.6523,-1.2233,-41.156,-13.105,2.7137,5.3333,7.4597,4.1399,9.115,2.1149,9.6132,5.8685,
-11.542,-4.505,2.7344,1.5014,-47.1226,-15.9339,1.8278,5.7364,9.1815,3.1684,8.3269,1.7468,10.7234,4.7933,
-10.6085,-4.4757,2.8113,1.6523,-44.5362,-15.2188,1.9591,5.1513,8.8716,3.7012,7.5863,2.8473,9.839,5.2291,
-9.4898,-4.2069,3.1248,1.5529,-42.3462,-14.7878,1.8413,4.3601,7.8571,3.9613,6.167,4.1225,8.7665,5.397,
-8.1975,-4.1955,3.6602,1.7007,-40.5283,-14.6235,1.9722,3.8575,7.6267,4.9289,5.556,5.0804,7.5176,5.7966,
-7.4647,-3.7028,4.1639,2.322,-38.3376,-13.987,1.6129,3.867,6.9281,5.3561,4.4998,6.4628,6.8256,5.6897,
-6.7756,-4.2037,3.6729,1.9415,-36.7604,-13.8709,1.275,2.9119,6.2712,5.2759,3.5067,6.7977,5.6929,5.5895,
-7.0922,-4.6746,3.2113,1.1019,-35.7599,-14.2437,0.47533,1.5321,4.6899,4.7181,1.6093,7.113,4.1463,5.013,
-6.9076,-5.5995,2.7777,0.31287,-35.302,-15.0768,-0.27655,0.23486,3.6856,4.676,0.30742,6.9272,2.2103,4.4712,
-7.2163,-6.4686,2.3698,0.052906,-34.3889,-15.3773,-1.465,-0.50236,2.2594,4.1543,-1.3985,7.2347,0.87261,3.4798,
-7.0245,-6.8036,1.505,-0.6734,-33.5306,-15.6597,-2.0998,-1.6773,1.4007,3.6643,-2.5196,7.0418,-0.38481,3.0298,
-6.3619,-6.1542,2.1373,-0.3918,-32.2419,-14.9613,-1.7331,-1.8178,1.0755,4.1671,-3.0916,8.3063,-0.60292,3.5712,
-5.4982,-6.2668,2.4915,-0.36829,-30.7894,-15.0275,-1.6291,-2.1907,1.0109,4.8814,-3.388,8.7722,-1.5306,3.8388,
-5.1681,-5.8911,2.8237,-0.34642,-29.4242,-14.608,-2.0135,-2.0595,0.46811,5.0707,-4.1488,9.6919,-1.9209,3.6087,
-4.3761,-6.0195,2.6543,0.15676,-28.1406,-14.2135,-1.8927,-2.4179,0.44002,5.2484,-4.3818,10.0747,-2.2876,3.8741,
-3.8725,-5.4174,3.2184,0.38832,-26.6932,-13.6016,-1.5377,-2.5138,0.17266,5.6568,-4.8418,11.1575,-2.3913,4.3651,
-3.158,-5.5745,3.507,0.36479,-26.0557,-13.7496,-1.4457,-2.8451,0.16252,6.2815,-5.0335,11.4517,-3.2124,4.5849,
-2.9688,-5.2403,3.7787,0.82506,-24.9745,-13.4068,-1.8411,-2.6742,-0.32939,6.3863,-5.696,12.2106,-3.5018,4.3095,
-2.3085,-5.408,3.5518,0.77533,-23.9582,-13.0846,-1.7309,-2.9959,-0.30986,6.4853,-5.8364,12.4421,-3.7739,4.5331,
-2.4109,-5.324,3.5801,0.48784,-23.2436,-13.0224,-1.8675,-3.539,-1.0142,6.3371,-6.6911,12.9008,-4.7523,4.5021,
-2.5075,-6.2097,3.1241,-0.26456,-23.536,-13.928,-2.4786,-4.5317,-1.6764,6.1981,-7.4947,12.368,-5.6722,3.9912,
-3.0799,-7.0424,1.7318,-0.97158,-26.2212,-17.1902,-3.0528,-5.9471,-2.2988,6.5491,-11.1424,11.3849,-7.501,3.0289,
-5.5465,-5.8967,-1.5058,-3.5646,-38.3869,-17.8458,-3.5932,-3.9032,4.3464,8.8075,-2.5203,7.0862,-2.9538,7.9081,
-9.5522,-6.0251,-6.2359,-7.2069,-50.1837,-19.6673,-5.3056,-3.1869,9.3885,9.7251,3.8977,2.3229,0.59807,10.8083,
-8.015,-5.1814,-7.3078,-11.595,-50.9083,-17.0412,-2.0949,-1.5496,9.3074,6.7317,6.5565,-1.6731,2.9725,6.3037,
-5.3649,-3.1833,-7.1103,-14.0328,-48.5767,-13.3672,3.0924,1.1944,10.9181,5.6044,10.7424,-3.2599,6.8915,3.2739,
-4.5606,-3.9562,-8.13,-13.6727,-45.6621,-12.0832,1.4606,0.64083,8.3348,4.7862,8.6516,-1.6181,4.5499,3.5599,
-3.3231,-3.2369,-8.1241,-12.3704,-41.9585,-9.912,0.89105,0.60238,6.8704,4.981,7.6506,0.88916,3.3125,4.7921,
-1.6775,-3.0431,-7.6366,-11.1463,-38.9591,-7.8715,0.3552,0.56624,5.9762,5.1641,6.7092,3.2459,2.1499,5.9508,
-1.0949,-2.8605,-8.1428,-10.4775,-36.1392,-6.9172,-0.62998,0.050331,4.1714,4.8542,4.8608,4.9794,1.0566,7.0396,
-0.54705,-3.653,-9.1002,-10.331,-33.971,-6.02,-2.0387,-0.43485,1.9927,4.0808,3.1227,6.1266,-0.93522,7.0993,
-0.032295,-3.4338,-9.5186,-9.7111,-31.4508,-4.695,-2.8802,-0.89069,0.42733,3.836,1.9715,7.6872,-2.3249,7.6377,
0.69277,-3.9504,-9.6701,-9.3692,-29.8045,-3.6897,-3.9125,-1.5604,-0.80337,3.3651,0.64811,8.9135,-3.8724,7.9026,
1.3746,-3.4725,-9.8128,-8.5661,-27.2934,-2.7454,-4.4006,-1.7077,-1.9605,3.4041,-0.59607,10.5483,-4.3634,9.1156,
2.256,-3.746,-10.1884,-8.0521,-25.1734,-1.6164,-5.1009,-1.6053,-3.2886,3.1999,-1.5242,11.8436,-5.5474,9.5326,
3.0845,-3.0393,-10.059,-7.0871,-22.6991,-0.073575,-5.2768,-1.5089,-4.0556,3.0079,-1.9151,13.5431,-6.1789,10.4069,
3.8637,-3.3389,-9.9378,-6.6618,-21.3372,0.89517,-5.9245,-1.9003,-4.7766,3.3093,-2.7641,14.6587,-7.2544,10.7463,
4.1141,-3.6207,-9.8237,-6.7443,-19.0928,0.84123,-6.5331,-2.2685,-5.9361,3.5929,-3.0804,16.1891,-7.3013,11.548,
5.5544,1.1762,-4.6546,-2.2418,-32.0473,5.8524,-3.9715,3.8932,-1.0002,12.2954,-0.72595,24.6182,-4.6936,24.1115,
2.8108,1.1054,-4.8575,-3.0719,-44.2244,5.5011,-6.1441,5.5875,-1.4223,15.8963,-2.6108,28.4435,-6.8224,31.8237,
0.23182,2.9671,-2.1557,0.48667,-55.671,10.4734,-6.7395,6.6983,0.59099,11.0859,-0.044272,19.9878,-0.62867,21.7193,
-2.1924,5.1994,0.38404,3.8321,-66.4307,15.1479,-6.8168,7.7429,2.002,6.5646,2.3692,12.0403,5.6758,11.7393,
0.59065,1.754,-2.2906,-0.0132,-76.5449,10.6236,-9.5413,8.0012,0.67661,10.268,-0.42451,19.2716,-0.20837,19.953,
5.3757,0.20269,-2.6348,-1.4584,-70.8676,8.5401,-9.451,10.8958,1.6001,16.4006,-0.8812,27.756,-3.5701,29.3609,
1.4377,-0.53283,-3.2001,-0.1661,-71.6772,4.8942,-7.1967,6.6267,4.1552,16.6214,1.3408,26.814,-0.22286,21.5737,
-0.094558,0.4637,-1.5621,3.2186,-70.2686,4.1189,-2.9083,4.3007,8.7264,18.9988,6.0809,27.6156,5.0934,16.4226,
-2.0173,-2.9388,0.46009,0.61508,-62.6785,2.9072,-4.1803,3.0785,5.7924,15.9305,3.3057,19.2095,1.895,16.8833,
-3.5835,-6.3779,2.1197,-2.0734,-55.3022,2.0099,-6.0986,2.1709,2.3119,13.2874,0.93816,11.067,-1.8336,17.5575,
-2.6454,-2.3796,1.2694,1.1847,-42.1019,4.0587,-4.0453,2.2818,5.3064,8.393,4.9795,9.6803,2.8559,14.3352,
-1.7637,0.89668,0.47033,4.2471,-29.6938,5.0204,-2.1153,1.904,7.6396,3.3097,8.2961,7.4123,6.3,11.3059,
-3.5861,0.36049,2.3703,4.4742,-29.8404,5.6831,-3.9166,0.8254,6.2169,12.2702,5.8701,15.1623,3.5118,16.4121,
-4.5758,0.097895,4.3972,5.4106,-29.255,6.5474,-5.3688,-0.42941,4.6386,20.934,3.8307,22.2067,0.64958,20.971,
-15.6296,-5.9338,1.964,-0.45739,-37.8638,-2.7638,-3.8416,-2.5726,7.0116,5.9394,5.2879,7.6177,2.78,6.9381,
-18.5483,-2.2033,-0.082011,-0.42995,-34.6279,-2.5979,-4.5755,1.9201,5.627,-0.20157,5.453,-5.8548,8.3978,5.076,
-18.1583,0.58047,-1.7643,-0.16319,-30.863,-2.683,-4.5419,3.0102,2.1559,0.53388,2.9566,-8.637,9.5811,4.0481,
-14.6584,-0.90039,2.6801,6.1133,-27.083,-0.11168,-6.1973,1.3835,1.0625,1.9479,4.2253,-1.3696,5.1497,1.3953,
-5.5844,3.4917,8.786,13.9415,-11.4788,10.5001,-6.3077,5.1567,1.9628,5.2052,6.3821,8.3533,5.3228,13.3624,
-3.8031,2.3184,5.3663,5.8742,-1.6308,6.4956,-4.4829,-1.4192,2.327,3.4467,2.1428,14.601,4.0391,16.4171,
-6.4672,5.5535,2.634,2.6294,2.3232,6.5881,-4.6961,0.59389,1.7052,10.9529,2.014,25.7758,-1.0237,13.0217,
-12.3459,1.3641,0.54801,-0.90257,-8.9032,8.6031,-6.8247,2.9686,6.4238,12.2241,5.7498,15.5528,1.9305,3.0816,
-19.0767,-6.1898,-3.5825,-10.7306,-17.769,6.8819,-9.0666,-1.789,11.0998,3.0548,8.5381,0.51968,7.84,-3.1286,
-18.896,-0.99767,-4.8133,-9.1224,-6.5797,9.8434,-7.0763,0.72845,6.5775,2.3895,10.4359,2.2962,4.9594,5.2538,
-9.5678,2.4364,-0.18642,-2.3088,-1.8464,7.8063,-3.277,-0.27936,1.3623,2.7279,7.8818,1.1943,-1.1229,1.5643,
1.3702,6.3876,5.3684,3.3733,2.8437,8.5432,-3.8038,0.9427,0.075298,-2.9794,4.7573,-9.724,-0.33266,-7.93,
-0.39881,5.2814,4.3234,0.51986,0.50392,9.2359,-5.2628,2.0914,5.1325,-5.9337,4.2309,-12.2736,3.3032,-7.2128,
-7.3648,-3.4716,-3.8898,-9.3937,-6.9981,5.0664,-3.7417,0.76065,10.8501,3.8219,6.1462,2.5628,3.346,3.5839,
-10.5381,0.35235,-11.1284,-9.5528,-3.445,6.9313,-5.2047,3.3663,8.994,12.5109,7.4649,16.2678,3.8683,9.3946,
-11.1111,-0.39215,-9.2554,-8.2567,0.85908,4.8282,-5.6153,-0.45107,6.2847,4.7703,5.8117,3.9636,6.2873,-4.9078,
-4.6598,-2.7787,-4.3618,-8.2432,10.9304,5.0209,-3.3502,1.0223,4.9438,1.5916,5.463,-3.987,3.9819,-7.9874,
1.1636,1.4856,-0.0024851,-7.0255,21.1211,8.8168,1.4303,4.0942,3.4421,5.5937,4.4121,-0.61408,2.056,3.8198,
1.3345,2.6015,-0.24353,-3.4707,22.0232,14.3135,1.1038,1.1972,1.5486,3.5711,4.3886,-5.1568,5.0659,5.76,
1.4954,5.0965,-5.2901,2.7631,20.4604,24.7829,-4.9884,4.7408,3.1429,6.9722,5.3301,3.1064,6.4492,2.281,
0.20041,2.1392,-0.39345,1.8739,16.5817,21.6087,-5.8944,2.7691,7.0512,7.2768,2.3592,9.4275,4.8569,1.9031,
0.42981,-1.1222,4.6918,2.4848,19.2022,15.251,-5.2993,-0.048122,3.4951,4.1891,-1.3978,1.39,2.3963,5.4044,
2.8144,-2.019,0.55371,6.1924,27.6913,13.3718,-3.5354,-0.5274,-2.017,2.4913,-1.3137,-6.4059,-0.1578,-4.0787,
4.0913,-0.93352,1.0024,5.8208,30.3681,12.5695,-3.8052,-0.49575,-1.896,0.89598,-1.2349,-7.9498,-0.63027,-5.2802,
4.8099,-0.87774,1.4244,4.9894,32.4022,11.3332,-4.059,-0.94817,-2.7463,-0.60427,-2.1253,-9.8831,-1.0746,-6.4095,
5.9678,0.13902,1.8211,4.6903,34.7966,10.6534,-4.2976,-0.89105,-3.0637,-2.014,-1.9976,-10.7362,-1.0099,-6.989,
6.3327,0.85404,1.9528,4.1679,36.3247,9.7732,-4.2807,-1.0786,-3.6028,-3.58,-2.1187,-12.2612,-1.1903,-7.7745,
6.4346,0.80234,1.3537,2.9535,37.5192,8.2225,-5.4702,-1.9782,-4.351,-5.7758,-2.9559,-14.418,-2.5651,-9.7186,
6.2897,0.031527,1.0313,1.5712,38.4013,6.5241,-6.347,-3.0645,-5.7769,-7.5986,-4.4655,-16.6862,-3.6163,-11.3049,
6.3943,0.029176,0.4875,-0.4517,39.4712,6.1322,-7.8944,-4.3269,-6.8765,-10.0352,-5.6439,-18.5775,-4.846,-12.5548,
7.2159,-1.1774,-0.74704,2.227,30.1135,-2.1895,-8.6256,-2.3801,-2.8485,-3.4071,-3.1356,-4.2065,-2.8676,-10.5962,
6.5418,-6.1682,-0.46102,0.40634,42.4067,-6.6372,-2.0827,-4.4067,-3.8827,-1.0333,-3.1887,1.1078,-1.9724,-6.8272,
5.4261,1.1915,-0.67456,0.62269,53.9623,-1.1779,5.0319,-3.9011,-0.51646,2.162,0.61784,-1.1281,3.2074,-1.3561,
-0.92474,0.87929,-4.7312,-6.4043,64.8246,-10.989,7.8637,-9.2104,4.094,-4.9574,4.6784,-9.9782,4.702,-8.7463,
3.7103,0.58534,-3.2423,-4.815,75.0351,-15.8735,11.0071,-6.9708,3.6072,-7.3113,7.049,-11.067,3.2148,-11.8372,
8.5489,-3.5471,1.0496,-3.3208,84.633,-22.3924,11.5519,-9.2036,1.2216,-10.9699,2.5287,-21.7311,3.2629,-19.0807,
8.2769,-5.0215,1.7095,-4.3268,93.655,-26.5925,11.5817,-11.303,1.8717,-12.4814,3.0999,-26.4528,4.2724,-21.5513,
4.888,-2.3103,-1.7673,-5.9952,102.1357,-20.1764,11.8509,-10.1426,2.2411,-11.2503,7.2524,-19.0808,3.5339,-13.0271,
0.015198,-7.7151,-1.9024,-9.7333,100.7076,-19.6894,9.9348,-10.2576,4.7579,-13.2266,8.5043,-18.1772,6.937,-15.8611,
-3.8421,-6.7703,-2.2702,-6.7392,80.5651,-18.0257,3.5537,-8.1959,4.4725,-10.9868,8.4759,-20.9429,9.8953,-21.6584,
-1.4424,-1.7848,-1.893,-6.0936,76.5748,-11.8829,6.9559,-8.909,9.2658,-10.0866,14.4753,-30.5326,14.8452,-21.0818,
1.5367,-5.5336,-0.33318,-8.1381,74.8729,-15.0263,9.913,-6.4463,11.12,-12.8558,12.1606,-35.4493,12.9906,-19.8169,
-1.2069,-6.4071,-1.5183,-3.5523,64.3547,-15.8118,4.7387,-1.48,2.0169,-7.9869,3.4769,-19.5841,4.2572,-15.9765,
-1.8576,-4.3352,-1.6684,-5.0266,52.5395,-9.3192,1.8035,-6.9346,-0.75547,-1.9643,2.0633,-6.1167,0.86849,-10.4384,
-1.7459,-4.5573,-6.3887,-7.6173,46.0129,-4.9039,-1.6794,-10.3751,0.25396,2.4921,1.9397,0.99895,0.81615,-3.5454,
-5.7387,-11.2735,-12.0312,-11.2576,37.2263,-12.5636,-5.1938,-8.0656,0.96185,-0.79069,0.13586,-2.1942,1.0084,-12.2509,
-2.5023,-10.1151,-8.8992,-13.9566,34.5108,-17.1125,-0.061944,-7.0997,5.2425,-2.1895,3.5022,-15.5599,6.2501,-18.2643,
0.78151,0.85586,-5.2315,-10.4679,39.9117,-10.5419,3.075,-7.3969,2.759,-0.85307,4.979,-24.9904,9.0088,-17.4097,
0.011717,-0.88272,0.62598,-6.7063,38.7223,-10.1503,6.024,-7.1936,5.2445,-3.453,3.9574,-26.1421,10.6374,-21.4263,
0.010555,-3.7218,-0.85784,-11.1246,36.399,-9.0594,6.1445,-2.4236,6.3761,-0.83568,2.7561,-11.5586,8.5529,-14.8385,
-1.6771,-4.2216,-9.2423,-22.2675,28.6712,-11.1671,0.71439,-8.7859,0.93211,-0.54434,0.90326,-1.9468,2.9783,-14.6714,
-0.61235,-5.4144,-5.3131,-26.2337,26.9512,-12.907,-0.77451,-12.5973,0.39402,-4.8502,2.7775,-4.2404,3.2817,-12.8265,
-1.299,-3.8847,-4.2714,-27.3112,31.3596,-8.5176,-3.3796,-3.8877,-1.7988,-4.8002,1.4055,-4.2269,0.91522,-0.24681,
-2.6671,-4.6157,-6.4254,-27.6007,26.1038,-11.3808,-1.7303,-3.6543,0.7195,-4.9943,0.83905,-6.8656,1.3425,-10.3551,
4.7238,0.9639,0.70899,-16.3035,28.8759,-5.3953,3.6761,-2.4711,7.9072,-5.1766,8.9839,-9.3462,7.5289,-19.3748,
7.3327,2.3521,2.1125,-10.9869,28.1075,-1.6974,2.4915,-2.3226,5.0224,-10.1689,8.4446,-18.4261,6.595,-11.4636,
5.2055,0.52374,2.7086,-12.015,20.8774,-5.6929,3.5468,-0.49651,3.0338,-5.4609,4.8044,-14.6695,8.3685,-10.5348,
1.0368,-1.9178,-0.34595,-9.8478,17.2146,-2.4592,-1.0043,4.8359,-1.0046,1.6152,0.17786,0.3107,5.9382,-18.5798,
6.5182,-2.0437,-0.56616,-9.0157,15.9408,3.7143,-0.70308,-0.51545,-2.6316,-2.0967,-2.4839,7.6436,0.038256,-13.3672,
6.6092,-0.95699,-1.0144,-6.5468,14.5022,4.4556,-1.1431,-0.96668,-2.9558,-1.4892,-2.817,7.1848,-0.4462,-12.0835,
6.2127,-0.41763,-1.4354,-4.7078,13.1501,5.1521,-1.5564,-1.3906,-2.7785,-1.3999,-3.1299,6.7537,-1.3833,-10.8761,
6.8043,1.0537,-1.3493,-2.0149,12.3611,6.7716,-1.463,-1.3072,-2.6118,-0.35153,-2.9422,6.8308,-1.3003,-9.2597,
6.8777,2.4365,-1.2686,0.51586,12.1011,7.8109,-1.8574,-1.229,-1.9729,0.15126,-2.7659,6.4208,-1.7044,-7.2581,
7.4289,3.7366,-1.1925,2.8953,11.3751,8.7885,-1.746,-1.1552,-1.8545,1.1065,-2.5999,6.5175,-1.6022,-5.8583,
7.2246,4.2353,-1.3619,4.4088,10.4516,9.4665,-1.8822,-1.3269,-1.5023,1.2811,-2.6849,6.3674,-2.2289,-4.7839,
7.996,5.6684,-1.5211,7.2777,9.5835,11.0677,-2.4921,-1.9702,-1.1712,2.4095,-2.7647,6.2263,-3.3005,-3.2915,
14.0241,5.5692,2.1856,6.6001,4.4292,24.1419,-3.5479,-0.64713,-2.7881,-8.0994,-1.876,-0.17283,0.51295,2.4496,
13.4237,2.1021,-2.5253,3.0706,-7.1647,33.5397,-6.9505,7.3459,-4.79,-5.4443,-0.55811,1.5248,0.2412,2.0616,
7.0749,-1.1573,-7.9172,3.1276,-20.8348,36.1068,-15.4513,7.1459,-5.7077,4.7646,-0.28343,15.5333,-6.281,3.143,
10.7477,2.5271,-0.93467,8.0011,-32.4797,42.3761,-16.6933,6.4762,-2.7141,8.576,-0.50785,23.6398,-4.2169,16.2108,
6.7286,2.3757,-1.8427,5.1112,-21.3716,37.9055,-16.6558,7.0517,-7.8537,0.34893,-9.1538,10.1701,-4.928,10.4177,
-0.66519,-2.3464,-2.9372,3.117,-11.1715,28.6416,-11.5589,5.4235,-3.7673,-4.2515,-8.8458,-1.7685,-2.9453,-2.0177,
-0.38431,-0.51836,-1.5557,9.9199,-7.8501,33.9129,-15.9271,5.821,-4.7461,0.10093,-7.1097,8.7019,-3.9734,9.4315,
4.2187,2.646,0.22467,12.9399,-5.6916,39.3497,-17.6228,7.1592,-6.1483,5.1563,-7.8882,22.2798,-5.4225,16.8196,
4.2063,-0.16409,1.4163,9.5122,3.5672,35.3013,-12.9502,6.0065,-0.23648,8.4621,-5.246,26.125,-4.374,4.482,
3.7132,0.086954,-0.35572,10.147,9.8614,32.4606,-13.3778,6.8512,-0.94496,6.7498,-3.7262,14.1934,-5.3166,3.008,
8.7926,1.5275,3.522,12.4302,7.8234,30.9949,-10.6474,4.5119,-2.3345,-3.2966,-5.9127,-0.75824,-5.48,4.7557,
10.1932,1.9183,5.2389,11.2025,14.1029,27.207,-8.5623,5.2055,-5.5684,-5.5089,-6.0399,-8.7872,-4.1869,-2.2781,
5.4843,0.11596,0.3448,9.325,14.9435,20.0309,-11.182,4.1698,-5.9577,-1.0811,-5.4365,-7.5366,-2.7304,-2.8647,
11.181,3.7246,3.9398,16.2376,16.2163,22.4447,-9.7875,2.7146,-1.0207,6.4558,-4.8691,5.6898,-4.2536,5.743,
10.028,5.9111,2.7393,16.7093,20.5457,26.8824,-10.1648,3.5158,-3.3698,10.4066,-4.0953,11.1332,-6.8911,0.096046,
3.1593,5.5564,1.1287,7.994,24.1337,20.4487,-6.1805,1.3767,-1.2395,9.7822,0.97069,3.7163,0.27128,-5.2124,
4.8982,7.6334,2.025,8.4785,36.7857,21.6322,-4.8456,2.2582,-0.68292,13.0519,0.43074,13.1346,-0.70909,9.2004,
3.3992,3.0778,2.6267,14.9594,41.9301,22.0217,-6.2418,2.8458,-0.88314,17.8126,-4.1746,26.085,-7.1743,15.0356,
-2.3483,-1.2042,2.2281,10.9283,33.3883,9.8541,-6.1087,2.916,1.339,13.128,-0.79111,19.9402,-3.1284,0.033448,
-6.546,3.6885,-5.1362,1.1138,41.99,10.7089,-8.6345,3.7052,-0.6693,-1.6388,4.0773,4.6438,1.3979,-3.4635,
-9.2865,0.81587,-7.4793,-6.4246,53.5706,19.4666,-6.9109,0.83153,1.0579,-9.4944,6.0016,-5.3965,2.0371,1.8058,
-9.9346,-1.8842,-2.9332,-5.7981,64.4564,21.914,-7.2196,1.5045,0.27148,-2.8992,5.4005,2.3991,0.22768,0.49258,
-8.8561,4.4958,0.61722,3.7088,71.9174,19.6349,-3.8939,4.7892,0.73759,3.0598,4.5946,8.0402,0.69595,-2.9114,
-10.4941,3.9849,2.7491,3.727,69.2894,17.7336,-0.045095,3.7782,4.3085,2.635,2.6319,3.9421,0.413,2.3247,
-13.9621,4.9509,-0.54909,-3.4863,69.2296,20.7672,-4.1395,8.1311,3.3269,7.5384,4.6429,15.5159,-0.81685,16.2852,
-18.1858,-1.8539,-7.0239,-10.2667,72.5479,14.4597,-5.0962,3.0641,0.95788,4.4347,6.0518,16.7539,-1.491,6.0288,
-13.238,-2.7068,-4.1921,-1.9382,80.2459,13.11,-0.45234,0.95187,4.2746,1.7583,2.7964,6.5899,0.044981,-3.4922,
-7.8647,2.999,0.63897,5.1678,62.1745,14.0104,-1.6303,4.5099,4.2593,2.8579,-1.9514,2.5788,-0.19891,-0.63131,
-6.4285,1.8552,5.9033,5.3401,44.344,11.2416,-2.0144,2.7935,0.1474,1.7225,-2.7982,1.4602,0.29495,-2.0397,
-6.2837,-0.42525,5.7901,5.7426,41.5636,13.7006,-3.5807,4.7951,-3.9588,-0.54999,-2.8712,2.096,0.03629,-4.0865,
-5.1836,-3.5334,2.3089,-2.074,53.1698,11.673,-1.6789,5.2301,1.3402,-4.1326,0.4343,1.2466,2.6854,-1.19,
-4.6316,-5.4901,-0.48024,-7.4927,49.3767,7.8396,-1.8187,-0.14496,1.0188,-3.6433,2.0955,3.3414,2.2833,7.3176,
-3.8715,1.5875,0.030281,1.6337,34.8447,14.5998,-1.7098,3.238,-1.4527,-0.53283,0.52371,-0.23372,3.5924,11.6985,
-3.8804,3.1797,2.6798,5.1509,24.3181,15.8932,-0.40214,2.3206,1.7677,-7.9724,-2.159,-14.3197,6.0282,-3.1034,
-2.2014,2.5065,6.3754,7.2519,31.0538,13.4934,0.58586,2.1813,0.21541,-6.0483,-1.5476,-13.581,4.7021,-11.7143,
-6.8895,-3.428,4.5466,1.9966,35.4575,9.7917,-1.377,-1.3236,-3.1715,-2.3105,-4.8287,-13.2481,2.4923,-9.5652,
-8.8865,-2.7406,-1.0286,-1.4974,47.4301,15.471,-0.33077,0.68382,0.39301,1.2024,-4.0573,-2.3301,3.7888,2.5777,
-1.6044,2.7265,-0.96689,2.9307,58.6842,25.148,2.0997,5.9454,0.36943,8.3611,1.4888,11.9097,2.1152,14.9565,
2.589,0.39395,4.1526,2.5141,69.2632,25.3261,2.2149,-0.919,-3.7499,4.2438,-2.2157,11.3156,-4.5194,15.2646,
2.6746,2.0571,3.6624,4.532,79.2074,32.2422,1.3586,-1.1048,-8.1046,0.37371,-7.6268,9.4314,-7.8637,9.2866,
3.7192,4.585,2.2376,5.9475,88.555,33.4409,6.3386,2.5767,-2.5569,4.9308,-1.6254,15.8556,-2.8124,-1.6342,
7.5934,4.5508,2.3443,2.4572,97.3417,29.7473,7.1631,-1.6753,1.2119,4.394,3.0514,6.4682,-1.9207,2.0788,
8.1019,5.7238,1.2396,6.6483,96.5624,36.1574,-1.9436,-0.61068,-3.1993,2.2019,-0.023952,-0.66861,-3.2515,16.0541,
1.3493,-1.85,2.6115,5.7675,89.3228,32.0602,-3.7547,1.8365,-3.0074,1.5879,-3.8784,0.33584,0.31804,6.7756,
0.78637,-2.7033,0.0442,1.565,98.0635,19.0489,1.2908,2.6902,-2.8269,2.9389,-6.0563,3.2077,0.7809,0.58451,
7.2467,3.0025,-0.68135,0.74824,106.2797,12.8447,8.2033,-5.9069,0.95811,0.11144,-4.0057,-1.564,0.49307,1.2728,
10.4273,1.1351,1.5287,-4.3583,114.0029,8.4586,9.8802,-12.0604,1.6235,-8.3314,-3.0425,-15.5702,3.597,-12.9036,
13.6578,3.9593,1.4372,-5.5433,121.2627,12.7716,16.0361,-6.0344,5.3827,-9.2775,5.335,-22.4697,12.058,-26.2294,
12.5978,1.0707,-2.2645,-9.79,128.0869,13.2106,21.5819,-11.2159,7.7113,-12.3363,8.6303,-25.2188,10.6116,-26.3431,
13.0468,1.7293,1.0049,-5.5872,111.1222,24.2281,17.6354,-9.3377,2.6689,-7.4988,7.8715,-21.5361,4.9133,-24.0396,
10.336,1.1434,3.3545,0.05046,91.4392,36.2715,13.2031,-3.9569,-1.3479,-3.6746,4.025,-15.4239,5.1002,-15.8485,
8.9925,-3.9864,2.9123,-1.6398,71.8529,33.3723,13.1338,-10.7094,-1.026,-8.0334,-5.1345,-14.2575,2.625,-1.1588,
11.1045,2.7602,4.4248,-0.33611,53.4417,33.5391,11.1409,-11.754,-1.6874,-9.2386,-7.478,-15.5712,0.78028,1.0799,
16.7047,8.3792,10.4258,5.9506,36.1352,35.8651,14.3288,-2.8536,3.2346,-8.2024,3.576,-16.5651,10.3749,-13.0849,
15.4617,2.3331,3.7749,3.4246,19.8671,28.1698,11.7821,-8.7082,2.7993,-10.3611,5.5308,-17.2582,5.1729,-26.3998,
8.9902,2.4343,-5.3694,-3.2886,4.5751,23.3464,11.7983,-14.211,5.2827,-7.5705,6.8864,-16.9454,-0.68088,-10.7158,
2.425,-0.36356,-8.181,-11.0455,-9.7994,21.2225,7.4748,-11.6718,3.7607,-5.9112,8.1597,-12.3139,-0.39929,-9.7114,
4.9308,-6.3671,-6.4846,-5.803,-23.3115,23.0824,1.4824,-7.8378,-3.9366,-0.97703,3.573,-7.9595,-1.5804,-23.2288,
5.8405,-7.1901,-3.9266,-3.7674,-34.8073,16.1541,7.9017,-12.429,3.7712,-0.67721,2.6355,-21.5819,3.5759,-9.1808,
-6.5615,-9.1688,-10.9214,-10.7722,-46.8188,5.0619,0.67866,-17.9497,2.0987,-1.6004,-4.2711,-6.187,-0.97699,-17.789,
4.9194,-0.90592,-0.14318,3.9742,-48.7097,18.2555,0.63794,-2.7728,0.5265,12.5956,-2.569,8.2842,0.045493,-30.7014,
11.1317,-8.3234,4.4447,1.4458,-55.1871,14.9911,-1.0876,-9.2346,-1.1919,7.1394,-7.4761,18.272,-3.5727,-16.0849,
9.0178,-3.4859,3.2139,-1.5332,-57.6607,13.127,-1.5045,-12.0552,-1.1206,2.3725,-7.0277,3.0757,-2.3942,-1.0198,
8.9589,0.57989,2.057,1.4511,-61.4317,15.2322,0.99615,-5.0651,0.87508,9.4612,-5.1596,-1.8089,-1.7684,-8.7921,
8.6621,-2.5882,-1.1997,0.15896,-69.5561,12.6308,1.6595,-7.4126,2.0276,2.3858,-1.7167,2.3968,-1.9035,-8.9877,
7.1787,-0.50491,-1.6099,1.1135,-68.757,7.0524,0.59584,-9.3782,1.9058,-8.8443,8.027,-11.847,5.4418,5.0492,
9.3989,-1.1973,4.9944,0.32358,-66.319,-1.3247,4.1753,-13.395,0.58635,-13.3756,9.7148,-25.2362,5.3565,-6.5818,
12.6913,3.6948,6.141,1.268,-62.8218,1.6473,8.7455,-9.2168,-0.89509,-12.0907,7.6856,-18.9013,2.6245,-7.1512,
13.1349,2.2681,4.5675,2.397,-69.8985,1.3073,7.4976,-4.0843,0.36368,-12.0883,5.5375,-24.2749,3.6721,-2.6245,
14.5162,-3.8938,5.0166,3.9406,-79.4432,-4.7969,0.05812,-6.0086,-3.7553,-5.8197,-2.7487,-8.7184,-1.6097,-2.7083,
16.0554,0.67814,4.7151,3.7042,-80.4612,-3.5448,-0.90969,-11.4327,-6.9044,-3.0604,-9.3327,2.048,-3.9232,-3.5101,
20.8771,6.4225,14.0736,13.6049,-82.3824,1.4886,10.714,-6.408,3.6328,-3.8406,-4.9159,-12.1748,4.0249,0.074976,
13.1167,-4.8093,7.6854,12.0654,-91.5395,-5.5908,-2.2211,-6.7466,-5.0211,-1.9232,-13.0569,-0.95954,-8.5088,4.65,
12.0883,-4.7618,2.1626,2.9054,-100.1471,-6.9426,-4.257,-10.4396,-3.515,9.5204,-7.2122,13.198,-5.8296,6.0582,
11.6042,-0.37846,0.34583,-4.7401,-86.9074,-10.1412,5.3987,-10.5359,3.2041,2.9239,4.067,-1.6938,4.8847,-1.7768,
8.2566,-3.489,-2.8082,-2.2867,-79.5236,-9.7739,5.3155,-3.3961,-0.60337,-4.2417,5.51,-15.6922,2.4223,6.7657,
6.5562,-8.8235,-1.4346,-0.94446,-88.8522,-8.4644,2.8272,-6.326,-1.7727,-0.85391,0.59986,-4.5073,-1.3383,19.6159,
4.2348,-2.0274,-0.86638,-0.40563,-89.9083,-7.9563,0.24764,-9.3207,-3.1124,-0.32005,-2.3284,-6.6468,-1.7401,13.6184,
3.9805,-0.45923,0.1497,2.511,-84.5135,-9.8893,0.71494,-7.7973,0.931,-3.1936,2.1498,-18.7812,-0.18924,7.017,
2.7776,-9.109,-0.34145,-1.9782,-90.5302,-14.5983,-3.1846,-9.2575,6.1776,-7.8225,-1.3538,-16.6907,1.2681,10.9341,
2.1285,-1.814,-0.8029,-2.3415,-90.401,-8.4202,-2.5116,-3.8818,5.3245,-5.9069,-5.129,-13.7611,5.5304,9.7961,
6.8218,5.5259,7.9221,2.6195,-81.1203,-4.0584,8.2442,-1.7204,5.0053,-5.5527,1.4455,-11.9713,5.6807,-1.3967,
16.5354,1.8199,11.3032,10.1751,-71.9148,-5.7431,5.3394,-0.65334,-1.0796,-4.2552,2.3231,2.847,-7.1936,4.9536,
16.2664,-3.8327,0.26092,5.949,-76.5178,-11.4243,-2.453,-3.2655,-8.0045,-2.7948,-2.3963,13.4019,-12.7878,16.4667,
12.6388,-3.8442,-1.442,-1.3978,-79.399,-11.9441,2.2739,-5.7211,-3.4269,-0.9399,1.3629,9.4643,-4.0668,13.7915,
10.6757,-0.96195,-0.15015,0.37371,-74.3936,-9.5398,1.4146,-3.6901,-2.4979,-2.0888,4.4146,6.2454,-5.0276,6.4565,
13.1686,0.30106,2.5099,4.4486,-75.9555,-10.6546,3.4989,-4.674,1.2669,-4.1326,4.3907,-0.63683,-1.5925,7.274,
11.6554,-0.44014,3.5644,1.5304,-78.3878,-10.2565,4.0121,-7.0449,-0.49608,-3.1615,0.030153,-9.0345,0.19009,6.5968,
8.0638,0.55037,3.8327,0.47448,-80.4332,-6.7489,2.3253,-2.2837,1.944,-2.4897,-3.3459,-10.4209,-0.30348,4.2726,
4.4465,-4.0619,0.46972,-2.6875,-89.7072,-11.8875,-0.94768,-7.2083,3.9966,-8.3659,-6.7605,-9.5547,-2.4544,4.2572,
12.8565,2.9305,1.4052,2.7766,-75.2867,-3.4613,2.0015,-5.8117,1.3464,-1.1152,1.3576,2.1061,-0.86113,12.6786,
16.4237,2.7544,3.7312,5.0204,-64.9847,-4.7001,2.8455,-1.6064,-4.0368,-1.0485,5.1328,2.4614,-2.7374,0.34896,
15.6795,0.90214,7.6049,10.7445,-69.5215,-8.9976,0.50536,3.5514,-3.5538,-2.1907,-0.23709,4.4831,-3.2963,-0.87704,
11.3642,0.84801,4.2561,11.5461,-59.5657,-7.4934,2.4032,-0.036107,-2.8582,-3.0236,-7.4532,2.7679,-1.6523,12.6729,
8.7542,0.79713,4.0008,1.2124,-41.8917,-7.0438,10.4537,-6.7824,-0.2766,-5.7342,-3.6321,-8.9674,2.7852,9.02,
8.7109,3.1594,5.6889,-4.645,-25.2782,-11.9238,13.201,-6.8578,3.1144,-7.8008,3.8167,-12.7676,6.9564,-4.5366,
2.1624,0.31854,5.5888,-5.5713,-9.6615,-24.947,12.6501,-9.0975,6.5428,-9.9836,1.9007,-16.5811,7.2621,-15.1104,
-1.1006,4.397,6.9404,-2.1038,5.0182,-26.5834,15.5063,-6.8644,4.9451,-8.1795,2.9917,-21.1296,9.4777,-8.178,
0.65271,5.82,0.98039,-5.5932,18.8171,-28.6038,15.2993,-7.1757,-0.41325,-11.7861,5.4633,-25.8878,8.6681,-4.0719,
-0.83249,-2.7237,-6.309,-14.8984,31.7881,-35.5645,13.4172,-13.0116,5.3964,-14.9355,15.2587,-22.8883,9.1121,-14.4327,
-10.1825,-1.3555,-11.956,-16.1738,26.7471,-32.2253,6.1043,-10.5439,11.0981,-6.0857,26.1533,-11.6331,11.6984,-14.2901,
-17.2846,-0.79197,-10.7565,-16.6494,18.394,-37.0405,3.3281,-8.465,9.4681,-3.7921,22.1742,-16.7194,12.9249,-11.9862,
-14.0781,-5.8059,-5.0497,-15.4095,14.6391,-47.1103,4.8154,-8.6803,4.3205,-13.4467,11.9259,-29.4548,9.4986,-9.58,
-17.8132,-4.2527,-4.5057,-11.3517,1.4682,-40.1863,2.3569,-5.9903,3.8203,-20.1117,11.9332,-31.7851,7.7229,-13.103,
-25.6622,-3.2744,-1.5841,-10.9118,-12.7199,-35.6062,1.4923,-8.2822,5.76,-19.6282,15.3144,-32.5293,12.3214,-26.4168,
-22.4355,-5.2473,-0.28396,-7.6058,-11.3541,-42.3877,0.19772,-9.4725,-0.61088,-21.1018,7.8878,-37.5674,11.8229,-31.46,
-17.4737,-4.2089,-1.9539,-5.4622,-11.3959,-42.9777,1.8733,-9.1451,1.1128,-25.8612,5.2456,-41.8209,8.9446,-25.9568,
-19.7997,-2.9925,-3.2829,-11.401,-22.7633,-34.6144,-1.6135,-11.0065,2.4923,-19.4891,4.9309,-34.9731,3.5872,-28.7379,
-12.5858,-0.16141,-0.9168,-4.6911,-15.8539,-23.6195,-7.5423,-4.8025,0.17357,-4.2197,6.8042,-18.7747,3.131,-15.6852,
-4.841,-1.3572,-0.6206,2.58,-4.5385,-26.7819,-9.7411,-6.2016,-0.078039,-6.9791,5.1908,-13.4304,2.22,-3.4161,
-1.4175,9.0885,-1.3067,6.0406,1.7593,-21.0776,-6.9874,-0.76805,0.65,-7.7656,4.156,-7.0809,1.8458,-4.8984,
-4.9479,9.2661,-1.4693,3.5085,-5.8181,-16.1975,-6.3272,5.3036,0.85197,-2.2385,6.5582,-0.1486,6.7963,-9.6662,
-6.8204,-3.1002,-0.17607,-1.2813,-17.7613,-19.3233,-10.0447,0.88801,1.0416,-1.863,5.9235,3.4757,6.1478,-2.0961,
-5.6878,2.1475,4.4138,2.4108,-25.6136,-15.5128,-10.6473,4.4499,1.7025,1.8642,4.8452,8.3289,7.4662,7.4292,
-16.6747,3.7058,6.8005,1.0613,-38.1768,-24.4635,-10.2495,2.4962,3.7695,-5.2373,3.8316,-5.427,10.6336,-3.8623,
-16.3974,5.6529,10.4901,8.4692,-49.9862,-26.6113,-8.9114,5.4794,7.6409,1.5844,13.4834,0.92392,14.0927,-3.3896,
-13.9673,0.49323,6.0043,7.4794,-57.3511,-26.4604,-12.2331,6.5971,7.6644,10.1665,18.9414,14.9685,12.7657,0.18819,
-13.6114,-1.9469,2.2693,-4.0568,-62.5869,-30.1757,-8.6068,6.683,17.8096,5.6999,25.9994,6.2371,22.6043,-1.2694,
-14.4818,5.642,0.92823,-1.6439,-59.0728,-27.6421,-6.4033,13.272,24.2129,3.1891,33.8395,-8.2371,29.2024,6.7609,
-12.1666,7.2315,3.7648,6.1672,-53.1181,-32.732,-10.3576,11.9935,19.3857,5.4078,27.9528,-3.5249,20.7013,7.3191,
-8.0623,1.0129,4.0208,5.7973,-46.0747,-44.8681,-20.3413,3.561,9.0634,6.0474,15.1887,10.666,7.4081,-2.279,
-3.7224,-0.49392,5.226,5.9314,-49.0951,-48.8046,-22.9772,2.8654,6.5916,7.6129,11.3847,15.8106,6.4814,4.1245,
-2.5347,0.018105,11.1794,8.9502,-58.6824,-43.9476,-22.5625,1.7296,5.2323,9.5663,10.702,17.7545,5.6106,9.6616,
-9.1316,-2.3936,7.1337,9.859,-59.0178,-43.7214,-30.3678,-2.7129,-3.7588,10.4386,5.2392,21.0275,-3.8851,3.2973,
-10.0299,0.16017,11.5264,9.2675,-64.6358,-43.0263,-24.2074,1.7884,6.5897,15.1149,14.5658,19.2839,5.5071,1.1713,
-10.8739,2.5609,12.763,5.3372,-74.8576,-40.9266,-25.1653,7.9476,14.8714,17.582,22.8509,18.6088,12.8894,6.4037,
-11.9087,0.2381,2.1153,2.8478,-56.2662,-37.7481,-33.5371,3.8556,9.3998,13.876,19.7926,22.554,6.0905,4.3322,
-7.0968,-2.4275,-0.66316,0.025611,-38.7902,-40.0625,-23.0892,0.49075,12.4508,10.3919,15.4716,13.7289,10.3044,-4.3638,
-0.64515,4.7079,0.58181,-2.6271,-22.3628,-40.3102,-13.75,8.8973,16.2834,10.9738,15.2665,2.541,19.5684,-1.4506,
4.4549,7.5588,5.1268,-3.1925,-6.921,-38.1325,-16.0581,7.1585,17.4756,7.182,20.3762,-1.7087,19.1173,-1.1224,
10.2132,8.3103,11.8086,3.9887,-3.734,-32.2293,-18.7101,5.5237,20.0425,5.546,28.0717,2.0092,20.1394,-3.2243,
3.0928,7.0887,4.1105,-0.34812,-17.6099,-37.7673,-27.4697,5.9153,15.2244,5.9362,28.0745,-1.7269,20.1362,-10.0208,
4.8353,8.1095,9.1664,1.1189,-29.6892,-35.9833,-24.3752,8.9347,23.4699,15.7031,36.0309,10.4282,24.2306,2.15,
-6.3011,-5.6334,-0.30162,-5.4559,-36.3438,-33.5833,-37.0127,2.855,11.6978,13.0737,24.951,16.7921,8.6767,6.6002,
-3.7538,0.24807,0.92165,-1.9952,-41.6351,-25.0607,-29.3689,13.5299,17.5033,18.7971,29.4798,13.6153,18.8816,8.3735,
2.0151,8.6691,5.4456,0.77583,-37.4497,-25.7262,-22.5453,8.6207,22.9611,19.8384,33.7366,9.6652,24.7386,6.666,
-2.2032,3.0875,1.9856,0.0061546,-34.9618,-28.28,-31.0747,-1.2965,14.5938,16.4787,23.7584,17.039,13.854,0.2403,
-2.0709,-1.4364,2.3486,-1.9225,-40.577,-31.404,-26.8,2.6376,14.6821,14.5258,21.3687,20.3551,14.4691,-1.2203,
-3.1519,-1.109,-1.4078,-8.7968,-39.8294,-35.5451,-25.9149,2.7205,10.1858,9.075,24.6663,13.1082,11.4318,4.3966,
-6.3371,-2.4886,0.605,-8.2691,-44.1884,-31.0022,-24.3601,2.0752,15.8415,13.3511,33.3096,10.8756,16.5304,5.5789,
-4.9927,0.55308,8.7635,1.3862,-50.2138,-22.8754,-16.6317,10.6277,25.014,26.5294,36.1314,22.2743,22.7695,1.8698,
-6.3804,3.6532,6.0685,3.9541,-47.4422,-26.0824,-24.0699,5.8924,9.7746,21.8044,20.2249,28.8916,7.3033,3.4449,
-8.4079,-0.42242,5.7044,2.2708,-45.0776,-30.302,-26.964,-3.138,1.4754,9.8913,14.1912,19.4453,-2.8963,5.6485,
-8.1443,1.29,9.4596,4.7858,-44.5422,-25.3505,-18.3564,6.4504,10.787,15.8054,24.668,21.4122,8.6053,5.5505,
-9.3428,3.864,8.6509,8.1141,-49.3415,-26.963,-14.6037,11.6068,17.6113,19.4366,31.1414,22.7788,16.5249,6.9047,
-9.7464,1.2218,4.7574,8.5913,-60.481,-21.4888,-20.4764,7.5362,9.3238,6.2188,23.0064,10.3248,9.7488,7.4545,
-9.1615,2.5948,-0.34822,8.5581,-70.9521,-6.0995,-26.4783,11.4224,-2.8047,-4.2771,11.9852,1.5103,0.48738,8.4534,
-8.1301,-3.3457,-0.32756,3.7058,-78.5053,2.3408,-31.6385,4.4703,-10.3494,-7.8771,1.1425,0.45556,-7.2549,5.5358,
-7.883,-10.1346,-3.9231,0.83263,-87.8949,3.8878,-43.8402,-1.8232,-23.8284,-8.6095,-13.026,5.4897,-20.9196,6.8911,
-5.964,-1.332,-1.7597,10.9053,-96.7212,17.7545,-46.151,5.9987,-23.4833,-7.1288,-17.1854,13.8372,-24.1234,17.5646,
-14.765,-5.5902,-5.0284,5.9129,-105.018,18.9791,-48.2022,2.2646,-19.182,-9.5934,-15.1898,12.0433,-24.604,17.9573,
-17.9769,-6.4601,-10.2703,0.49601,-112.8169,13.7426,-49.8898,2.3692,-20.2003,1.3461,-12.1097,21.6841,-21.9229,17.6023,
-18.585,-4.8672,-11.3413,-1.2205,-120.1479,10.2669,-44.2449,2.4685,-17.301,7.2913,-5.839,29.7835,-18.9203,11.003,
-19.6391,-6.7443,-10.9018,1.9862,-121.0132,8.928,-43.7593,-0.33071,-16.022,6.6129,-0.9094,34.5044,-21.8825,16.8507,
-18.4607,-8.2678,-7.8376,5.241,-99.6524,8.3923,-40.1697,-1.7571,-17.4708,8.6262,-1.8187,39.1826,-25.3902,28.3727,
-24.8249,-9.9409,-9.5365,-5.4373,-90.6605,0.41653,-33.1802,-2.857,-14.2534,-1.7737,-4.3611,22.7317,-20.2514,16.306,
-27.674,0.77843,-12.3387,-6.5573,-96.3081,0.87393,-31.1892,5.5096,-7.6136,-3.1131,4.0957,7.2678,-9.3953,10.0255,
-25.0497,-1.6786,-7.7418,-0.86147,-91.9759,-4.9633,-31.7282,2.7687,-8.1209,0.44789,4.3317,13.0984,-13.1702,5.5673,
-17.039,-6.1574,-4.144,3.7697,-75.1291,-7.7988,-27.1734,-1.0131,-11.7312,3.5543,-1.4721,21.2304,-17.4414,12.7049,
-14.0882,-0.48511,-8.2339,5.472,-71.1031,-2.9923,-22.6505,4.3506,-6.6888,9.1258,5.3654,18.0286,-7.7176,26.0426,
-14.6894,1.9539,-4.8476,5.1434,-71.1757,-5.705,-23.2199,4.0893,-4.3595,6.6499,6.0076,13.0903,-6.7728,20.021,
-13.5666,1.1138,-0.94133,6.522,-53.1666,-4.1579,-28.3341,5.5312,-13.4975,-0.25662,-3.7529,13.0277,-18.6585,8.9378,
-11.548,-1.6044,-4.0181,2.9975,-42.505,-1.2571,-25.4293,5.44,-12.9288,1.9277,-1.8407,11.041,-18.7445,7.1965,
-4.8291,-0.78477,-5.9462,2.5767,-26.6979,0.50554,-19.3235,2.9449,-9.9839,11.6944,2.8495,23.6349,-16.4146,8.4519,
0.2811,4.5647,-1.2509,5.3143,-10.996,2.8856,-15.754,6.1425,-12.2772,7.1362,-2.6244,25.1091,-16.8757,9.8732,
1.9512,1.1576,1.4755,-1.5122,3.7638,-1.3852,-12.1577,3.6045,-10.3355,-7.392,-5.6002,9.5026,-14.6581,8.0753,
8.1011,1.5701,-1.9875,-2.3854,17.6379,0.14422,-9.9819,3.8706,-10.1973,-8.9972,1.0028,-1.311,-13.7786,4.2168,
14.3637,4.3682,-4.7605,0.65005,30.6797,0.61773,-6.4907,2.1919,-10.5496,-5.565,1.4248,2.1419,-15.3623,-5.6774,
22.4198,10.1318,2.5148,4.2262,42.9389,2.2677,-2.0039,1.3373,-11.1216,-9.3287,-2.2763,-6.4225,-15.1637,-5.0956,
29.0285,17.4774,8.8716,7.5879,54.4625,8.1574,-0.67864,4.8727,-13.1057,-13.8305,-5.273,-18.8114,-13.5307,-5.9954,
34.9996,19.8033,15.0877,11.4714,65.2948,8.6318,9.0033,8.4367,-5.0885,-12.5187,-1.5826,-20.5752,-5.0061,-11.9022,
28.8018,14.9996,8.1569,7.6496,69.2099,1.6064,8.2219,6.2433,-8.3986,-12.4905,-3.6568,-13.7971,-9.7674,-13.8391,
21.2891,10.7252,2.3649,0.92411,55.8987,-4.2746,4.3543,-0.39829,-13.6793,-14.1512,-8.2577,-9.1129,-14.0016,-7.2242,
17.8431,11.7694,5.3565,-0.33663,43.1448,-9.0798,3.3702,-3.0255,-10.2074,-10.651,-8.0032,-6.8789,-8.0998,2.1273,
3.7568,8.1705,-0.74974,1.6115,26.4561,-13.8374,-4.0631,-2.3618,-9.1128,-8.0835,-6.5589,-7.4302,-6.1678,1.9995,
0.15721,5.7523,-0.70452,4.8895,10.7688,-13.4893,0.037306,2.1185,-5.1918,-7.1163,-2.3092,-5.056,-3.8693,2.8436,
2.5581,6.3712,2.23,6.0422,-3.9774,-16.5361,-2.3753,2.4735,-9.7008,-6.2077,-7.4731,-3.7885,-6.5295,5.0833,
-1.6929,7.194,5.2295,5.9208,-11.8132,-20.6059,-4.4019,1.602,-5.5031,-3.1839,-4.8553,-3.3205,-2.5225,4.0552,
-13.4017,0.25467,3.2287,2.4319,-21.9507,-24.4309,-4.379,-2.5922,0.37048,1.5867,1.4613,0.97632,-5.0225,3.5707,
-16.2128,-0.48374,0.38368,2.5272,-22.8028,-22.7239,-4.3572,-2.1955,1.0714,15.5915,6.9175,15.0177,-5.9262,16.1311,
-18.6147,-1.9007,-2.0497,-1.963,-33.004,-29.5556,-3.6139,-3.0278,6.7914,20.5608,9.8767,28.2167,2.1419,18.5375,
-23.0412,0.8644,-4.5778,-4.0142,-40.9055,-24.6486,0.21861,3.6618,11.4456,17.6404,12.4176,33.9955,7.0751,22.4869,
-24.0691,-0.15156,-4.3034,-3.2914,-42.3077,-15.939,3.5797,7.7806,6.9027,14.1716,10.7084,22.797,4.7226,26.9221,
-24.071,-7.855,-0.18855,-3.0937,-43.6254,-22.2133,3.3652,3.4572,5.0425,8.9832,8.1375,14.6805,5.4034,16.6299,
-30.0985,-2.8042,-2.3466,-3.6314,-47.5159,-30.2807,2.4401,5.4191,5.4627,-0.47406,4.9979,1.0249,7.7305,4.3041,
-26.8464,3.6306,2.1329,-0.039073,-50.4493,-27.4996,12.8988,7.5041,13.3301,-7.6765,8.0725,-13.1365,13.0512,3.0815,
-16.7997,-1.6489,6.1023,2.6146,-42.843,-25.6086,12.3658,2.9565,8.9148,-2.1542,8.7934,-10.0585,11.5448,6.5121,
-18.2021,-4.4421,1.8798,-0.91673,-32.5597,-28.4107,3.4289,1.3329,1.1491,11.4724,5.8552,4.645,3.6213,4.1931,
-22.8945,-4.6577,-1.1253,-7.1285,-33.4984,-29.5983,2.2591,2.6989,5.9007,18.979,3.094,18.4663,-0.45216,5.3876,
-20.0748,-1.0043,-2.504,-4.7726,-38.7193,-25.4123,2.6055,3.9832,5.5466,20.7323,1.9441,23.8661,1.0208,16.6335,
-20.3164,-1.4259,-0.90752,-4.4862,-47.4831,-31.6003,1.9672,-2.0403,2.8037,12.7399,0.38116,15.6852,3.3701,15.1535,
-22.9538,-2.7864,0.59296,-5.6631,-46.5623,-34.0426,-1.525,0.010511,4.0815,6.6731,-1.5697,12.8161,1.2399,7.0137,
-21.0948,-2.1371,-1.853,-4.3594,-37.0202,-28.6258,-1.4338,3.3841,5.7646,5.7901,-3.4039,13.9751,-1.7272,4.6645,
-14.7672,0.16033,-1.9828,-4.8205,-34.0756,-31.0054,4.1961,-1.3982,4.2139,2.3097,-2.4763,3.7371,1.5099,-0.19468,
-14.3634,1.5967,-3.3098,-2.1212,-32.0311,-32.0376,-0.39421,0.61363,0.10442,3.6171,-4.7381,2.0663,0.93715,0.29917,
-14.2247,-0.18606,-1.4242,4.0316,-28.4222,-31.3207,-1.5756,0.81801,4.1957,5.5695,-6.6232,5.0756,-1.288,9.1991,
-15.7813,-0.1749,-1.3388,1.8616,-32.5014,-31.8515,-1.4811,-5.0157,0.56954,0.41461,-9.1179,3.3248,-6.0314,8.1652,
-17.0038,0.07656,-1.4994,-2.3475,-38.5053,-25.3612,-3.0797,-1.5817,-3.0801,1.1126,-8.3298,3.3663,-3.9823,2.6136,
-13.3323,-3.0613,-0.2044,-5.3401,-37.4001,-26.4906,-1.6896,2.6108,2.6481,4.6615,-4.6968,2.4412,-2.5383,4.1438,
-8.194,1.4607,-2.6023,-0.19924,-24.0688,-29.2397,-2.5523,2.9361,0.079118,8.7202,-7.7894,6.6335,-5.2785,13.5361,
-10.1125,1.8552,-2.9283,-1.1514,-23.1066,-28.9313,0.97527,-1.5786,1.5209,6.269,-7.8038,4.3071,0.34105,8.3859,
-12.6393,-0.90741,-0.10127,-7.59,-25.8178,-25.9904,8.3883,-1.2427,7.4549,1.3133,-1.3102,-5.3511,2.9719,0.8926,
-12.1219,0.3521,-2.2646,-5.9293,-23.0637,-23.7078,10.0544,4.8576,5.8026,0.5114,1.9016,-10.5739,1.5885,5.4186,
-10.6714,2.0184,-2.8518,-5.8145,-28.1874,-25.4186,9.6921,3.843,8.5877,2.6501,2.0287,-10.1802,6.0727,7.2628,
-7.1388,2.8612,-3.6446,-7.876,-23.1219,-21.4834,4.772,0.71993,5.6623,4.9012,-1.4674,-3.7848,1.3696,11.6473,
-1.6488,0.52013,-1.2565,-6.6803,-7.6346,-21.3994,3.7628,1.3999,2.1893,0.027634,-2.1025,-2.3527,-2.3278,8.2976,
-1.5501,-1.439,0.74683,-8.6899,0.17482,-26.8644,5.9472,-2.5407,2.0577,-5.2764,-2.9405,-6.55,1.1861,-0.39518,
-5.3135,2.9856,-3.6363,-9.1326,-13.3333,-24.7704,4.1441,-1.424,-0.95782,-0.62153,-7.1024,-3.7469,-3.2234,2.0387,
-2.5843,-0.085577,-0.52606,-3.7639,-8.1945,-17.9815,4.3778,2.0359,-2.3466,4.2365,-11.0145,6.1193,-5.9225,4.3265,
7.2119,-0.56261,5.2903,2.7287,6.3972,-9.6718,4.5971,4.3241,-6.5444,3.9821,-11.3178,12.5008,-3.1568,7.9235,
9.6713,2.8456,4.0086,1.1187,17.462,-10.0556,8.1777,1.6545,-8.0799,-4.9335,-13.0493,-2.3492,-4.8956,4.0736,
11.0192,5.085,3.2861,3.9436,15.9322,-11.3804,10.0974,-1.3372,-5.6669,-13.7965,-16.6046,-15.103,-11.8327,-4.3655,
14.6966,10.0823,2.1249,11.42,25.5813,-2.5029,6.1171,5.0097,-7.2549,-4.7738,-14.1623,-0.096788,-12.0868,4.5733,
10.4403,3.6928,-3.3053,3.9859,23.5645,-2.8349,2.3756,1.3347,-8.7478,0.33288,-15.2408,13.7678,-8.4691,9.1192,
11.0192,5.1585,-3.3479,0.61328,28.1762,-1.4597,3.4381,0.53125,-9.9101,-3.7844,-19.388,1.6136,-7.238,2.0645,
16.866,13.767,-0.9779,3.228,38.2959,2.2435,6.8475,5.5611,-9.5565,-7.1728,-19.9115,-4.0269,-7.5267,-6.0131,
18.2639,8.6024,1.0092,5.4447,39.8546,3.5549,9.8109,7.1558,-8.019,-6.2603,-17.7527,-0.41103,-9.0035,1.0964,
16.4452,5.9171,-2.6668,6.8053,40.1144,7.9212,6.5709,8.8956,-9.2251,-8.0543,-14.5184,-1.1097,-10.6324,10.9125,
20.038,9.1773,-1.7836,4.2275,39.3948,5.2767,11.7202,7.6388,-6.0203,-13.1144,-10.996,-3.694,-6.8612,2.7862,
19.0767,7.9038,-2.8819,1.8047,39.6824,2.3088,13.6683,8.3853,-9.7569,-10.6403,-17.3261,2.5532,-9.1006,-0.99639,
15.2808,5.2606,-1.9859,5.3121,41.8812,6.75,12.1253,9.5701,-10.376,-2.0479,-20.3836,10.8359,-9.2777,7.4993,
15.087,3.7394,3.1947,5.716,41.5373,7.0677,14.0489,6.3441,-6.6207,0.72628,-12.6534,8.9807,-7.9979,9.7002,
14.1818,5.4433,1.0749,1.0348,36.6349,5.6795,10.7956,5.9634,-10.5618,-7.5125,-11.4122,-2.6454,-13.785,6.2261,
18.8743,7.2861,8,4.1059,37.0881,3.6518,16.6556,5.8468,-5.3485,-13.5694,-13.3784,-10.4406,-8.8604,1.273,
19.1881,4.4388,11.3769,7.716,37.7551,1.5045,18.5488,4.0498,-3.5814,-10.3447,-14.5039,-6.9217,-6.4005,-2.1773,
10.806,1.7623,3.9453,3.3966,22.9566,2.3783,13.5795,5.253,-8.1867,-2.9751,-15.0799,0.24253,-9.8729,2.7736,
10.3986,5.2715,6.3597,3.9157,12.1789,4.4048,13.9695,4.6969,-6.9726,4.6748,-12.0059,13.4839,-6.6294,9.5966,
11.7031,9.7762,8.3885,10.4299,20.6075,5.1048,11.6856,2.4866,-8.9646,9.2152,-13.6955,24.7267,-7.1953,7.0928,
11.724,4.6101,7.6444,8.5991,20.0939,0.70092,14.1177,1.6143,-3.8472,3.6004,-11.6687,11.9146,-5.0766,-1.7687,
10.0563,-1.9335,4.7752,-1.0759,6.355,-7.0539,8.9321,2.4818,-1.6882,-7.2205,-10.9686,-2.9002,-7.6641,-12.7498,
7.5249,5.8955,4.0065,0.9166,4.0453,-8.0769,4.0576,4.2608,-2.0691,-7.2694,-8.3825,-9.3547,-6.2406,-18.2515,
4.1809,6.0237,5.2124,-0.10272,-2.9461,-10.9668,8.6346,0.14881,-0.016743,-8.7614,-6.9157,-17.47,1.8466,-21.0128,
7.0633,-0.36346,3.6946,-2.7474,-5.4204,-12.4779,9.3218,1.3449,-4.1129,-5.5844,-10.5979,-12.3247,-0.91502,-15.6545,
11.4602,-0.82359,6.3654,2.2377,0.68938,-14.1396,6.3522,-1.1459,-8.6868,1.0172,-16.7109,2.5148,-11.4654,-8.9306,
17.7623,7.1798,13.9375,13.9138,7.6379,-6.3011,10.0686,-4.2104,-11.7808,2.6436,-18.8415,11.1615,-12.9464,0.041117,
17.9016,9.8823,9.0036,14.7659,10.3126,3.9586,9.7052,-3.2346,-16.1358,-3.5408,-19.398,3.0198,-13.3752,-0.20255,
12.9711,3.0224,6.0528,6.6491,4.3915,-2.0635,10.0873,0.81583,-4.5624,-6.2209,-12.9319,-4.3918,-8.7163,-8.3851,
1.8287,1.154,4.9665,0.70681,-6.7183,-10.3755,10.6871,1.9719,2.219,-6.5708,-8.5404,-9.6721,-1.6856,-7.6408,
-3.3424,0.84358,2.4996,-0.54066,-9.9306,-9.512,13.1791,-3.2078,1.3628,-5.4534,-4.8947,-9.8149,2.5131,-4.0491,
5.053,-0.17113,3.7957,2.866,-2.1039,-5.5669,14.3168,-2.5336,2.2451,0.65863,-1.2268,1.379,-1.9762,-6.2165,
5.7137,-0.6428,-0.28846,0.28392,-3.4239,-6.197,5.7448,1.4752,-3.1922,1.583,-6.9378,9.009,-8.6065,-8.736,
0.55065,-3.0144,1.1751,-2.1432,-6.5927,-8.2353,8.7746,3.3149,0.85568,1.0061,-5.5572,4.1302,-1.3412,-5.3194,
-2.8568,-2.8335,-4.1981,-3.9428,-4.2687,-9.6693,13.551,1.6697,2.2506,2.8739,-4.2594,-3.348,-2.2246,-8.8566,
2.3763,3.3621,-5.6334,-3.4653,-4.2538,-9.8123,16.3529,-1.5639,4.2847,4.8706,-2.3171,-2.9066,-0.88632,-12.4225,
3.9207,1.4733,-5.5361,-7.8369,-6.6497,-10.4286,12.2384,-6.0491,2.3406,1.9275,-3.865,-4.9012,1.3363,-9.0259,
3.9266,-0.30206,-4.4808,-4.7154,0.73894,-3.2952,11.7453,2.7492,-2.3793,3.9808,-5.8025,0.45437,-2.8415,-1.0127,
6.8241,-3.8998,-2.5252,-3.2276,2.3816,-4.3028,13.6917,1.3795,-6.8163,3.0186,-12.4443,7.8989,-11.1067,-4.085,
19.6712,3.8062,5.5803,3.9557,16.3387,1.0168,13.5933,0.57356,-8.0943,9.3452,-12.9027,20.1992,-12.6097,5.0779,
19.2141,5.7468,7.8968,7.334,26.8071,0.71485,13.0185,-1.6302,-10.7419,3.2411,-9.9591,10.0694,-12.0943,4.5321,
17.3383,8.0535,8.6283,4.7248,16.2808,-0.05094,18.7453,0.63673,-4.0719,-6.8353,-4.7823,-4.6348,-5.3426,-4.1755,
10.7542,4.437,-2.7359,-4.4765,1.204,-1.2532,9.6666,-0.1246,-3.5864,-5.7021,-8.5925,-9.5388,-6.2276,-4.6481,
2.6371,2.4836,-4.7409,-6.3776,-8.3888,-4.7934,9.3276,-2.7682,0.72619,1.1475,-6.3897,-7.7612,-1.2742,-7.5027,
2.2379,4.9861,-7.5895,-5.2715,6.2146,-5.2287,11.9014,-3.325,0.92358,0.83773,-2.8728,-6.5722,0.97142,-12.1138,
13.9143,2.5178,-9.7857,-7.6063,19.2188,2.0749,13.3569,0.97183,2.5554,0.5465,-1.0132,-2.0805,3.0828,-4.3971,
15.2483,-3.1771,-6.0653,-13.1757,11.0758,-1.1831,11.8319,-3.1841,0.23268,-2.6195,-3.1218,-2.6788,-0.23593,-3.8925,
5.4154,3.0391,-6.4243,-8.7698,14.0267,-2.3172,7.989,-0.82386,-2.4324,-3.1853,-0.76536,-2.2771,-3.3548,-7.2744,
4.1263,2.3746,-8.4492,-9.2077,18.0055,0.23222,10.4019,0.18967,4.4622,-8.297,3.1367,-12.2636,-1.2255,-13.1047,
12.5554,1.7502,-4.0858,-6.7275,25.1199,6.9667,14.1161,0.17829,5.6408,-10.2098,2.4666,-20.6868,-0.18815,-12.3184,
20.4796,11.768,2.4263,3.7995,37.7127,15.2258,16.1617,4.024,-0.48226,-7.6686,-3.466,-16.5531,0.78747,-9.6511,
33.3509,15.8824,11.4395,11.7665,49.55,22.507,21.4583,3.7828,-0.45355,-7.2087,-6.6323,-7.3654,2.6682,-6.6617,
45.4498,16.1348,10.5122,16.6041,60.677,31.039,20.4122,2.3505,-5.97,-11.3554,-12.7423,-7.1645,-4.4813,-3.1285,
49.9532,21.4334,10.3632,19.464,71.1363,35.9248,21.5974,1.2454,-9.9503,-18.3871,-16.3163,-19.7498,-9.9973,-8.7256,
57.3203,30.5113,18.6594,23.8398,80.9682,44.6156,27.7733,8.1605,-7.6661,-14.1504,-12.2038,-19.7701,-6.2639,-14.2276,
54.1221,28.9216,13.4425,17.8301,90.2101,43.6259,24.4197,9.8401,-11.7854,-10.6503,-15.087,-15.4504,-9.9859,-19.3999,
50.6338,23.5709,9.5025,15.555,98.8975,34.9828,24.1598,4.188,-11.3192,-13.1443,-17.7972,-14.2824,-12.5198,-16.5487,
46.3905,19.5055,8.2094,18.2371,107.0636,31.6785,17.1666,1.2856,-17.6299,-17.8993,-24.6831,-15.1127,-16.3479,-12.4223,
46.7403,19.0583,10.8501,19.3123,114.7398,31.9472,19.2699,3.3779,-14.4028,-15.1383,-22.9609,-15.8929,-11.2699,-10.4719,
43.2128,16.2278,7.5478,12.1278,114.7246,28.3434,20.2831,2.934,-11.3697,-13.0249,-18.45,-14.2162,-10.8344,-10.5667,
31.7021,14.5306,1.0691,8.2669,96.0307,24.4734,9.6659,2.5168,-16.7133,-15.3767,-20.9587,-13.1225,-13.8,-9.6915,
28.5947,12.4539,4.6204,10.4219,76.1689,20.8354,12.2194,4.5349,-11.1307,-13.2493,-18.0139,-14.9863,-5.5002,-6.9409,
27.6022,12.9117,2.6562,7.6277,64.4889,21.2727,14.1376,3.0578,-10.2217,-11.2488,-16.21,-12.4001,-6.3753,-4.355,
21.8485,13.824,1.2918,5.0006,52.6656,23.1296,10.638,1.1873,-11.2958,-12.7432,-14.9966,-9.4867,-8.6441,-1.4429,
21.2609,14.1999,5.3116,6.8698,42.5158,18.1264,7.8305,4.2495,-7.4846,-9.3271,-12.8915,-11.0866,-2.5818,-0.151,
23.8416,14.3122,4.511,9.3501,39.4829,12.2186,8.8065,3.0302,-5.1073,-4.4292,-9.2255,-13.314,-0.98064,-4.9622,
21.447,13.4533,7.6145,9.7532,35.1859,10.0394,17.9193,-0.043865,1.4659,-5.6094,-1.9233,-12.033,0.52423,-7.5568,
14.1347,10.9588,3.5422,6.9988,27.5307,10.6419,15.1569,-0.2822,-0.79126,-3.1037,1.3256,-9.1418,0.25181,0.85039,
11.3584,4.9987,-2.9368,1.7582,16.7203,6.6289,7.981,1.181,-3.1544,3.831,0.28172,-3.2907,1.2006,-1.1288,
12.1229,2.7708,2.0599,1.1705,8.9679,8.1596,11.8407,6.4125,5.2298,7.4577,1.2289,6.5475,6.9133,-2.0252,
10.9139,8.3893,3.3823,2.5468,8.4301,14.4187,11.6124,8.9201,5.8806,4.5999,3.5655,3.2628,6.9807,8.2194,
17.4896,11.7421,3.1796,1.4299,12.2628,12.5895,10.9154,5.4926,6.9738,-1.9424,6.7263,-9.9486,7.526,2.4239,
27.768,13.6887,3.7117,5.4415,25.6271,15.9315,9.0552,7.8141,2.9395,-2.5492,0.77863,-10.075,4.4229,-3.7476,
34.0559,14.5548,2.7659,5.3557,38.1894,22.4476,10.1994,7.5865,-8.0829,-7.9401,-11.0784,-12.6033,-5.7242,-1.3533,
40.4487,16.3326,3.3229,0.45507,49.9981,23.7519,14.1667,-1.3048,-10.7314,-18.7919,-13.5472,-18.837,-11.4068,-8.7439,
43.8063,22.1016,1.1953,2.356,61.0982,27.6294,12.8348,2.6298,-9.6051,-16.2181,-10.3238,-14.8147,-7.8299,-14.0039,
39.9726,15.7138,-1.5275,2.4556,71.5323,20.428,12.3056,0.78528,-13.1262,-19.3424,-17.6581,-25.736,-7.601,-15.8152,
42.8772,13.8069,0.49209,3.2723,81.3404,18.2382,16.3878,-2.1546,-15.7133,-28.305,-20.9372,-37.207,-8.5915,-17.7586,
41.9918,17.0763,0.70399,0.90683,90.5599,20.2774,15.1635,-1.302,-13.5652,-32.1503,-18.9576,-40.0363,-7.8345,-26.0926,
37.5436,17.4975,7.4102,2.7806,97.0572,16.1683,18.1101,-1.2238,-7.9306,-23.4724,-13.9642,-34.2596,-4.9543,-23.5632,
34.5681,20.0631,10.0991,6.2292,102.5619,11.5828,22.0852,1.9831,-7.2138,-9.2896,-9.9929,-19.9115,-2.9699,-14.1956,
36.8326,22.234,10.9392,4.4094,107.4952,12.3338,28.4731,6.2026,5.2704,-0.53725,-2.1622,-8.1118,6.8495,-11.8974,
37.5147,21.8638,9.3189,4.6268,93.3327,11.1119,28.2105,7.2763,8.8105,0.45886,4.716,-6.1793,7.8844,-10.7016,
30.9257,17.6597,8.2776,5.7952,80.9841,2.2502,23.1436,3.9474,1.5332,-1.979,4.9152,-9.1827,5.0014,-8.6135,
25.2135,12.7435,8.2631,2.0733,76.6072,-5.1154,24.6473,0.33635,5.7798,-2.8244,6.5482,-13.9342,12.4139,-9.5427,
18.8802,9.0866,0.054356,-2.8716,65.744,-8.1827,23.6506,3.6904,6.3971,-5.5472,7.6018,-17.9186,13.1151,-12.3449,
8.3474,2.9978,-4.0463,-8.2429,47.6994,-16.6098,21.9906,2.2641,5.2899,-9.3117,7.8686,-22.3873,11.6053,-14.7372,
3.7492,5.4695,0.7758,-6.5431,30.7374,-15.3723,18.5016,0.44106,5.6959,-0.31736,6.1912,-9.2338,12.1142,-1.5609,
0.63221,6.1052,-5.0553,-9.5249,14.7932,-12.0398,8.2329,-2.9599,-1.3948,0.18408,-1.8931,5.4203,3.6746,6.7279,
0.35308,3.5699,-3.5469,-17.8717,-0.1944,-13.9687,8.944,-1.5772,1.8222,-1.032,-0.092011,11.4821,5.1411,1.7447,
-7.1401,2.1502,-2.1291,-22.3428,-14.2827,-17.228,5.2736,2.1326,6.7743,2.1627,4.4926,3.8035,9.4122,3.327,
-15.3888,-6.1735,-7.3035,-25.823,-27.5258,-22.461,0.13697,-4.2618,10.2242,-1.8235,6.1512,-2.6912,8.8474,5.5375,
-10.3677,-7.4899,-3.2499,-25.9603,-39.9742,-14.6054,1.816,-4.2471,11.7804,-0.99069,8.4337,3.0139,8.5576,6.893,
-9.9866,-1.0149,1.0425,-18.8591,-51.6758,-5.7754,2.9123,3.9619,6.9762,-0.20789,6.2404,0.18193,7.8031,7.2023,
-15.6541,-1.4362,1.944,-11.4608,-62.6752,-11.2134,6.5937,4.6883,8.0037,-2.6058,4.42,-8.5063,9.7453,2.9135,
-17.6074,-2.3144,-0.10081,-6.9172,-73.0147,-8.6124,0.89546,4.4065,7.5234,1.8889,4.6367,2.1274,7.7143,6.5951,
-21.3715,-1.6933,-1.5408,-4.5738,-82.7338,-4.2393,-5.425,4.1424,5.1436,1.2934,4.3587,4.8921,7.2512,14.3944,
-22.2581,-1.8329,-2.1715,-1.648,-91.8698,-8.0823,-3.4121,3.6526,6.0401,-3.3637,2.4098,-4.8017,8.9856,17.1463,
-23.8151,-4.1331,-3.9694,-2.9954,-100.4576,-10.0077,-4.1717,3.4335,6.642,0.21255,3.2295,-0.6572,8.9284,16.1171,
-25.5195,-6.054,-5.9006,-4.9846,-108.5302,-12.0583,-5.1264,2.5043,7.4485,3.3331,4.2408,2.9979,8.1519,14.9093,
-26.3984,-8.1014,-7.4748,-6.6142,-112.8646,-13.7452,-5.7827,1.8722,7.9655,6.5075,4.9502,6.6744,8.1447,14.0148,
-29.394,-11.2305,-10.6415,-9.8325,-115.4925,-17.5,-8.0871,-0.40957,6.7649,7.3221,4.4125,8.4429,6.451,11.9688,
-32.6921,-15.1364,-14.1008,-12.858,-118.9273,-21.0295,-10.7353,-2.5542,5.1537,8.0881,2.9424,9.6235,4.3767,9.0815,
-34.346,-16.8793,-16.3878,-14.7376,-121.1914,-23.3832,-12.2604,-3.6057,5.5674,10.2539,3.9712,12.6615,2.9088,7.8133,
-27.4647,-14.9024,-11.5484,-12.8893,-111.5098,-22.9443,-4.7761,-5.3178,6.6798,11.5671,5.1789,13.3483,3.2164,2.0421,
-19.0679,-12.0801,-5.5528,-9.2238,-96.1423,-19.1573,-2.0794,-2.5886,6.761,5.0885,1.4937,11.1007,0.13094,7.7041,
-17.4422,-9.9093,-4.7375,-2.8856,-89.8919,-16.0796,-3.4006,-2.4331,7.3194,6.7111,2.3682,9.4706,1.5696,20.2571,
-24.3494,-13.4121,-8.0686,-6.3279,-98.5984,-21.6226,-6.812,-5.9025,5.193,15.7085,3.9133,15.4103,0.75204,16.8725,
-26.9855,-15.7406,-14.0922,-10.0453,-102.2027,-20.5662,-8.0903,-4.3433,5.1226,27.0587,5.366,28.5857,-3.3902,11.2811,
-28.4999,-18.8935,-19.7542,-16.9149,-99.204,-21.5016,-5.4357,-11.5545,11.8047,27.122,6.2489,26.75,-2.4639,6.5064,
-29.4412,-18.0011,-22.1846,-18.0692,-91.0826,-19.4884,-8.2428,-8.6918,8.4451,26.6997,5.6327,22.9756,-0.14667,9.2493,
-24.5413,-16.6801,-19.6482,-10.4773,-82.0023,-17.114,-12.8099,0.74727,1.4309,22.9286,4.5719,26.1768,-0.86123,12.3097,
-16.0791,-18.3306,-9.0695,-5.7515,-71.0566,-20.1845,-6.498,-3.3947,1.1038,13.5989,3.0925,21.4725,-3.9428,8.4379,
-12.7043,-12.8924,-5.6329,-3.4782,-61.0086,-16.0812,-2.7336,-4.6373,0.073287,14.7111,2.907,24.523,-5.1525,9.8598,
-16.7625,-11.1548,-9.1515,-5.1975,-67.9531,-17.0445,-4.0156,-6.7694,4.8898,11.9005,5.6248,18.2311,-0.022871,6.8579,
-16.9616,-14.1005,-11.2535,-7.5368,-69.9013,-21.0833,-3.0513,-10.4606,7.2475,4.1966,8.9028,7.2553,2.6301,6.6878,
-16.1853,-16.8699,-12.2655,-17.9308,-67.8766,-22.9518,-2.6278,-8.6276,6.0898,9.0065,11.0197,8.5067,1.267,6.0451,
-18.1065,-21.1605,-11.5298,-29.8704,-71.9989,-23.9848,-5.8443,-10.5203,6.6885,11.3584,6.0204,4.6221,0.22684,-5.4046,
-15.5738,-15.0702,-8.9094,-22.2934,-62.3763,-13.8688,-7.4219,-5.5508,6.7691,8.2668,1.3204,4.3448,1.1776,0.70428,
-11.5059,-14.407,-6.2057,-16.8584,-53.5723,-12.7957,-2.3968,-3.5305,5.6401,5.6011,-0.44604,8.6638,1.3479,8.1338,
-8.8874,-16.4351,-3.4232,-20.1854,-48.4298,-16.3665,-1.7711,-7.1751,1.9272,5.2651,-0.90121,11.518,-1.6255,5.2352,
-8.1132,-12.7974,-1.5306,-14.3948,-39.0163,-11.287,-2.3881,-6.0217,-0.35758,3.7443,1.322,4.8014,-0.80463,6.1264,
-8.1085,-11.5474,0.97162,-6.7824,-39.5676,-11.0917,1.6118,-2.2857,1.5918,0.62738,3.1711,-2.7173,2.6179,6.241,
-4.9709,-6.2753,1.1543,-5.6526,-37.9167,-10.1854,-1.1365,0.020605,-0.1909,1.3126,3.2218,3.9532,-0.19075,6.1075,
-0.092925,-4.2115,4.2185,-7.9645,-25.7595,-4.0305,-0.34495,-0.2216,0.54391,1.4748,7.1259,6.8495,1.026,7.9102,
-2.7384,-9.0205,0.83192,-6.7635,-18.6703,-3.5477,0.88104,-2.3775,0.75225,1.1454,5.9754,5.7156,-1.2047,10.0871,
-6.4308,-7.0332,-4.5209,0.87313,-18.5142,1.9678,1.7923,0.17508,0.70688,6.3791,2.7246,10.6751,-1.1322,10.9279,
-7.7317,-6.8518,-3.0443,-1.3484,-22.4648,-2.2476,0.47944,-2.0041,-0.54036,2.3814,-0.57236,3.0452,-0.34139,2.8005,
-5.34,-4.9949,0.030395,3.0708,-16.7788,-3.5592,-2.4418,-2.3663,-2.4366,3.2024,1.3902,4.3083,-1.7672,4.0782,
-7.6707,-6.3824,-1.1763,6.502,-18.4232,-0.21218,-2.0539,-1.9833,-1.567,3.2512,2.994,3.8088,-1.9021,2.6287,
-4.8001,-5.0353,-0.62352,2.7376,-20.2101,2.2109,-3.3772,-0.90023,1.4193,-0.31811,4.2604,-2.6865,1.1043,1.5069,
0.79006,-0.39491,-1.0685,4.5016,-11.7666,3.0423,-7.0309,-1.3281,-0.59408,1.1472,3.0409,0.36725,1.52,6.7191,
-1.9082,-2.0582,-0.76274,10.2573,-10.8194,3.101,-6.3679,-2.9355,0.1647,0.83721,2.1353,9.2631,-0.25821,5.1109,
-9.2657,-3.6222,-3.8507,9.8826,-15.2322,10.3863,-8.1552,1.3378,-0.086381,0.54578,0.80212,9.9123,-1.9302,2.6349,
-9.9149,-3.6456,-4.3428,3.7458,-14.5592,13.8607,-6.4608,4.8727,2.0882,-1.174,0.030866,3.2918,-1.5732,6.5744,
-8.3559,-7.283,-2.1538,3.0393,-8.865,9.1729,-5.5905,-0.23967,2.927,-2.0676,1.4755,5.0227,-0.99661,11.0004,
-7.8548,-4.4361,-3.4711,10.0876,-5.9229,9.5864,-6.7016,1.2207,1.3053,4.8051,6.207,12.4339,2.9198,12.7507,
-9.3114,-7.0622,-5.6731,4.6618,-18.101,3.7086,-6.7817,-2.2272,2.6731,6.9272,3.9062,7.3493,2.7444,1.8621,
-6.3426,-5.1923,-2.9222,1.0077,-16.5328,3.486,-8.303,1.2809,-0.86178,10.8498,-2.5947,11.2471,-3.6868,-0.65978,
-7.6493,-4.1578,-3.9521,4.0807,-8.069,3.0359,-7.5638,4.3375,-1.533,9.476,-3.1619,14.6697,-5.1528,3.4776,
-8.8778,-9.9341,-4.9201,3.1127,-9.7543,0.20244,-3.4948,-2.9128,4.1024,5.2918,-1.7672,10.1738,1.1817,1.0996,
-6.1755,-4.2764,-4.8658,0.2744,-7.9637,4.2876,-4.4899,-2.979,5.5435,9.554,-1.9021,9.3224,2.3161,3.2028,
-4.118,-5.2249,-5.297,-2.3929,-7.2449,-2.4771,-6.3899,-2.5591,6.4159,10.6678,-0.58291,7.0761,-1.9205,0.84121,
-0.73741,-9.9726,-5.7021,0.88368,-7.5332,-8.3542,-7.6933,-0.71831,3.3799,9.7867,1.1393,5.4467,-2.5282,-2.3423,
1.9579,-5.7593,-3.1908,6.3743,-5.3942,1.0651,-5.063,0.53008,1.9718,9.4405,0.34757,1.0221,2.2028,1.8956,
2.5636,-1.7981,0.61583,7.6793,-5.7934,6.0626,-1.6255,-2.153,-0.31545,1.4025,-2.8065,-3.6188,1.348,3.4689,
4.5792,3.3713,0.82008,10.3518,-7.6152,3.0475,-4.1793,3.0376,-2.4659,-2.7793,-4.3251,2.1422,-0.42035,8.3226,
1.4119,-1.1693,-0.67538,6.3562,-10.5327,-7.2584,-5.3748,0.92714,2.9847,-4.0588,-5.03,-2.807,2.9793,-2.782,
-0.60056,-3.9917,-0.63486,4.5286,-1.7056,-6.8227,-4.5704,-3.9487,4.2519,-3.3328,-3.7638,-10.8333,1.8367,-14.1843,
2.8097,-0.85991,-1.5609,4.739,0.80685,-2.557,-5.2603,-1.3019,0.14014,-2.6512,-1.1276,-9.7012,-1.1658,-7.0665,
3.364,0.39698,-0.74431,1.3212,-7.6775,-4.5729,-3.7393,1.9097,-0.59163,-3.215,-2.2653,-7.4323,2.0372,1.3113,
2.1978,1.337,-1.6635,5.5802,0.013796,-0.44217,-3.9974,6.1334,-2.0019,-1.0939,-2.1294,-2.6476,0.95062,4.1247,
3.9946,-1.1533,-1.5637,8.6203,6.7621,-3.3077,-2.7928,1.909,-2.8457,-3.4384,-1.5192,-2.4887,-2.9623,-2.3893,
10.5034,5.1829,6.2429,9.5494,9.7306,-3.1092,-0.21506,1.3126,0.21712,0.14236,-1.9105,-1.3751,1.0718,0.64654,
6.0168,6.3177,2.0119,8.0121,13.4851,-3.4048,-2.6127,1.7157,-3.6523,-0.34857,-5.6522,-2.7388,3.4176,1.0897,
1.0765,-0.086927,-1.7242,6.808,17.2555,-5.8519,2.1238,-3.4484,0.18226,-4.425,-1.6977,-5.708,5.8636,-4.0374,
-2.1213,-1.2868,-2.3439,3.7487,12.1228,-5.2596,1.2732,-1.5545,-1.9981,-3.4364,-0.87267,-5.6067,3.8248,-5.9641,
-3.9222,-1.2096,-0.75699,1.5951,2.2364,-6.8724,-1.2138,0.46694,-1.8782,-2.2663,-1.7846,-6.2342,3.1134,-9.945,
-3.4462,-3.7883,-1.4347,0.29432,5.2353,-10.5577,-1.3817,-5.5869,1.8497,-1.4072,-1.4364,-6.1013,2.6854,-7.1789,
-1.5522,-0.90992,-3.5178,5.3383,13.8392,-6.3088,-0.57588,-3.0825,0.53389,2.2926,-1.1092,-3.0842,2.7652,4.0976,
-1.4588,1.555,0.067507,5.5002,12.045,-5.4479,0.42323,0.47715,-0.94418,-3.1473,-0.078564,-8.2015,1.6352,1.9238,
-2.0949,1.2205,2.7148,2.0365,13.9734,-4.8802,-1.772,2.1355,-4.9851,-3.6816,-0.31505,-5.54,-4.0067,-1.8073,
-3.6562,-1.5036,0.8649,2.6379,13.3762,-3.8641,-1.4245,2.2486,-3.4809,3.047,-1.5012,3.7102,-3.5251,4.3274,
-3.9187,-2.8596,0.33061,5.3717,6.789,-2.6684,0.58917,-0.29692,0.5843,4.7923,-0.44681,8.7902,-0.4211,8.4061,
-3.6834,-3.1702,-0.17093,2.1571,6.3817,-1.062,-0.89221,0.68499,-2.825,1.6125,0.5441,5.3705,-2.3243,3.0812,
-4.1855,-4.667,3.455,-0.62367,6.24,-0.75708,-0.59748,0.88509,-3.3786,1.757,-0.21168,3.8432,-1.4612,1.2094,
-2.0062,-0.048645,4.2115,10.9829,11.6499,2.1806,-6.3462,4.6884,-4.1398,4.5436,-4.0554,16.1461,-3.3022,13.1879,
4.14,3.5699,5.6458,14.9035,19.3871,2.2908,-5.7242,5.1302,-4.6145,4.0303,-7.4272,21.2027,-4.7911,16.9761,
7.9889,2.6324,11.815,11.8401,18.9467,4.3225,3.5368,4.5814,-1.2046,7.4039,-6.7406,21.6177,-2.3344,14.2703,
-0.20366,1.5101,5.3211,13.5398,12.5073,8.4014,-3.9062,4.3065,-6.435,12.2618,-8.7468,28.0334,-8.4613,16.7881,
-0.67314,4.7942,5.9659,12.2453,15.1313,9.8256,-4.154,4.0479,-0.746,15.3827,-2.9191,31.6539,-5.0609,23.0119,
-1.1151,0.64968,3.1978,2.3515,17.1155,3.4514,-3.9048,3.3231,-1.1836,6.7465,-2.262,17.7035,-4.2753,19.703,
-3.9401,-1.7992,-1.8145,4.6212,9.3401,4.6908,-4.6341,3.6059,-1.1124,1.0398,-1.1622,5.5543,-3.5366,14.1823,
-4.668,-1.6912,-1.2232,5.3078,-1.3432,7.3017,-3.8741,1.9433,0.40062,2.4236,-1.0925,4.2572,0.050013,8.993,
-4.1467,2.9897,1.0191,3.3024,2.8345,9.9966,-2.919,5.4423,-4.2029,7.3392,-3.6782,10.509,-0.19418,12.0686,
-3.8981,-0.081929,3.8502,5.9965,3.6285,5.0585,-0.33353,2.7054,-3.4686,4.489,-2.0115,7.9505,-3.0748,14.2368,
-0.77196,-0.077244,6.5115,10.9391,4.3749,3.7907,-2.2415,2.5429,-2.7788,3.2551,-1.8906,9.4014,-4.8188,17.7211,
0.47942,5.4712,5.3977,7.1495,2.4254,7.6608,-2.8301,5.0416,-2.3709,5.7116,-7.8029,16.7913,-3.3241,15.9347,
3.8253,5.1427,5.556,6.7203,-1.0945,6.7192,1.1963,3.775,-1.2645,7.2968,-6.8526,16.7479,-2.1606,12.5687,
0.46233,3.1469,-0.32099,8.0043,2.5863,5.5927,-4.4195,3.3076,-8.6604,5.6537,-3.7903,10.1995,-4.6825,14.4657,
0.19362,1.7533,1.8674,5.3549,8.4571,5.4983,-1.0209,2.8681,-3.0791,3.6277,-1.8757,5.0082,-1.75,10.4643,
5.9666,0.68377,5.6118,5.0336,14.6984,5.1684,3.3791,0.76786,1.9259,4.3739,-5.1372,6.1535,-4.5375,5.98,
8.7418,4.7403,5.0343,8.3468,17.4317,6.5456,2.9352,1.4449,-2.2868,4.3527,-5.5521,9.3999,-6.4346,8.2726,
4.6019,4.6969,8.3477,7.605,14.2166,5.4297,4.9282,1.5992,-0.46238,0.95805,-3.0498,4.7386,-0.98688,8.9815,
-0.25371,2.7281,4.7136,5.9437,15.0509,5.3451,0.053034,2.7083,-2.604,3.07,-6.482,6.1413,-4.0609,10.1296,
-1.2028,-2.2563,1.0558,7.5152,13.6654,4.0598,-0.43254,0.61761,-3.894,6.7417,-8.0217,12.5212,-8.1561,9.0394,
-0.88945,-2.3622,2.6795,7.7874,12.6045,3.0931,6.1011,-0.14258,-4.3835,4.1683,-7.7816,10.5649,-5.0154,3.9176,
-0.59512,4.2875,4.2064,5.151,17.3921,5.5591,7.4227,2.0351,-3.8795,1.749,-7.5552,2.4592,-0.61663,0.067544,
2.5741,6.6814,7.5694,5.0829,18.9997,5.4665,7.7003,1.6721,-0.031358,1.885,-2.5226,-1.7857,1.5895,1.2683,
0.0090442,1.9422,1.8126,2.8498,9.1828,3.2103,3.3819,3.4999,-3.4039,1.2895,-2.3713,-1.6786,-0.91643,2.6385,
-1.1963,-0.34399,0.016645,-5.7573,4.5343,2.7765,5.3481,3.049,-1.5125,1.9355,-0.059822,1.5552,1.7896,2.2392,
0.080741,2.8106,2.6672,-11.9194,11.2523,3.8154,6.7145,0.69687,2.1937,5.4348,2.1129,5.0778,0.47744,1.8639,
-4.7448,0.23137,-1.3497,-15.0606,11.0591,1.6581,3.4191,2.5833,0.13389,3.1805,-1.8702,-2.4578,-0.99747,-2.5863,
-8.7984,-5.0852,-1.7506,-19.4596,6.5392,-1.3337,2.2501,0.982,0.60779,-3.7592,-4.1681,-13.8794,3.8831,-6.7699,
-2.7267,0.28186,1.4881,-13.2301,9.7622,4.2902,-0.053873,2.1281,-0.63328,0.56392,-4.1588,-7.5033,2.445,1.1084,
2.7393,3.1572,5.255,-4.7238,10.1406,2.5865,3.8055,2.4826,-0.11358,1.4942,-0.53505,-6.5709,1.8162,2.4879,
2.0928,-0.40688,4.9395,-7.3326,11.4601,-7.6918,6.9514,-0.55863,-2.5171,-7.2723,-1.9494,-14.3716,0.74311,-5.8563,
1.9672,4.9202,3.6792,-7.3751,18.4855,-3.8561,4.6061,1.4031,-4.7762,-6.836,-5.2069,-9.171,-0.74774,-0.68423,
4.2593,2.6968,5.3867,-7.8964,16.8942,-0.25026,6.7399,-1.0912,-0.15133,-2.0875,-2.9663,-6.6925,-0.22094,-0.16124,
6.1729,-0.59852,8.6789,-5.7354,19.496,2.898,6.5765,-1.2667,-4.2396,1.6532,-1.583,1.1808,-2.8588,-1.8388,
2.9105,2.8118,11.5326,-2.9812,18.8084,3.6882,4.2537,0.73747,-6.3954,-0.37423,-5.8264,4.0025,-4.6154,-1.2465,
3.9407,3.8484,10.5992,-1.1151,12.6182,-0.14848,2.7936,1.8981,1.4602,-0.59274,-4.7539,-4.6738,-0.24116,-1.4127,
8.0426,5.0633,6.5888,2.3263,17.6457,8.0554,1.1798,2.7485,0.40824,5.7093,-2.0585,-1.9828,-0.70863,6.8672,
7.0783,3.314,9.0862,4.5971,15.6231,15.7672,4.0013,0.17323,-2.0262,7.7776,-1.4524,6.3311,-1.1478,10.3118,
4.0023,3.8378,10.71,9.8646,2.8753,11.6875,1.1099,0.88597,1.2287,7.0693,0.32174,10.0484,0.60805,5.1131,
0.38793,3.1258,2.8368,9.7549,2.2209,1.8274,-2.331,0.35065,2.601,3.2709,0.7846,-1.6415,2.4995,-2.4243,
-1.8047,0.28694,1.4615,3.6262,16.1876,-1.4155,1.4245,-0.87545,0.75792,-5.3608,0.49633,-15.2816,5.0009,-3.9658,
-5.5526,0.2695,1.856,1.4802,29.3164,1.5617,-0.10741,-0.82316,1.1942,-5.5213,4.8051,-14.8468,1.3266,-5.6563,
-11.0043,-6.0134,-1.1481,-0.054614,24.1827,-5.7628,-1.547,-4.6299,4.9791,-4.7083,8.3729,-16.8483,-0.19948,-16.8863,
-10.344,-5.6526,-1.0788,0.91253,22.732,-4.9349,1.9203,-2.9059,3.2341,-5.8721,6.4243,-16.8013,2.705,-13.4625,
-11.6516,-5.3135,0.91414,3.7503,23.7782,-0.30047,2.287,-0.80332,2.0762,-4.0735,4.1107,-11.9368,2.5427,-7.8345,
-15.7729,-9.3327,3.2692,5.4532,20.4233,-6.067,-0.26059,-3.1655,5.8078,-1.4187,3.8643,-9.7746,1.4261,-11.2206,
-11.6935,-3.7116,2.8321,8.7415,23.7772,-2.5697,0.47795,-0.80639,3.2902,-3.0208,2.909,-9.9115,3.5096,-7.8963,
-11.4736,-2.5248,2.1804,3.8789,15.1202,0.47696,5.7522,-1.7221,3.5749,-9.1063,2.7347,-12.2086,5.7094,-6.4584,
-19.7031,-5.5065,-0.6017,0.030508,6.7412,-3.649,3.72,-4.2701,6.4937,-8.3188,2.3299,-11.7173,2.7155,-7.276,
-18.5213,-4.2123,-1.5299,4.8489,15.9774,-4.8766,2.0501,-4.4958,6.586,-6.8558,2.6716,-11.0143,2.0707,-5.8755,
-11.384,-4.6824,6.5156,5.7633,21.5267,-4.3428,6.9888,-4.9494,3.5397,-7.6493,3.2346,-11.0763,3.1513,-12.0305,
-12.1475,-1.5092,7.0888,3.4895,19.753,0.25612,5.1234,-0.79586,-0.047333,-0.92401,1.1121,-4.1454,2.4805,-12.2728,
-17.2032,-1.9006,-0.56694,-0.094298,14.2295,-2.6513,1.924,-2.1944,4.2943,-1.3505,2.4917,-9.1989,3.7779,-7.1981,
-17.1347,-6.607,-5.3534,-2.499,10.9656,-6.8308,-1.5657,-6.8827,5.4827,-6.0895,2.8243,-15.8776,2.5871,-6.766,
-12.0095,-2.113,-0.45268,2.2305,12.9587,-1.8414,-0.74909,-2.3726,4.4306,-0.18075,2.8961,-7.9353,2.1907,-6.1188,
-10.566,-5.1197,2.2256,-0.072528,10.9759,-1.49,1.9469,-1.5074,3.4418,-4.2677,1.0351,-6.7363,-0.10989,-7.4394,
-10.1728,-4.0894,-1.0412,0.17302,13.933,3.6611,0.62553,1.2344,0.584,-2.8061,2.178,-3.6808,0.61984,-1.4492,
-13.9012,-3.8441,-3.8713,0.16264,7.3122,2.4771,-2.3045,-0.28594,1.9952,3.1468,2.0474,-4.4242,2.0284,-6.6649,
-17.6464,-6.2645,-3.398,-2.9806,-3.0085,-1.7689,-5.2997,-1.4736,3.0803,1.2708,0.71923,-6.3279,-0.74435,-7.9522,
-17.7927,-2.7554,-6.3274,-2.5606,-2.5867,0.024495,-4.7406,3.1943,0.72659,-4.3488,3.3274,-5.2251,-0.94043,-1.9312,
-10.9408,-1.6264,-5.948,-1.9252,-0.98574,-1.4232,-0.11804,-0.85396,2.129,-6.0163,3.1275,-12.6246,3.4541,-8.5645,
-5.7048,-1.2876,-1.4935,0.35967,2.2069,2.2776,-2.7623,-0.07959,1.2782,0.36996,1.2529,-8.7339,3.488,-5.8812,
-10.9059,-1.4516,-0.19885,-2.3132,-0.094914,0.4537,-3.3197,0.64832,0.47834,-2.3036,-0.99169,-3.6304,3.0376,-3.8414,
-11.9388,-3.5336,-1.3918,-3.8617,-2.7403,-5.1171,-0.95087,-3.4879,2.6188,-5.7803,-5.9934,-5.5817,4.0606,-9.154,
-10.0172,-8.3828,-4.9237,-2.9066,-0.88867,-1.6766,-4.9912,-1.1095,2.2207,-0.8542,-4.4285,-4.0415,3.576,-9.3277,
-13.0318,-11.4955,-4.8694,-7.7941,-4.9329,-2.2994,-4.9329,-1.2841,2.8106,-2.4899,-0.065676,-4.5221,4.5665,-11.4198,
-8.6344,-1.8877,-1.9262,-1.7829,2.3529,0.97207,-2.4678,-1.448,-0.49153,-2.0996,-3.1948,0.81087,4.5335,-7.6011,
-0.40338,1.1178,2.5279,8.9292,11.8527,6.6983,-2.8014,0.084867,-3.8363,0.91868,-4.9315,9.921,2.8154,-0.39639,
0.10299,-3.7697,4.7866,5.9835,14.0338,5.8145,-1.6692,2.9721,-1.6777,0.86379,-4.1534,8.8436,-1.2101,-0.37237,
-5.688,-0.65125,-2.2493,-0.16029,12.7096,4.0194,-2.0512,4.7222,-2.0592,-2.5627,-6.797,-2.2921,-2.5835,-2.2785,
-5.8289,1.3162,-2.1141,0.81342,5.6806,1.3681,0.96413,-2.3098,3.8487,-6.2651,-1.5682,-8.9032,3.3558,0.75054,
-6.9252,-5.0299,-3.4337,-3.092,1.4831,-2.0885,-2.4684,-8.9199,4.5819,-3.9612,3.3463,-3.5486,0.26219,-4.115,
-9.161,-7.8609,-5.3966,-8.9318,0.18928,1.6523,-4.9712,-2.8413,3.1019,3.7485,3.8687,-2.1301,0.0057259,-13.2678,
-10.5395,-6.4254,-3.6266,-6.9496,-1.7503,1.0712,-5.1553,1.6679,0.50568,1.1134,-1.1841,-5.3768,0.96925,-10.5436,
-6.7737,-2.4245,-1.2398,2.385,3.8981,2.212,-7.4971,4.2189,-3.622,-0.64106,-4.2461,5.3097,-0.77613,1.8992,
-3.234,-6.3766,0.03964,2.965,3.4233,2.8022,-5.3602,1.7964,-0.75337,0.60293,-2.3044,6.1962,-0.9703,0.58015,
-3.0402,-2.6198,-3.3374,-0.1052,2.7357,7.4545,-3.5926,0.72452,-0.22646,0.56652,0.7262,-1.8881,1.9802,-1.865,
-7.9192,2.5993,-8.1986,-2.2683,5.2229,6.2843,-3.6178,0.44031,-2.3818,-5.0109,1.8877,-8.2825,2.1021,1.3801,
-2.8646,-1.6542,-1.6809,-0.44473,13.8276,1.8099,-0.26745,-1.2736,2.8226,-5.4333,2.0156,-7.0625,-0.67486,0.5742,
3.8153,-0.34966,4.4455,6.5718,20.9517,6.2806,-0.97431,0.49008,0.48404,-1.4919,-1.7207,-0.13124,-4.7322,-2.1113,
3.1042,-0.81085,6.5891,11.4799,18.2485,5.904,1.4945,-0.50342,-0.99103,-4.7766,-2.0997,-2.5333,-1.5555,-3.4307,
2.1948,-3.4135,4.9887,12.4781,14.5023,2.4163,0.68171,-1.6783,-0.20844,-4.2493,-0.28622,-2.6225,-0.7395,-2.5017,
1.5814,-1.2803,1.7971,10.2834,13.6324,4.1997,-0.32329,-2.0593,1.732,-3.5122,-1.2331,-4.8755,-3.105,1.0226,
2.6911,0.96546,4.3406,4.605,14.9834,5.6347,5.7214,-2.1769,8.6178,-4.9889,4.3842,-11.5726,4.5529,0.23812,
-1.5679,-1.2619,0.46449,-2.179,7.5767,2.1632,-2.0934,-2.2875,3.0392,-4.9303,5.8082,-11.1194,3.5565,-5.32,
-5.5712,-5.7654,-1.2506,-3.2536,0.13243,-1.0999,-6.0652,-2.3912,2.134,-2.4653,3.7725,-1.0523,-2.6824,-7.17,
-6.9237,-2.768,-1.4161,-1.8531,5.6683,2.0996,-4.496,-0.07859,0.80065,-1.594,-0.55078,3.1087,-4.6906,-0.23183,
-2.8931,1.9776,-1.5723,1.8737,15.6921,7.5172,-4.4674,4.9876,-2.3806,-0.77573,-1.7233,-2.6217,-2.7222,5.3255,
0.65473,-2.962,2.8601,2.243,15.2325,5.6197,-1.3071,3.2423,-0.79178,-2.1752,-1.1377,-3.9109,-3.041,0.66738,
-3,-1.5789,1.9656,3.3137,14.5595,4.5596,-1.4696,3.2887,-1.4672,-1.3218,0.61779,2.8317,-3.5814,3.2789,
-2.0969,0.20279,-0.80365,0.94553,15.3732,6.4552,-0.17638,0.44007,-0.17408,-1.0013,1.3034,1.4568,1.6949,4.2872,
6.2239,-0.77302,3.5831,2.3353,17.8255,13.299,0.31636,-0.55043,0.80046,0.9872,1.2254,5.7079,2.0754,2.102,
1.7531,0.4782,3.1272,5.8101,11.2121,12.2596,-5.2467,5.0262,-3.3449,-0.27732,-1.9816,11.8729,-5.039,2.2169,
-3.1723,2.3777,4.3858,6.4258,4.2729,4.7756,-0.11118,5.207,-0.7341,-1.7069,-5.2367,3.4478,-1.3622,0.15567,
0.63343,0.54827,3.8817,6.7632,18.1165,9.0688,2.547,3.2074,-4.7874,-1.8455,-9.5022,-6.641,0.40672,0.86923,
6.6207,-0.69015,7.7459,7.0805,31.1295,14.0681,3.1174,4.7019,-6.6695,-2.4579,-4.8345,-6.0014,-0.34081,2.0221,
8.8746,2.4847,10.8966,6.8967,28.2974,10.5724,3.6532,4.6608,-2.172,-2.5514,1.4811,-1.062,1.8488,-2.6789,
1.3527,4.5048,3.2529,4.7956,21.5383,7.7689,1.2649,1.73,-0.35447,-1.6754,-2.2232,-2.2036,2.9432,-6.6151,
-5.2362,0.13741,2.3351,-1.9993,20.4868,3.6876,2.394,-1.9894,2.8005,-4.2257,-2.3305,-7.1328,3.9716,-5.4951,
-0.34271,0.36967,5.8099,-0.67455,19.4985,5.6355,3.9376,1.7454,-0.50101,-0.35724,1.9067,3.659,0.11792,1.8241,
4.2576,-0.37541,3.2922,4.9095,15.6775,7.9485,1.0498,-0.046571,-3.6044,6.1721,-1.3412,15.2501,-5.9147,1.9556,
1.3506,-0.11192,5.2638,6.7841,12.0853,6.2663,-0.21847,-3.6592,2.1554,9.8992,-1.5017,15.5399,-4.8369,1.1153,
-7.6483,-0.34594,2.779,0.83369,1.4783,1.3112,-1.8924,1.6218,-0.6252,4.2438,-0.68849,9.0641,-2.8592,2.2535,
-9.8407,-2.9765,2.3711,-2.3496,-12.3487,-2.3829,1.8368,7.0683,2.0636,-2.5186,2.4861,2.0126,2.3738,1.3951,
-9.0093,-1.5931,-0.42226,-3.4139,-10.8849,-1.0348,0.039391,1.5826,3.627,-4.0547,2.0959,-7.5082,2.9542,-2.7859,
-4.3714,2.5999,-2.0842,-2.0042,2.0605,0.23232,1.7243,-3.0917,5.5786,-3.0885,2.6931,-16.9396,4.9461,-11.5368,
0.71161,0.033737,2.8611,1.4905,8.6855,-0.26378,3.549,-0.014119,5.7258,-3.3851,-0.36056,-17.3695,4.1674,-15.1829,
0.90988,1.237,2.4485,8.3909,10.3335,5.2957,-0.76176,4.0841,-0.6433,0.4334,-4.9187,-12.7119,-0.66236,-3.9081,
1.3374,4.0551,-0.59069,5.959,5.8574,4.0138,5.5507,-2.9096,1.3237,3.2997,0.19693,-12.4314,5.6441,-5.1196,
-2.3582,0.67828,-5.1345,-1.3879,3.3365,-2.2526,7.3868,-8.2787,0.039007,2.3783,1.8723,-4.6956,4.5826,-13.7305,
-4.6273,-3.7007,-4.3445,0.62355,6.5108,-1.1533,6.9436,-2.4793,1.4829,2.2356,5.1345,4.2628,2.3794,-6.1578,
-1.6984,-4.2018,-2.3969,-2.0656,2.5047,0.60289,6.7682,-4.0175,4.0448,-5.3701,7.4777,-10.093,6.8162,-6.9938,
1.778,3.7631,-1.2887,-2.9056,1.3904,3.9412,4.4339,-1.3664,0.91007,-9.8686,5.1009,-23.5874,7.3711,-9.4663,
2.6354,4.5014,4.091,0.64344,8.0556,2.7406,7.5421,-1.2842,1.3376,-7.83,0.45625,-18.3158,5.4828,-6.006,
8.985,0.13371,7.9427,5.6658,20.3467,3.7815,10.2228,-4.8228,1.0162,-3.2631,-4.6326,-5.8884,2.0206,-4.4406,
9.8922,0.60808,7.9485,7.7365,19.6079,8.8572,6.7174,-2.6052,-0.4906,0.30718,-6.2828,-5.5351,-1.9571,-8.0301,
0.1396,2.9817,6.5077,7.2723,4.3314,4.9513,5.8324,-0.52069,2.9128,-2.6033,0.36067,-9.5413,-1.3577,-10.4408,
-6.6172,3.7671,-0.63164,7.3179,-1.5924,0.79787,1.6261,-0.48945,3.2205,-6.7854,5.1597,-8.4869,1.1343,-6.9223,
-5.4975,-0.074532,1.0933,5.1918,-2.7021,2.9192,1.7693,-3.5933,5.1962,-6.6195,4.609,-10.1471,3.2352,-7.712,
-3.9624,-2.2392,6.0893,5.6032,-12.9039,6.8416,-0.023671,-3.1368,2.2333,-0.67872,2.6452,-3.9947,-1.0563,1.1868,
-5.4121,-1.8641,-3.1939,5.9901,-2.7299,5.708,-5.0842,-2.7074,-4.8908,1.5309,-1.1287,6.1272,-5.5724,8.1053,
-0.74858,-1.7518,-2.0384,2.2563,11.5339,6.3294,3.4161,-3.5093,1.1877,-0.0067205,-2.0253,7.6878,0.54653,2.7982,
-0.70367,-0.68285,1.9403,-2.6994,24.9419,5.9496,5.6212,-6.6732,-2.258,-0.97064,-8.6527,1.9238,0.51374,-8.4569,
-1.3843,0.56342,1.101,1.078,37.5454,-1.397,8.8994,-6.5133,-0.43532,-0.67144,-7.8921,-8.0735,3.6164,-15.4208,
-5.1579,-2.3631,-2.3397,-0.43315,42.4028,-10.4722,10.2934,-3.7126,6.8214,-7.3798,-2.1162,-21.6891,5.3274,-16.424,
-11.5973,-1.739,-2.6813,-4.2635,33.5921,-5.9875,7.2656,0.36656,7.8584,-12.7216,4.2773,-30.3904,5.9721,-12.0641,
-11.1422,-2.3577,-2.7611,-5.6947,31.3358,-1.5307,3.6964,-2.7887,8.11,-12.6815,11.0108,-25.4335,11.1571,-11.5814,
-9.9915,-3.6623,-8.3803,-4.3889,28.4916,0.97151,-1.3458,-2.1392,4.2492,-5.1719,8.4217,-15.2306,6.1496,-7.5119,
-13.4896,-4.6481,-4.7442,-5.3307,19.3101,4.0462,1.8682,1.6043,5.6812,1.1642,4.7832,-5.8809,1.2007,0.41042,
-14.6084,-3.8868,0.84309,-7.421,20.0797,0.91141,4.6486,-0.90205,7.7505,1.0943,4.0142,0.73849,2.0929,6.6523,
-14.4553,-3.8946,-4.7511,-6.2528,21.044,-5.651,-1.6563,-5.4272,-0.18635,2.7159,0.63989,3.3457,-1.1661,1.1919,
-12.6237,-6.0715,-1.5735,-0.093055,15.925,-5.3119,2.7818,-3.6558,1.753,5.9274,4.9398,-2.1577,1.7964,-9.4849,
-15.4817,-4.5019,-3.1663,-0.81083,19.0669,-3.3062,4.7841,-3.1955,2.3707,-1.9,9.2232,-12.3925,3.3758,-12.0493,
-13.5887,0.10676,-5.3867,-5.1003,18.405,-1.6616,8.3532,-4.4498,4.6389,-7.5708,13.0079,-19.8439,6.5475,-12.7723,
-5.7835,3.7158,1.4444,-2.1432,11.7571,5.9099,15.3238,0.8789,11.3504,2.2834,17.2891,-12.6275,13.6264,-12.7289,
-11.7032,-2.7739,-4.909,-3.4606,8.6413,6.0373,2.8355,0.82594,2.4744,2.6286,8.0568,-4.1571,4.6139,-11.4835,
-10.5191,-3.0899,-2.6867,-2.2891,16.7999,2.7827,-0.22719,-1.1518,4.2542,-1.3855,4.6813,2.8413,1.927,-5.9737,
-7.2368,-3.6274,-0.83782,-2.8747,14.1047,0.44661,0.50934,-3.2519,1.8298,0.38482,-2.1075,10.1426,-1.3221,-1.518,
-7.2841,-3.8917,-4.162,-3.1841,7.4739,2.3482,1.4431,-3.5387,-0.69016,6.1463,-2.9449,15.3186,-1.7248,6.2864,
-11.4268,-5.3454,-7.5277,-6.6085,10.1584,-1.8905,1.1156,-7.4242,1.5204,3.126,-1.5634,9.8197,-0.89837,4.7034,
-15.0795,-4.0603,-9.0042,-7.6582,11.4776,-0.33055,0.084756,-5.0501,1.9111,0.046362,1.4229,2.4821,2.53,-4.7374,
-10.5591,-0.20108,-1.9563,-6.4751,4.7632,1.8587,7.5512,-0.64949,8.7866,3.1768,13.1479,-2.2463,12.7427,-10.4789,
-8.9617,-0.67141,-2.8028,-7.051,0.62098,-0.66321,3.2418,-2.0568,5.3668,1.058,11.8771,-5.4855,8.1218,-7.922,
-6.0136,0.33298,-2.6348,0.6027,6.3685,4.6792,0.63692,3.369,6.0089,-0.45148,9.2365,-2.2641,8.5986,-1.6618,
-7.34,-3.3024,-0.30758,-0.63875,-1.9678,-4.5198,3.2498,0.033417,11.192,-1.1477,8.9228,-6.2261,10.7338,-5.1775,
-12.4432,-3.8274,-2.4581,-3.7332,-13.1777,-9.792,-0.56038,-2.1375,5.459,4.9474,7.1829,-1.7549,3.1001,-4.1438,
-8.5634,-3.8387,-2.552,-0.85814,-13.1099,-0.28665,-5.106,-1.2864,-2.8222,1.999,0.72589,6.786,-5.0401,-2.6903,
2.5555,4.5865,3.3859,9.316,-2.2006,13.8305,-3.836,3.1294,-5.0637,-0.049403,-3.6562,16.9839,-6.6661,7.1123,
-4.3465,5.7574,0.29049,7.793,-15.0838,27.1007,-4.5695,3.4238,-4.7597,1.3996,-4.8829,20.3034,-7.2298,18.2545,
-8.6653,-2.542,-0.45007,1.3001,-28.2788,22.5824,-3.5722,2.4952,-0.37651,-0.85331,-0.49232,15.952,-2.6989,18.8467,
-3.5661,-5.0406,-2.5922,2.9093,-35.6206,23.3966,-9.3839,3.0684,-5.4156,-2.4893,0.26012,11.8618,-1.3317,10.726,
-4.5572,-4.015,-2.6779,3.9398,-31.3142,23.1979,-10.5079,5.5356,-4.3675,-2.5812,-1.9249,4.642,-0.52863,4.5391,
-4.7657,-1.846,0.3753,5.1497,-34.7378,21.806,-7.4673,10.9881,-0.73103,-1.462,-3.7376,0.50705,0.46695,8.1231,
-3.5156,-0.7711,-3.5038,8.2149,-31.2075,20.4979,-9.4296,7.4365,-5.5077,0.5537,-8.8157,4.3332,-4.3815,11.9743,
-2.8228,-3.6174,-0.40108,7.722,-24.0324,19.268,-5.007,-0.24054,-1.8027,0.52048,-2.9841,11.786,-3.1543,14.6298,
-4.5813,-4.3644,-0.37725,0.51002,-20.6622,18.1117,-5.6711,2.1842,-2.6587,-2.403,2.4973,13.0073,-2.001,11.3421,
-5.7532,-4.5845,-5.1753,-5.3056,-24.7254,13.1686,-6.2952,3.9814,-3.4635,-4.1871,0.90122,5.9599,-0.91705,4.3946,
-7.3357,-4.3094,-4.3824,-1.1304,-27.5802,14.3067,-3.9888,1.8143,0.11878,-0.56137,0.36521,9.9406,-0.38009,11.3618,
-9.0652,-1.3997,-5.3248,0.62416,-24.7203,16.0994,-7.8473,2.9103,-2.058,-1.733,0.10233,9.1032,-3.0084,12.3673,
-2.2543,-0.35144,-3.559,-4.2335,-19.8624,10.3132,-9.3042,4.1819,-1.934,-2.5929,0.57813,-3.0122,-3.3098,-1.3902,
0.2913,0.15135,-1.4175,-3.0154,-14.3323,11.6223,-9.2281,3.9312,-1.3363,2.3832,-0.90259,-3.7955,-5.5216,-0.82458,
-4.7879,-2.5088,-1.091,-1.6292,-15.6416,13.0946,-6.0233,2.4901,1.3955,2.4812,1.8027,-4.2907,-2.5387,1.876,
-6.9109,-3.3224,-1.5077,-2.0136,-17.5956,7.0061,-5.6617,0.4127,-0.6167,0.88626,2.6586,-6.9255,1.4698,-4.9852,
-3.6035,-2.6409,-3.3452,-0.92871,-13.1652,5.6221,-6.768,1.834,-3.9539,2.7615,-1.3571,-0.24326,-1.5107,0.13481,
-0.25453,-3.2056,-0.49366,-2.56,-12.6165,7.4537,-0.81855,1.4827,0.86283,2.3546,-0.070589,7.2429,-2.6251,9.5265,
-2.6496,0.84293,-2.8744,-5.7811,-10.8954,8.9344,-3.6617,4.2861,-3.5275,1.2488,-1.0305,10.6645,-6.3243,9.4366,
3.2939,7.0593,1.6364,-0.61395,-2.0469,11.7728,-0.068026,9.8135,-5.244,5.5126,-0.48669,14.3634,-1.1241,9.8347,
9.3633,3.7437,4.9131,0.8696,4.8248,8.1744,6.203,5.3687,-3.4831,1.3255,-2.8676,10.1271,-0.5747,8.7627,
9.2836,7.8572,3.6542,2.7454,5.9813,12.0225,3.9029,10.349,-0.86379,-3.0926,-1.2495,4.699,-1.0224,13.5394,
3.424,8.3496,1.9883,-0.31185,-7.8749,11.783,1.2581,11.6563,1.5982,-8.2097,-1.1746,-9.6829,2.8953,10.3164,
2.7366,3.5103,1.387,0.18925,-6.4383,11.558,0.21877,7.5825,-1.3902,-7.2352,-1.586,-16.2121,1.7578,0.056931,
1.1262,-1.0386,0.33994,3.07,0.21473,9.9006,-1.2406,0.861,-0.82444,-7.7649,1.8836,-13.7935,-1.2402,-6.2135,
-3.7621,-3.3864,0.31955,3.3682,-7.5112,8.3423,-0.20231,-2.5651,3.0814,-7.781,2.2525,-12.4835,3.6549,-3.9125,
-3.7771,0.91434,-1.3866,0.99667,-4.8911,11.4574,1.4973,3.1326,-1.2011,-1.7707,-2.4622,-10.5295,6.5689,-1.0264,
2.2338,2.3055,1.5884,-1.4735,5.0433,7.3953,6.2279,1.4982,1.7633,0.74588,0.095933,-8.9336,5.2106,-6.2672,
5.7155,-0.96608,-1.1578,-2.1082,5.946,4.3007,4.1673,-4.1351,2.3806,1.9062,1.2952,-1.8899,1.2828,-3.7218,
4.1675,-5.0057,-8.5599,-3.6687,-0.91845,8.6222,2.2302,-0.75373,-2.3417,0.58676,-2.8796,-0.089018,-0.96355,5.9013,
0.78393,-2.0543,-5.8776,-4.1719,-6.407,8.8277,3.7832,5.799,-0.99592,-4.5101,-2.9482,-3.2172,-0.18284,10.6089,
1.2188,4.8179,-4.0787,-0.065243,-6.9866,9.7439,-3.1927,10.2718,-3.8287,-3.2752,-0.36123,5.6525,-1.6177,11.9005,
4.7611,0.9134,-6.485,-1.2662,-9.7007,12.2927,-1.7959,6.522,-3.358,1.0187,-0.58052,14.7134,-1.2796,8.535,
3.2706,-2.7568,-6.8193,-6.7338,-10.8059,8.9041,2.8916,2.9976,-4.3614,3.1267,-4.1611,11.1795,-2.8901,7.7819,
4.0382,1.265,-0.14317,-3.9197,-1.4807,5.4773,5.1283,5.7098,-4.5816,7.7598,-1.0189,10.0268,-2.7167,6.3511,
8.1345,-1.2213,2.2753,-2.2384,5.3566,-0.15375,4.3384,2.4749,-3.3431,6.3297,0.48824,9.4249,-1.5896,-5.5993,
9.8156,1.0212,-1.9586,0.54742,3.8302,1.5422,0.46268,2.085,-6.7579,4.2627,-5.0847,6.2079,-3.1814,-9.3607,
6.5753,3.1297,-2.0818,-0.20856,0.46733,4.5834,1.6404,1.2372,-6.5932,2.3204,-10.8049,2.7026,-4.6775,-6.1478,
6.1808,-3.325,-1.9569,-4.0524,1.4032,4.3084,-3.2787,-0.76518,-6.1976,1.6988,-9.6747,3.9863,-9.2176,-0.95865,
8.9432,-3.8486,1.2938,1.2522,-1.8143,3.3268,-4.7694,1.4501,-0.76428,7.6226,1.7518,10.2548,-4.567,7.0528,
1.1758,-8.9204,2.18,-2.1974,-11.3466,-5.5499,-0.14449,-3.4576,0.72784,7.1653,2.1287,8.1932,-0.43657,2.7733,
2.552,-3.0825,3.0136,-0.13692,-1.0244,2.4963,4.6849,1.5706,-0.76209,13.0023,0.073206,13.9686,0.071562,6.4633,
6.0138,-1.2103,0.66359,-0.37013,0.2419,2.5875,2.7161,-2.1391,-0.95733,7.6424,-1.1365,4.2124,-1.62,0.04993,
7.5812,-3.0659,1.5876,-5.6506,-4.1112,0.021655,3.5175,-6.8315,-0.41796,-1.0113,-1.5507,-6.6456,1.8517,-5.7376,
4.7162,0.4925,-2.364,-8.2036,3.3666,4.8411,5.2346,-1.6009,-0.39288,-3.3607,-1.9396,-7.6927,6.5613,-2.0189,
2.9872,-2.9117,-3.6682,-9.6398,6.0566,3.1046,7.8128,-1.505,1.0767,-5.5694,0.10522,-15.426,6.1674,-3.8262,
4.013,-2.0139,-2.243,-8.8202,4.9703,4.6053,5.1747,-3.1017,-3.5669,-2.584,0.33965,-8.9571,2.1822,2.4291,
2.8079,-2.375,-0.18026,-13.5937,4.6721,2.4008,3.9003,-1.9518,-4.7992,3.8381,-0.16267,5.6803,2.5332,6.1398,
3.1216,-5.1248,3.2052,-16.6344,10.1766,-2.5637,5.5943,1.0576,-1.6189,6.982,1.2931,11.0036,-0.51111,-2.4236,
3.6572,-1.6838,2.2896,-16.3595,13.181,0.24117,4.0538,1.2351,-3.691,6.804,-0.95362,9.1386,-5.5421,-4.9292,
1.2688,-0.85965,2.3934,-20.4394,1.0621,1.4322,4.5337,-4.3823,-0.81818,0.85241,-2.1015,2.0825,-0.63008,-2.4646,
1.6746,1.1201,2.2498,-19.213,-1.8939,1.3463,3.7793,-5.0833,2.123,-2.5732,0.91714,-3.827,3.2641,0.57584,
3.9843,0.57052,0.66853,-14.6858,5.4504,2.7113,2.1067,-2.8501,-0.89647,-4.8289,1.344,-9.8644,0.1762,-4.2794,
5.1915,-0.42758,6.413,-9.9482,10.426,11.2257,1.016,2.6231,-1.3251,-6.4678,-0.18286,-9.7544,1.1295,-4.0227,
1.9877,0.080239,6.9923,-5.9769,5.4621,19.7115,-1.9373,9.2149,-0.76341,-3.187,0.31028,-4.3487,2.5082,8.7524,
-4.3978,-1.853,2.2347,-9.4747,-5.9528,10.3338,-5.1953,-0.014903,-2.6456,-1.0678,-0.1905,-1.6774,-0.052633,10.1552,
-1.7241,4.0425,4.5105,-6.4963,0.18868,11.1598,-4.8838,-3.8706,-1.5232,6.2268,0.78502,11.9204,-1.496,8.5818,
-4.2722,0.66695,3.0346,-6.8294,2.8287,12.6594,-5.3141,-0.50536,-2.6366,3.6841,-0.94931,11.4461,-4.5397,7.3436,
-7.8722,-3.2295,3.3349,-5.9377,-1.1974,9.0073,-1.1384,1.9355,-1.5146,-1.3572,2.4821,0.63645,-0.89286,7.8673,
-14.1483,-3.5176,-0.23965,-1.2427,-2.5716,6.5387,-3.9626,-2.5194,-4.7977,-0.31192,2.8151,-4.222,-1.8032,-1.2819,
-11.371,-1.8605,2.667,2.688,0.95714,7.1105,0.13175,-7.6706,1.2745,0.67089,4.5746,-11.1993,0.71539,-10.8457,
-2.2533,-0.54384,5.1583,4.6962,6.9253,8.8532,3.2571,-6.0053,1.9212,-5.3947,2.6127,-22.3377,0.43127,-8.026,
-0.67186,3.3452,3.8845,11.1628,9.884,9.7683,3.5436,1.5858,-0.60422,-7.9635,2.4559,-16.6591,-0.076538,-2.7237,
-3.7648,4.8315,3.8926,12.1805,3.2654,10.3873,2.1259,3.6601,0.15516,-3.3881,1.1035,-1.5596,-0.79508,0.57294,
-6.19,4.783,1.008,9.7625,6.6849,19.164,-5.4734,6.574,-5.3978,4.7689,-5.4702,12.634,-5.8091,14.6386,
-6.06,1.8445,2.6343,7.4895,10.8631,17.2908,-3.9397,4.9742,-4.351,10.5083,-5.3834,25.976,-4.2552,24.7268,
-8.1066,0.76994,0.06608,5.5939,2.4985,4.2023,-2.7395,-0.62687,-3.608,13.7342,-3.6141,31.0454,-3.036,12.6383,
-10.2713,2.8929,-1.6251,7.9098,-3.1948,3.7092,-4.2623,-2.7584,-1.7043,13.6335,0.21814,15.9263,-2.1305,-1.3764,
-11.8241,-2.8243,4.016,4.7836,-4.2082,4.2095,-1.355,-7.1722,3.4596,3.8974,0.44648,0.87069,1.6127,-13.5863,
-12.3202,0.47843,1.6057,1.3634,-3.7149,0.34176,-0.068681,-0.23462,2.047,-3.8084,-1.2678,-13.2815,5.6131,-16.3863,
-12.7858,4.0651,-4.9982,-1.3695,-7.1072,1.0442,0.65834,3.3949,3.6114,-6.231,-0.4688,-20.6791,10.338,-12.752,
-14.429,-3.4096,-7.5903,-0.80543,-5.7167,5.3203,-1.7913,-1.1471,5.8049,-2.0008,-0.44021,-13.6538,4.4151,-3.7918,
-17.1787,-7.3026,-6.8942,-0.51636,-7.0609,3.3136,-5.7814,-0.83757,0.87704,0.77058,-1.6193,-5.363,-0.42936,0.050942,
-13.2557,-3.0078,-2.142,-1.449,-8.0835,-1.7057,0.3503,1.1411,3.7167,-4.5785,0.40626,-4.0771,8.2733,0.048115,
-8.604,-1.8633,-2.9776,-2.3266,2.0425,-0.15732,-3.0454,-2.3016,0.60142,-5.2679,-1.5465,-2.3865,6.3309,2.9371,
-7.8463,-3.4385,-1.5938,0.94668,2.6433,-1.3529,-4.5497,-4.3329,1.7704,0.59201,0.23371,-3.9303,2.3358,-0.37196,
-10.5093,-1.5452,-1.7394,4.987,-9.8078,-8.2614,-2.1073,-2.8678,6.2437,0.79768,1.9067,-7.792,3.4007,-4.9296,
-11.3247,0.47573,-5.9734,6.134,-6.8088,-5.3551,-6.3192,-3.1777,2.0127,-2.1427,-3.5104,-7.8065,0.30462,-3.1871,
1.888,2.8573,3.5441,8.1761,7.6997,7.0173,-0.63785,2.7975,-0.036273,-2.0141,-1.3715,-4.446,-0.67798,-1.5501,
13.1029,10.1577,7.9107,13.2292,21.3378,14.0676,4.4621,8.6552,-2.6856,-1.6523,-1.0483,-3.4559,-1.8426,-0.73419,
9.6657,6.8971,1.4105,13.1588,27.5291,6.716,6.3635,-0.78169,-3.2474,-7.5787,-8.9391,-12.1666,-1.0087,-3.8232,
8.3624,-0.50657,6.3876,11.6459,16.9593,5.1082,4.7769,-1.9401,1.0448,-6.4011,-8.1618,-9.7494,1.7029,-1.4246,
2.5584,-2.4044,6.4863,9.0194,15.4598,9.622,-1.7767,2.5146,-0.94563,-0.71439,-3.8157,-1.9336,1.6008,1.071,
-3.1391,0.39099,2.9636,6.7906,14.2912,3.5011,0.98146,-3.6618,0.79787,-0.9125,0.028641,-4.951,2.7095,-4.055,
-0.78118,3.501,0.13468,10.4809,12.2284,2.0862,-1.729,0.17335,-1.9011,-0.13485,1.2322,1.3716,-3.9605,-0.67817,
3.363,-2.2527,-3.0064,10.093,10.2899,7.9865,-4.7583,7.6348,-4.4381,3.0067,0.43538,13.0999,-7.3383,5.8705,
5.0897,-5.0098,-0.41614,5.1489,13.0467,12.3278,-0.61662,5.7306,-0.31568,10.0574,2.3372,18.0982,-0.63126,7.4462,
-1.0007,-1.3347,-5.6938,0.50166,7.9256,7.2498,-2.5078,2.9762,-5.5994,8.0077,-2.6233,16.5304,-2.5216,9.8919,
-2.146,-1.0137,-6.0751,2.6407,2.3884,0.78885,-1.6344,4.9668,-2.6123,5.8395,-1.743,16.2615,-2.6112,9.5394,
-1.776,-2.1579,-5.4694,4.1693,9.2347,3.3928,-1.2952,4.4281,1.1601,11.9973,1.4949,10.2243,-2.2134,-1.3971,
-6.4897,-2.9923,-9.4795,-1.3831,5.3067,-0.66711,-0.25314,-3.5504,2.5367,8.385,2.3695,-4.4891,-1.1167,-15.4132,
-3.9312,-2.0899,-5.7777,0.86907,-2.4838,-6.6526,5.7876,-5.9885,7.9281,2.3383,3.4322,-12.5352,4.9758,-15.573,
-3.4543,-0.75966,-5.6725,4.4319,1.2802,-9.8689,-0.10374,-4.4243,0.46257,0.51075,-3.2817,-13.9523,0.097546,-9.5774,
-2.5242,-2.4009,-1.7163,3.4431,9.6398,-6.6257,-0.33802,-2.9536,1.1577,-1.2071,-0.43325,-12.3922,-0.14881,-8.7618,
-3.3364,-5.1491,-4.5056,0.3442,11.9537,1.4849,0.64636,-0.8484,2.5347,-4.5089,4.8956,-4.4176,-0.62205,2.3694,
-5.0648,-2.43,-8.574,-2.569,1.5955,3.324,-0.83868,0.16683,2.3827,-3.2741,5.5658,-1.2605,-1.5491,10.9039,
-5.0017,-4.4536,-6.3721,-6.512,-7.9005,-2.4193,-1.0296,-3.4588,-0.41163,-1.8726,2.0985,0.020197,-0.73298,1.8138,
-3.9789,-2.4994,-3.8209,-2.0241,1.4914,0.85911,-1.6909,-3.0101,-4.9664,1.855,1.7314,8.4549,-0.4478,-2.3927,
-4.2219,-1.3849,-1.6632,1.472,4.2946,-1.6023,3.2315,-4.2755,0.15202,3.1902,2.5917,3.1276,1.0251,-4.1771,
-4.4505,-1.7842,-4.9379,-3.437,-4.1582,-10.6652,1.5913,-3.0551,1.1068,1.5525,-2.3841,-3.809,-0.00027819,-7.3009,
-4.9068,0.010103,-9.2209,-6.3643,-6.0781,-6.8918,-3.5658,-0.70266,-0.16447,0.736,-2.9644,0.03497,0.72264,-6.1399,
-4.8532,-1.6775,-6.4987,-7.6694,0.3126,0.029392,-0.21862,-4.2757,2.9787,0.93304,2.7573,-1.6546,2.8487,-2.1559,
-4.5622,-1.5766,-6.1085,-7.209,7.0425,4.8481,0.75905,-2.5731,0.38958,1.8412,3.556,-4.4471,0.74933,-2.0263,
-2.601,-1.7232,-5.9832,-4.6076,4.4506,4.316,1.9186,2.1608,3.0175,-2.3669,2.6195,-5.3858,3.3557,-2.1459,
-3.1685,-2.343,-4.9011,-2.6441,3.9423,3.3339,0.59794,4.2001,3.5596,-3.9119,-0.67142,-2.4114,3.3951,6.9007,
-2.0141,-1.7204,-0.75065,0.40706,10.9366,3.6158,-0.8842,9.2507,-4.8491,1.1431,-3.0413,7.3743,-0.18261,15.6457,
5.5786,1.9982,4.3561,2.5523,18.2346,2.1941,3.2667,7.4908,-5.763,7.1005,-2.1354,16.3318,-3.7871,9.1633,
5.967,-0.29108,-3.8593,-1.2165,22.202,3.2675,-3.437,-0.43019,-9.5148,8.3615,-7.5511,19.9314,-13.442,1.6239,
7.0552,-5.0939,0.71061,-0.6616,23.28,4.9996,1.1075,2.9696,-1.7131,9.306,0.13277,20.1818,-3.4765,7.311,
6.3909,-4.5473,3.8015,-5.2012,17.3039,-2.7722,4.6565,1.5866,0.076918,-5.3523,3.7402,4.8709,2.7577,-2.0457,
9.3817,8.2588,-0.76518,-4.8894,27.8346,0.76885,4.8592,3.4194,-1.3737,-13.8288,-0.34035,-9.5214,-0.30008,-13.9743,
14.1214,8.2452,-1.2012,-4.1141,39.6619,7.4712,5.5316,2.2503,0.63689,-6.7325,-0.32039,-13.7706,-2.6922,-8.3151,
14.4792,-1.1673,-4.2624,-5.5542,42.826,11.1205,-2.2719,-5.8386,-8.8016,-0.78473,-4.8802,1.1557,-10.4846,5.9223,
17.2259,-1.8202,-3.2837,-4.0157,54.3565,13.1043,-3.3409,-5.7293,-13.8171,-0.97861,-12.5416,15.1863,-14.9172,9.182,
21.4948,-0.74688,-2.1226,-4.2569,65.1951,8.4615,-3.6226,-3.4576,-18.2905,-7.6686,-19.5017,4.3932,-21.2528,3.3286,
26.713,5.3235,-2.7182,-2.7962,75.3834,13.9798,-4.1281,-5.4193,-22.2547,-8.8957,-19.5369,1.4781,-23.1107,-1.4504,
28.4844,6.932,-0.62711,-2.1467,84.9604,21.3359,1.9044,-8.9503,-14.6527,-8.8441,-18.8468,-1.5029,-14.9754,-12.4508,
28.2214,9.4084,-0.10732,-0.57142,93.9628,23.43,3.2361,-3.5928,-11.3632,-9.2776,-19.162,-5.7513,-10.2207,-12.6679,
29.4204,9.808,-1.5469,-3.4294,102.425,19.6138,4.0061,-1.4493,-15.0199,-14.9876,-16.0839,-16.4932,-13.4636,-9.4974,
29.5836,3.9171,-4.3464,-5.634,93.6282,15.5447,6.1756,-2.3264,-18.4573,-23.2472,-18.9755,-26.1087,-16.5124,-13.7481,
23.2289,2.9587,-5.7728,-1.681,85.3589,10.5147,6.5284,0.94622,-19.519,-23.5396,-20.4885,-21.8911,-12.8706,-9.3078,
18.7019,4.4686,-0.84694,0.10731,71.3196,3.3761,8.3061,-5.1359,-13.286,-18.5116,-14.1973,-18.8901,-9.9289,-7.5442,
17.58,5.647,2.0962,3.9575,54.0252,7.0301,7.3256,-5.7918,-11.0428,-7.7601,-10.9351,-11.008,-10.7792,-7.0914,
9.2941,-0.95855,-0.9219,1.3097,36.6837,3.2337,3.9937,-2.552,-10.3804,-4.8842,-10.2792,-5.5271,-8.2041,-5.7018,
3.434,-2.8295,2.0257,-3.1075,20.3827,-6.6011,5.2001,-1.9167,-0.59835,-1.2169,1.425,-0.37497,1.9289,-6.3238,
-3.0387,0.71454,-2.9163,-5.8133,5.0597,-11.9898,1.5139,0.12624,-0.080742,3.1947,6.6419,1.5755,3.2592,-6.4265,
-3.8203,2.6003,-2.2594,-2.572,-9.3439,-11.7524,5.7614,3.0112,3.2986,2.0391,4.7971,-1.4111,5.9562,-0.73827,
-4.0735,0.5161,0.76868,-3.8639,-15.05,-12.4935,4.9338,-0.54394,1.6544,-0.49381,-3.6854,-1.3264,3.1887,-0.69397,
-4.0696,-2.1664,0.48159,-5.3193,-19.2082,-9.5743,1.0223,-0.75227,-0.61358,1.223,-0.33078,2.3686,0.82821,-2.8215,
-4.5487,-3.7237,-2.1989,-7.1693,-24.0817,-11.1694,2.6482,0.98009,0.62807,-2.4658,6.1965,5.3599,4.3939,-0.96498,
-2.8298,0.83831,-3.9949,-1.9187,-17.8163,-10.0171,2.4891,1.8854,-0.85565,-1.3537,1.9681,7.4482,6.5402,3.431,
-2.4188,-3.7915,-2.0682,0.84777,-22.2907,-8.693,6.4373,-0.87907,3.7752,2.3432,1.1274,3.8681,5.907,-0.87197,
-5.6479,-9.3484,-0.49808,-2.0954,-33.969,-10.0998,7.9795,2.066,10.7793,2.2023,13.1106,-0.70254,5.5524,-1.7838,
-11.576,-7.8236,-2.8783,-4.3802,-35.3053,-14.3145,2.1976,1.4596,10.6145,1.1059,16.6623,-9.8194,7.1474,0.25101,
-10.8812,-4.4619,-0.29526,-3.1529,-30.7766,-14.9017,3.0303,-1.5198,13.3518,2.9679,16.1447,-12.1225,13.4673,0.71811,
-12.157,-2.266,-3.652,-1.9998,-33.2688,-7.2591,2.3661,2.4273,10.1406,2.7899,12.2835,-3.6824,10.2487,0.67502,
-14.0787,-5.2635,-2.71,-4.049,-36.8158,-4.172,2.4656,-1.8152,7.8449,4.7916,8.8954,6.4209,6.0188,1.8398,
-13.7159,-6.8759,-1.1011,-5.2523,-30.2685,-3.9217,-1.0568,-6.0451,6.4099,10.2887,11.2542,13.266,6.6215,7.514,
-16.9905,-4.2939,-7.0608,-2.2859,-29.1756,-3.9276,-5.091,-0.13853,6.2665,8.4663,13.7122,12.7113,7.4293,3.448,
-19.3455,-5.4826,-4.2266,-3.113,-35.1378,-4.6558,0.035193,-2.5408,7.8187,5.5482,9.997,10.0204,7.4659,-3.9897,
-15.5332,-1.0563,2.0525,-0.2747,-28.4502,2.6134,0.75598,-2.1474,5.1804,11.2409,6.2641,17.3729,8.7047,10.3496,
-17.7347,-0.75169,-2.1682,-1.4633,-31.8042,0.28721,-0.012507,0.63324,6.0747,8.8794,6.6114,15.1255,8.4236,16.3566,
-20.2861,-3.3579,-4.6894,-2.5805,-39.2962,-2.3813,-0.25249,1.3179,5.4695,5.2129,6.4554,11.0847,4.303,6.4574,
-15.2125,-0.26415,2.3406,2.8767,-30.6717,5.4745,-0.71951,4.1311,4.1772,8.7568,4.6221,13.3119,3.0808,3.1777,
-12.6123,-2.4175,3.4055,0.53494,-28.5904,2.0126,-0.9173,0.2683,5.1314,0.27764,3.6219,1.185,6.0294,-0.14603,
-10.1686,-2.0317,-1.3784,-1.1846,-30.0085,0.20437,-0.62153,2.4211,5.0647,-4.319,6.0554,-2.9837,6.8722,2.9955,
-11.7279,-2.1507,-1.5366,-1.8364,-28.4492,2.3613,-0.34327,2.0349,5.0018,-0.44444,7.8613,-2.5637,6.7009,4.0211,
-9.8187,-5.1547,1.2067,-2.4492,-22.1625,3.4253,0.40069,-2.6665,3.4964,1.7518,4.2565,-0.24026,4.6121,0.6468,
-12.1223,-9.184,-0.31177,-1.3386,-32.884,-0.15486,-1.5518,0.38534,2.3225,5.021,2.5551,6.0404,4.3351,2.054,
-18.8665,-12.2484,-0.052098,-4.8732,-43.6852,-8.5812,-2.1816,-2.7708,4.8347,2.5505,3.1247,0.6168,5.2803,-0.72031,
-14.6013,-4.0414,3.5667,-3.8577,-26.9641,-4.9331,1.0826,-3.8096,2.8572,1.1924,3.1784,-1.1077,4.2403,0.52797,
-8.6635,-3.0763,1.1833,-5.7956,-11.2463,-8.7347,8.0073,-0.44779,2.9269,-2.0124,1.7827,-7.0665,4.2271,-4.5656,
-8.8668,-8.9172,-0.57494,-10.9915,3.5285,-21.467,14.0348,-0.66189,7.813,-4.5432,2.3986,-18.9351,8.5528,-11.2811,
-9.058,-3.8027,-1.7455,-9.6089,17.4168,-19.4559,11.9876,-5.2017,7.103,-0.17299,7.3161,-16.5939,12.1372,-9.3992,
-9.7195,-4.7796,-1.3996,-10.7196,28.1822,-18.0473,10.5452,-7.5409,8.3643,-0.40381,12.421,-5.2342,10.2039,-11.0046,
-16.8494,-12.2056,-6.1363,-15.379,19.7423,-23.2314,4.1275,-5.6422,3.0417,-0.86152,4.9268,1.3464,0.43263,-8.8981,
-15.1151,-9.3039,-5.5269,-11.805,25.5474,-20.632,1.7109,-5.0625,0.68984,5.216,2.9442,2.4711,1.6117,-1.3745,
-11.798,-8.7459,-1.3392,-11.0967,21.1223,-20.8406,2.0904,-7.6515,0.16674,2.0107,4.6955,-2.4976,5.3716,-8.5227,
-9.1617,-5.3286,-2.2227,-9.4665,14.5528,-16.2157,2.4469,-1.8893,1.1206,0.4438,5.8601,-0.41956,6.0132,-9.9395,
-8.612,-6.4549,-4.0173,-10.8268,12.7155,-15.2425,4.7105,-5.1506,3.9457,-0.54692,3.0986,-2.8047,5.6527,-7.4147,
-6.4083,-4.8628,-0.64322,-9.4542,14.6037,-12.6412,4.6688,-2.6724,2.0217,0.69119,2.6712,-2.8774,2.6619,-4.3187,
-6.5057,-6.0173,-2.0509,-8.887,14.6918,-13.3285,2.4605,1.3443,-1.4736,-0.79655,0.58276,-1.2585,-2.8,-8.8803,
-7.0797,-7.5844,0.00035795,-4.9795,10.9177,-14.9394,4.723,-2.1108,2.4707,1.6614,0.065865,-0.70107,-0.22184,-11.2396,
-7.1369,-4.719,-0.48183,1.1038,10.7448,-11.1508,2.0292,-0.055719,1.8408,7.3465,-0.42025,-2.105,-2.137,-6.2271,
-4.2985,-7.8103,-0.93485,0.55587,9.6178,-12.4099,3.3537,1.8758,1.7303,4.0132,1.0512,-6.3175,-3.455,-7.7817,
-3.5585,-7.8234,0.085337,-1.4059,2.7744,-13.5933,4.1166,-4.0211,2.1087,0.39818,3.8804,-2.0818,-1.8012,-12.1348,
-11.7811,-4.2212,-2.0892,-4.455,-5.8284,-11.5726,-1.1918,-9.3241,2.2229,3.0252,1.4782,2.1402,-1.4524,-9.2378,
-14.6892,-7.5829,-3.6506,-8.767,-8.1298,-13.5294,-3.2895,-8.5232,5.223,7.4234,1.1486,1.7713,1.2863,-4.1038,
-12.1208,-6.8872,-5.6009,-8.9641,-5.4726,-15.3689,-5.2615,-5.8429,2.7402,9.6293,2.7666,5.7621,2.4142,-3.6168,
-10.9114,0.27496,-0.44463,-6.4981,-8.0368,-10.5904,0.83877,-5.9743,6.9142,7.6053,5.9751,3.4882,7.0896,-6.2919,
-8.5697,3.8739,2.7155,-4.9031,-6.3493,-2.4832,6.814,-2.4823,14.9354,4.0159,9.232,-3.229,8.8334,-6.6377,
-8.5377,3.1591,0.62441,-4.6089,-4.0401,-3.7804,8.8157,2.9693,15.0032,-0.081858,12.0525,-7.3736,10.714,-8.1676,
-7.5433,3.9336,6.8537,-5.2965,-4.7618,-10.3025,13.5892,2.3089,14.1032,-2.4868,14.7036,-5.9671,15.8555,-6.7135,
-10.7059,-1.3634,0.89908,-10.0402,-0.86047,-12.8174,2.8922,-4.3373,3.8573,-3.0608,3.4578,-4.4036,4.5405,-5.5875,
-5.0023,-3.9334,0.60394,-6.3045,-2.0144,-8.9153,5.8514,-1.4258,10.615,4.5945,9.7575,-1.9704,7.8833,-7.9036,
-3.9788,-3.4562,3.2188,-4.239,-15.9935,-9.5852,9.5981,1.7933,20.3424,10.3448,21.4646,0.31698,17.2922,-9.5986,
-9.2837,-1.5616,-2.0358,-5.6717,-26.0004,-2.9846,-1.3418,0.96255,11.1684,9.4829,12.7052,9.6982,9.265,-2.5149,
-4.8703,-1.9498,-2.3956,-5.3316,-22.9944,7.7998,-5.6001,-0.54146,1.8212,1.2012,-1.073,13.9365,-1.8962,1.0104,
0.48338,-3.0381,-1.5289,0.53192,-35.353,18.66,-6.4689,5.0346,-2.3855,-3.9326,-6.0699,12.8594,-5.8798,3.6009,
-4.8483,-4.7843,-4.3295,1.4641,-47.3318,19.4684,-12.8299,7.1429,-4.1708,-3.6964,-5.7059,11.1237,-4.0809,4.3489,
-6.2444,-1.3635,-2.8647,2.5815,-58.5919,18.0595,-15.6753,7.4375,-4.6436,0.14058,-5.1224,18.4103,-6.005,5.2931,
-0.56729,4.5029,0.19974,8.6932,-54.1123,20.8323,-12.3247,11.8115,-4.365,7.363,-2.4049,25.9828,-7.5729,8.8319,
-2.2205,-1.793,-1.4997,6.0022,-56.4094,15.4848,-12.3079,8.4515,-2.8981,8.6082,-3.9476,19.8438,-6.8778,3.7224,
-3.0511,-1.6852,-1.4095,7.0885,-49.6502,16.0018,-15.9079,10.3547,-3.2059,13.3946,-4.1929,25.4023,-5.983,5.9094,
-0.93986,-1.1022,-1.3249,6.6632,-44.743,14.5597,-13.9896,9.7335,-2.5316,11.1446,-2.4951,26.2883,-7.0702,7.0011,
5.3833,-0.55412,0.68277,5.2991,-37.7201,13.2042,-8.3295,3.8468,-3.826,3.7275,-1.8634,18.9264,-6.1636,6.0991,
6.9885,7.1919,2.57,8.3556,-26.2981,16.2683,-7.8297,7.9543,-7.4528,3.9858,-2.2336,21.6472,-6.2762,9.1072,
0.78459,4.3503,0.48761,3.034,-33.879,10.9539,-10.252,7.9594,-3.1492,2.3004,-2.5815,16.0101,-6.8635,4.2224,
-2.155,-1.2134,-1.4698,1.4057,-41.4872,9.3324,-13.0114,3.6255,-2.4783,1.6804,-0.98078,10.2288,-4.5235,4.4515,
-2.0257,-1.6228,-0.41756,6.6238,-37.5519,7.8083,-11.2666,-0.93059,-3.7757,4.9538,-0.43978,11.5435,-1.8417,3.2203,
-2.6273,-1.7661,2.2588,7.9134,-34.5757,3.7242,-7.9397,-1.5979,0.06606,11.1643,-3.5466,15.4299,-5.8288,-1.0705,
-1.7465,-2.8657,2.364,5.2696,-28.4038,8.5626,-7.7041,5.0057,-1.6249,14.5916,-4.057,17.1554,-8.6123,7.4296,
0.52742,-6.3087,4.3918,-1.5545,-22.1201,8.2898,-3.6264,3.5001,-1.7684,7.6905,-3.5726,10.1006,-4.4802,6.2605,
2.6652,-0.86897,6.2975,-6.0405,-18.1415,6.5872,-4.1317,1.6033,-0.93937,8.9163,-4.0811,12.628,-4.4523,-0.14069,
0.094902,1.5935,5.9194,-9.0525,-23.8017,6.1922,-5.8122,3.4351,-1.8471,15.6124,-2.8722,18.619,-5.6317,7.0988,
-4.2493,-2.8406,2.19,-15.258,-26.7122,1.0001,-3.0532,-0.62766,-3.1823,12.7473,-1.2538,17.5016,-6.7398,9.5647,
-3.7534,3.8377,-2.0388,-13.6197,-13.7812,6.4833,-0.21887,2.0616,-0.82221,12.2234,0.99058,19.585,-2.72,4.8935,
-3.528,-0.7313,-2.8808,-14.7304,-13.9185,5.6124,-2.6159,0.97353,0.67338,5.7054,-1.9609,6.8408,-1.5929,-2.1486,
3.4324,-2.6156,4.041,-11.4365,-9.7089,2.8655,-1.977,0.91512,-1.7771,3.9168,-2.3257,1.6096,-4.8714,1.8367,
1.5394,3.5671,3.5573,-6.1708,-5.0288,2.4528,1.2749,2.5477,-1.4298,5.3693,-2.4269,7.5388,-3.374,0.52146,
-6.2659,-0.50332,-0.51249,-11.103,-13.4042,0.85939,-0.72979,0.46662,-0.37967,-1.7018,-5.1738,2.2662,-1.2434,-4.8125,
-1.3105,-0.71408,-1.2046,-10.6777,-10.9127,6.3514,-0.92697,4.536,0.36601,-0.87633,-1.2479,-1.0032,-1.8917,2.4662,
-1.2318,-4.0455,-1.6145,-10.0373,-14.1143,0.18555,0.57468,-2.4849,1.7901,-1.7878,1.2373,-0.46088,-1.2965,-2.5028,
-2.6042,-1.8748,-0.55356,-8.9531,-14.7137,2.5848,-0.4239,-0.88974,-0.24529,-1.6808,-2.6935,0.53041,-0.73652,1.0221,
5.988,10.53,1.1671,-2.3902,-6.3591,16.5297,-1.1211,11.9383,-1.4356,2.5176,-2.2907,1.7041,-0.93352,15.0608,
6.1111,3.1498,2.061,-3.6928,-20.0775,25.2994,-1.5363,5.9194,-1.3495,-1.0079,-1.6714,3.0481,-5.6978,12.3494,
4.7799,2.4786,5.7935,2.7953,-32.9729,27.6375,1.4482,7.0102,-1.7507,5.8013,-1.0889,16.9652,-4.3918,13.5364,
7.1446,5.9453,6.6511,5.7611,-22.7996,27.1846,3.0485,8.7588,-0.44035,13.4069,-2.2289,22.3343,-2.9235,15.8577,
5.9928,1.491,4.0831,5.1742,-10.5853,20.974,0.2143,3.6537,-0.65513,9.9516,-1.8539,13.0403,-4.917,12.2549,
0.57157,5.0172,2.6326,8.4794,-16.4582,18.9924,-1.0036,7.0502,-2.3028,3.3288,-0.055705,8.6427,-1.4887,8.3864,
-0.42682,4.7159,1.0286,7.0065,-25.5936,11.1042,0.50263,6.145,-2.1649,-0.72757,-2.4623,-2.4809,1.4929,1.6164,
5.8655,4.433,-0.47934,11.4064,-14.417,9.4741,1.9187,5.2944,-0.58873,5.1007,-2.7969,1.0419,-0.042931,5.8578,
6.4779,2.2388,-0.93251,12.1683,-9.6954,16.1365,3.2499,4.9767,1.3748,3.8308,-1.6648,12.549,-1.9685,11.7733,
4.6428,1.1404,2.4977,10.4741,-12.0062,20.4707,0.64452,4.6779,-0.63612,0.22623,-3.0109,9.3857,0.077988,12.031,
9.6668,6.3746,8.1324,16.5941,0.28338,22.1345,-1.3223,9.2179,-2.5261,4.069,-1.3845,2.5561,2.0015,12.273,
4.7485,0.68949,3.7885,6.9218,1.7126,13.0937,-1.7249,2.8803,-0.44638,-2.9235,-0.819,-8.2026,-4.3856,3.8238,
0.84841,2.3356,-3.4289,2.8913,-5.8619,15.9237,-0.41638,1.5024,2.7141,-1.0611,0.4352,-5.0591,-2.9169,2.3893,
-2.3362,0.026048,-5.8745,7.2969,-11.0538,15.691,-3.0427,2.6168,0.86381,5.5102,1.6142,1.7521,-0.57296,4.4149,
-6.2932,-4.0731,-1.9064,9.5104,-4.365,9.2061,-6.9577,2.701,-1.8393,4.4565,1.2761,8.1547,-6.5644,10.1758,
-6.6389,2.1968,2.7873,14.9658,6.261,16.1256,-4.3707,7.6006,-1.9699,6.8407,0.47664,17.0654,-4.0009,20.4115,
-7.4459,2.7882,2.8608,13.3442,1.3058,16.845,0.47064,3.047,-1.1286,2.8146,-2.2033,9.5333,1.7826,10.269,
-8.4452,0.21051,2.2074,10.1337,1.2274,16.3165,-1.0036,4.7926,-0.096806,-1.2105,-1.107,5.5871,0.22957,3.3861,
-13.4818,-4.3814,-1.5404,7.3565,-1.4973,14.1327,-4.0764,5.228,0.63236,-3.307,-1.2815,2.1189,-1.4714,3.4239,
-13.8782,-4.8419,-3.1352,8.6019,-5.5051,11.1151,0.2655,-1.1113,0.83493,-6.724,0.48258,-6.4444,0.78602,0.56737,
-11.5995,-0.69498,-1.5008,10.4959,4.4662,12.3764,0.73151,0.40122,-2.1072,-8.2492,3.8276,-5.0939,-2.1537,3.9073,
-13.7958,-2.0991,0.5174,1.6714,6.6084,8.2593,0.68762,0.85954,-0.052601,-9.6824,-1.2223,-9.1266,-2.0244,-0.1835,
-11.2806,1.1601,-1.683,-0.59778,6.4531,9.4512,4.7439,1.0492,-1.7364,-9.3422,-9.5849,-16.0505,2.6765,-8.126,
-7.2293,3.5009,-1.5818,5.7048,11.8507,9.3663,6.8697,3.3966,-5.0065,-12.1559,-8.5276,-17.0155,1.0699,-11.4951,
-3.9035,1.3624,5.2618,7.2905,18.8522,6.8759,6.9392,1.7463,-0.84993,-13.355,-3.6779,-9.2463,-1.8866,-7.9131,
0.42829,2.9679,3.7408,11.4328,31.8211,14.4176,4.3537,1.4005,-0.55797,-4.5995,-1.2876,-1.7017,-2.9782,1.4798,
5.946,1.1026,2.3115,13.3979,41.8429,20.5419,6.7435,2.0394,-3.1756,-3.1187,-2.8975,-5.6969,-3.5229,1.632,
8.9637,3.9289,6.0292,11.1478,45.1169,24.1301,7.7852,3.3633,-5.8776,-5.8241,-8.0263,-6.8014,-4.2758,1.0521,
7.2206,10.6831,2.052,7.3459,43.6147,26.7797,1.7745,0.99235,-7.2121,-10.5359,-13.5703,-11.4545,-6.6704,-3.1084,
11.8488,7.3908,0.72382,8.5922,49.9161,29.2705,2.8731,1.1735,-4.1281,-13.0374,-12.5153,-19.2031,-6.029,-10.8758,
21.5019,6.7061,0.4392,9.7636,61.0211,36.4316,2.9419,7.6108,-10.8705,-15.3884,-17.3083,-21.6666,-11.693,-9.0182,
27.9248,10.1604,0.41308,4.8397,71.4599,40.5129,5.1757,-0.076421,-17.4484,-26.516,-24.4642,-31.9355,-14.3656,-12.3333,
33.4802,15.8173,4.7266,6.4775,81.2723,39.5284,10.1678,-5.8564,-16.4015,-27.3356,-20.5858,-36.2864,-11.5755,-22.1986,
34.1227,18.0015,5.6481,9.7041,90.4959,32.5772,11.2448,1.967,-14.6943,-24.008,-17.1817,-34.3499,-10.6398,-27.3744,
34.0035,14.9932,6.755,7.1936,99.1662,22.4274,14.9084,3.2948,-13.8131,-30.7627,-16.1508,-42.8942,-7.5917,-28.6244,
31.9635,15.5396,6.3499,7.7261,107.3162,12.4049,13.5322,-2.2053,-15.8766,-27.9529,-14.2177,-43.6948,-6.1717,-26.4248,
27.1532,17.0174,9.8253,9.1907,114.9772,1.0553,13.2022,-3.5193,-10.5852,-13.7422,-10.9545,-29.504,-3.3912,-18.5728,
20.7035,9.2481,7.7898,7.1933,110.1273,-6.7206,11.446,-2.8259,-10.9142,-10.5073,-12.2252,-18.5749,-4.1519,-11.6736,
19.2204,6.0417,4.1894,8.4489,93.1558,-2.7019,12.9284,-0.48722,-8.5721,-9.6359,-4.0199,-14.3269,-1.2512,-10.7322,
17.103,8.5715,6.3479,8.9061,75.0327,-5.914,16.0093,0.024173,3.0292,-4.7192,9.7189,-17.8059,7.0184,-13.9445,
8.3639,9.9856,3.0747,5.9613,57.9975,-12.7898,11.6745,1.9511,4.7759,-3.472,8.1717,-20.1117,9.0076,-9.7336,
-1.056,1.4323,1.203,0.54197,40.4176,-18.5308,9.7683,-1.2999,4.7298,-8.3253,4.5479,-21.0747,8.7081,-9.3905,
-4.3669,-2.5098,3.5412,-0.45464,23.8926,-18.3826,7.2542,-3.6318,8.3026,-6.8617,9.0955,-14.5073,10.1141,-10.7551,
-8.6844,0.29209,-3.6609,-3.0787,8.359,-17.5208,-0.17068,-1.7269,5.1532,-2.8348,6.8623,-5.201,8.7841,-8.4228,
-10.0915,-3.0999,-5.8514,-9.6424,0.024006,-21.2898,4.6598,-2.1052,5.8083,-3.1467,1.6303,-2.4788,8.257,-5.9892,
-12.1374,-4.6009,-3.3314,-9.3051,-1.6644,-22.1818,3.6571,-3.1839,1.3622,-2.7167,0.80937,-1.6069,3.1821,1.8417,
-13.0964,-1.674,-0.48017,-2.2391,-9.5185,-23.5023,2.2326,-5.1623,2.0036,-1.3486,6.3042,-2.7156,4.1962,4.3826,
-14.4797,-3.7427,-2.1386,-3.31,-22.2038,-26.6714,2.822,-7.9856,7.427,0.90148,7.6132,-4.7218,8.0418,-3.3522,
-19.3953,-9.7846,-9.2407,-8.4136,-23.7636,-22.661,-3.6138,-6.0602,5.5351,7.5963,2.8181,1.828,5.1492,-5.5612,
-19.1957,-14.5002,-5.7942,-8.3907,-18.9634,-23.7115,-1.9512,-8.1072,6.6493,8.1044,3.6133,6.0571,4.3583,-5.7095,
-12.5003,-8.5683,0.57927,-2.8258,-18.0668,-25.422,1.7815,-10.754,3.599,2.5567,5.0835,0.63225,4.338,-3.6799,
-10.3043,-4.68,1.9905,0.23603,-18.4288,-20.5225,3.1207,-5.2883,-1.9194,1.4392,2.3681,-2.7804,4.5594,2.3257,
-16.1937,-13.317,-5.1185,-3.8757,-13.7079,-22.4244,-2.61,-5.6941,-5.9018,1.1116,-7.6557,1.484,-4.632,1.463,
-12.571,-9.3847,-6.4989,1.9002,-7.8239,-16.9818,-4.6228,-3.6655,-1.9325,8.035,-4.5455,13.2049,-3.6309,6.9186,
-7.7192,-5.2062,-2.0116,-0.38297,-21.4545,-18.614,-2.1762,-7.0605,4.2095,5.3833,3.6815,4.4589,3.5763,3.37,
-3.1584,-6.0994,-0.20344,-4.9395,-25.8313,-20.1485,-4.215,-4.9499,3.7157,3.3733,5.1476,0.57614,-0.25344,1.4808,
0.4053,-6.6971,-4.5298,-1.2685,-15.1222,-15.5653,-5.4082,-1.2787,6.3851,6.5451,6.7671,1.0237,0.24393,5.2486,
-1.5472,-8.7058,-4.7399,-1.1923,-17.1074,-12.7032,-1.2273,-6.5041,11.3046,0.36785,12.1457,-10.6069,8.9059,-1.8152,
-4.3469,-5.2912,-3.0095,-2.5673,-14.6349,-7.6025,1.2562,-1.2938,9.1798,-2.5465,12.3806,-10.935,10.2995,-6.5268,
-8.1832,-10.0352,-4.034,-6.0284,-17.8539,-13.1717,-3.3982,-1.9389,4.5319,-0.22433,6.0944,-2.8069,3.1743,-2.0376,
-8.1744,-12.3256,-1.8638,-4.7029,-16.7832,-14.7919,-7.0507,-4.7151,2.3318,5.5737,5.7287,2.6642,0.091343,3.8692,
-7.202,-8.6935,-0.30614,-1.5282,-9.0273,-11.0124,-4.6995,-3.9502,2.6738,4.275,4.9031,-0.87011,0.085863,-4.5581,
-4.6005,-6.9666,-1.4926,-3.6056,-13.0649,-12.0384,-0.32013,-4.4361,8.057,1.3674,4.8498,-0.094541,1.286,-5.0075,
-4.3244,-7.0308,-5.2592,-3.3895,-19.994,-11.7982,-6.5677,-3.2059,5.6456,3.6957,6.0049,8.5875,0.24475,9.3929,
-4.5474,-5.6451,-3.9798,-3.1862,-21.205,-12.0547,-7.6199,-1.0853,2.4144,3.9559,5.6446,7.1084,0.23006,8.7089,
0.78738,-1.2088,-0.60774,-0.82561,-15.8351,-9.6439,-3.0651,-0.29706,1.0645,5.8875,2.1727,5.9588,0.457,1.1963,
4.5965,-2.5825,-1.0532,1.1521,-7.1718,-8.101,-3.3631,-0.27924,-0.92761,6.9809,1.5604,8.0118,1.3939,3.5351,
1.6694,-10.3815,-1.2312,-3.9789,-4.0906,-14.605,-1.4743,-2.9138,-0.14928,-0.90996,2.6718,-3.3154,0.1052,3.0818,
6.8719,-3.0097,3.181,1.5625,-0.47069,-9.8723,2.4705,0.63547,-0.13986,-1.3373,4.4397,-8.901,0.098892,2.8969,
12.003,0.78605,4.1956,8.4588,-5.022,-6.1467,3.0454,0.35615,0.10926,-1.9802,3.4502,-9.0901,2.2623,-6.1948,
13.6929,2.6675,3.9439,7.4689,-5.2026,-6.7418,1.4164,3.7092,2.5133,-4.2715,3.2432,-4.2064,3.0905,-6.305,
11.6663,8.0509,2.0198,3.4056,-0.79285,-7.5428,0.60831,7.5838,0.67504,-3.2925,2.3254,-0.82072,1.218,2.9911,
8.0742,3.7114,1.8986,3.2012,-4.6017,-10.4642,1.5361,3.2724,1.5989,-1.6487,1.704,-5.5917,1.145,2.8116,
6.8667,-0.60884,-0.38468,7.5887,-5.5311,-6.7031,-3.1355,1.871,0.7798,3.9936,0.39668,2.6973,-0.12925,5.7762,
6.6956,-0.33134,-2.0484,3.036,-4.9578,-5.0956,-2.7064,-0.41044,0.49205,3.0311,-0.35048,9.5253,-0.36247,4.2248,
8.463,0.4119,-1.2026,-1.7259,-1.0449,-8.8877,2.9996,-2.555,0.22156,-1.2482,1.8402,0.036194,0.86457,-6.875,
6.9914,0.38718,-3.0586,2.234,-0.018345,-5.4619,0.40945,0.0084523,-1.7199,1.7193,5.1038,-2.3766,0.33077,-7.4268,
2.2331,-4.4568,-3.357,-0.79206,-13.997,-5.1342,-3.4715,-4.3304,-0.17093,-0.79449,2.8693,-0.30578,1.2748,-1.1966,
3.5454,0.63136,-3.1556,-1.7084,-14.121,-4.8262,-1.817,-0.6961,-1.1245,-1.2288,0.76944,2.1232,1.6807,8.0347,
8.8763,1.7988,-0.7971,3.4553,-4.3557,-5.7419,0.46123,1.9968,-3.2262,-1.396,-0.48202,-2.1016,0.37456,3.9367,
16.2977,3.3778,9.1329,8.3095,3.3772,-1.2998,3.5668,3.5644,-0.38133,-1.071,-0.21236,-3.181,4.4497,-1.8429,
12.1863,6.3087,4.0052,2.7497,8.2363,0.46542,0.70171,3.5915,-5.9021,-8.961,-3.8146,-4.195,1.5311,-1.0094,
9.527,3.0376,-1.0554,-0.30783,9.1883,-0.52683,7.4081,-0.96276,-0.72769,-11.7978,-0.21171,-6.8358,3.3675,0.97937,
8.7144,-1.242,-3.1612,-1.4947,-2.2092,-1.7001,4.7944,-4.038,1.9675,-7.4745,1.9702,-10.0411,5.3346,-1.7305,
9.1556,0.76049,-0.07927,-1.8867,-4.487,-5.9366,1.6145,-0.42151,1.3673,-7.9901,5.2266,-13.7772,7.4249,-5.9652,
11.7398,0.95629,3.059,-2.9788,3.7364,-8.2315,3.6867,-2.5654,1.5262,-11.6076,1.7795,-15.1192,5.7745,-8.7403,
14.4094,5.2372,1.4287,2.5026,5.9223,1.9034,-0.39084,-2.4115,-0.49353,-3.1988,-3.6299,-4.0892,1.0893,-0.50359,
8.7246,3.9587,-0.10281,2.3524,-1.1819,-0.13904,-4.7057,0.14335,-0.94585,3.742,-1.002,0.97642,0.060055,5.7936,
3.1394,-0.85814,-2.7482,-3.3323,1.0582,-3.2642,-5.1467,1.34,-3.5407,3.7585,1.7097,4.5333,-1.1488,7.6151,
1.9872,-2.2529,-9.3317,-9.8813,2.9229,0.78805,-0.49915,1.2596,-2.3639,1.1228,-0.803,2.3331,-1.0799,3.3018,
5.4834,-0.91244,-5.6384,-10.0113,6.3629,-1.9103,2.6638,1.425,1.8753,-1.1137,-0.51385,0.023925,0.67211,1.4165,
6.8411,3.2397,0.72503,-1.4569,16.3455,-2.0371,-4.0035,5.4369,-2.3346,-2.2522,-3.6165,6.53,-1.0554,5.4289,
5.9487,-1.7754,0.68199,-1.3695,18.7392,-0.46864,-4.2452,1.7367,-6.0509,-6.9373,-7.2559,2.2818,-0.51018,2.2111,
10.8944,-0.70458,4.0151,1.1228,31.7148,2.9339,3.2399,3.0783,-3.2777,-5.0753,-2.0003,-2.1934,0.48475,2.5603,
5.661,2.4707,2.0869,-0.14938,41.5014,2.035,2.3226,3.6165,-0.42995,-3.5655,2.6995,-6.1592,-1.2316,3.1296,
-2.8733,-0.56958,-3.3405,-9.7816,35.6373,-0.49723,0.25504,-1.4208,2.9703,-6.726,2.0556,-13.0205,2.6987,1.978,
-0.53132,1.1518,-2.4171,-7.9894,46.2735,5.0762,-1.4475,3.7262,-0.82288,-3.1889,2.1732,-5.2494,5.1884,6.921,
-2.1869,-3.9792,0.37921,-7.751,50.9687,1.156,-0.15557,-0.59499,-4.3892,-8.0595,-0.60851,-6.6219,1.7433,2.4081,
-3.5019,-2.7761,2.7666,-5.8399,51.285,1.5686,5.6383,-2.9694,-0.75135,-12.8781,-0.09007,-15.3831,6.9414,-3.039,
-5.461,1.4878,-2.4606,-5.7305,56.1616,7.5005,5.0591,1.788,0.01663,-9.9363,2.0845,-17.1117,9.6584,-2.1333,
-9.4719,-0.52966,-3.2773,-9.2433,61.951,5.1218,3.7917,-1.6937,1.9438,-5.0018,2.9238,-7.8903,4.2582,-2.9696,
-13.965,2.6354,-2.3576,-7.0015,72.3339,6.02,3.8049,-0.86895,1.586,-0.60409,2.0252,0.5371,2.7976,-1.5864,
-16.0194,1.5134,-3.6624,-6.0992,82.0939,10.961,6.4691,0.14751,1.9732,-2.978,2.3856,-3.3515,6.9681,0.91893,
-16.5045,-5.3263,-5.3708,-3.3231,91.2683,13.1958,5.1167,-3.2358,0.40858,-3.7636,5.135,-2.6685,3.6579,6.1664,
-14.5499,-3.5603,-6.9765,-1.1953,99.8922,12.4043,4.3279,-3.5233,-2.5082,-3.0556,2.8989,3.2764,-2.8283,7.7249,
-10.3027,-0.45435,-2.2194,-1.1238,107.9986,10.6955,7.9244,-4.7584,1.0165,-3.3545,1.2785,4.5259,2.1619,3.8872,
-9.9257,-0.66829,-1.8455,-0.81521,115.6187,13.187,5.7615,-1.3397,-0.24956,-0.50187,1.9249,1.1211,4.2011,2.9303,
-11.0172,-1.3513,-2.4579,-1.4894,122.7816,13.6013,10.4777,2.3564,0.48854,-1.1949,2.5326,-6.4178,5.1546,-2.3069,
-10.3559,-0.30614,0.099945,-2.3642,129.5147,10.8568,11.7775,1.2509,-0.50487,-4.4974,-0.029746,-5.5505,2.9173,-3.6145,
-5.8784,2.1226,-0.87015,1.6338,135.8438,14.0616,4.8036,1.1756,-1.4387,-0.85335,-0.99206,4.4232,-1.1143,3.351,
-3.8387,-1.6202,-4.9158,-1.5974,141.7932,8.1567,7.167,-0.58217,2.745,-0.56119,0.75469,1.0243,1.6036,-3.8399,
-2.6441,-0.076721,-8.4767,-2.9476,147.3856,6.221,11.5577,2.3453,0.65211,-2.9376,2.6376,-3.3754,7.292,-4.0915,
-1.7623,5.4713,-4.8349,0.84465,152.6425,9.9453,10.623,1.9634,-0.11015,-2.5202,3.2025,-3.896,9.0239,3.1437,
1.9586,5.3842,0.9986,1.0349,147.822,9.1074,7.3343,1.6044,-0.82667,-4.5384,-0.12293,-7.2775,2.9386,-2.1064,
2.8055,7.9532,-0.50711,0.97285,141.8452,9.5253,4.0017,8.257,-6.0797,-8.1224,-3.0081,-6.8408,-1.0941,-3.9082,
-0.013965,6.7531,0.24621,0.67351,131.6473,6.3022,5.4493,2.6999,-1.6171,-6.9122,-3.0686,-5.2255,0.17682,-4.3966,
2.156,3.2144,1.9187,1.356,120.133,3.7549,5.3633,-3.0057,1.131,1.4563,-2.1615,1.1135,1.8534,-3.8919,
2.0267,0.1295,-2.5352,-1.1355,108.5867,-0.32675,2.149,-0.41477,-0.86505,5.2253,-0.10365,6.8318,3.1885,-0.76629,
-1.2284,-2.5298,-9.8549,-8.5394,102.3125,-5.8508,-1.5954,-3.0414,-1.5365,2.2607,1.1079,5.2166,-0.61869,-2.8895,
1.2554,0.99642,-11.6738,-9.955,110.2737,-2.1253,-2.9459,-2.377,0.96627,-0.2851,3.4515,0.5648,-0.58111,-5.1262,
6.4827,0.4547,-4.2244,-9.8396,117.7573,-1.5154,1.5696,-0.30574,6.6929,-7.9808,5.1731,-10.5559,6.6846,-10.6032,
8.9863,0.42742,1.3317,-5.3929,124.7919,0.021366,0.99306,2.6047,2.9168,-8.4662,2.934,-12.815,9.1756,-8.0388,
8.4469,1.8478,0.76962,1.6792,131.4043,2.9124,-1.4769,1.9662,-3.043,-1.6915,1.312,-2.8873,3.8046,3.5305,
11.3143,2.701,2.1695,2.5427,137.6201,3.7017,0.54016,-3.9361,-3.3421,3.2304,-1.659,5.9632,-1.2442,9.1035,
14.7333,6.6363,-1.5761,0.22101,143.4629,5.1669,-0.21515,-4.4233,-6.757,3.76,-8.0674,5.3645,-2.8568,-0.84275,
17.7056,5.2743,1.8929,3.1003,136.7833,6.3031,6.5467,-0.78344,-1.0489,2.5701,-1.3164,2.1501,3.5816,-6.0948,
10.3763,-1.7911,2.2613,1.4675,133.879,0.62227,2.779,-5.0748,-1.4684,2.4159,1.1727,3.4673,-1.9364,4.8757,
9.0306,3.8602,-0.52573,4.9951,133.3178,-3.5127,0.92522,-3.0833,0.78911,4.9222,-2.5129,7.3564,-2.0609,9.1631,
9.9348,5.0746,1.4342,5.1771,116.6419,-8.1224,7.1364,-0.48792,2.6697,-0.67598,-3.3266,2.5765,1.9189,-4.8842,
3.0727,-0.050091,1.3482,3.9031,95.5433,-6.1888,4.2981,0.023746,-3.2746,0.3289,0.7298,5.3149,-1.0883,-6.5194,
-3.8606,-7.2784,-4.0354,0.29399,75.7107,-2.443,-0.78047,-1.9063,-4.5244,-0.17277,1.1679,4.5136,-1.505,-3.7181,
5.0477,2.3174,-0.90118,7.0253,68.5165,11.8036,3.6047,8.8129,2.4955,1.7653,1.0979,4.2428,3.4056,8.5561,
1.3706,3.6248,0.11745,6.604,50.3056,20.1339,-4.3241,8.2848,-6.813,1.6601,-6.1986,5.4342,-4.9932,11.4174,
-6.1832,-3.1004,0.35114,4.0383,33.1872,10.0076,-10.0905,0.31567,-8.0912,1.3193,-6.0679,10.1701,-5.4168,2.7784,
-6.2944,0.45985,-2.0798,7.6522,17.096,13.7457,-7.5566,4.6353,-3.7496,1.7223,-4.2578,14.8623,-2.6819,5.504,
-4.9526,-0.049445,-0.027071,7.1933,1.9702,16.2956,-2.7647,5.3213,-1.5962,4.0293,-3.0378,16.3809,-4.4489,15.7793,
-9.9583,-4.8674,-2.4358,1.4588,-12.248,9.0507,-8.3836,-1.2648,-4.3927,8.1257,-4.7839,22.1463,-7.0743,16.2785,
-12.0117,0.48607,-6.3868,4.505,-24.8897,11.6414,-11.9782,3.8726,-6.2985,10.2894,-5.702,26.8433,-3.9985,18.4351,
-10.3271,0.9393,-2.6296,2.7885,-19.54,11.9067,-5.9568,5.5684,-3.5105,1.9593,-4.396,12.2173,-0.86651,12.0263,
-9.4663,-1.7684,-0.78435,-1.9584,-14.7519,7.5772,-2.4662,4.0293,-2.5763,-2.7378,0.44731,0.15627,-2.5015,4.797,
-13.96,-2.8673,-3.8705,-3.5281,-17.4825,3.0249,-1.5951,2.5824,2.1574,0.55975,5,-4.4326,1.7462,1.8579,
-20.1121,-7.2748,-8.6998,-6.4494,-17.6386,-4.6281,-4.6326,-1.1877,-0.62294,3.1775,-0.8434,0.41285,-0.52801,-0.90444,
-19.6285,-7.5615,-9.3828,-5.8217,-10.0726,-3.6273,-8.4522,-0.39331,-4.6831,8.5307,-5.3723,14.4881,-5.5578,0.35489,
-15.0765,-7.5897,-8.8203,-6.9187,-13.8065,-1.9639,-7.9451,-2.2984,-1.5101,8.0184,-1.676,15.1855,-5.2243,-0.63073,
-8.6283,-3.037,-6.6039,-0.47756,-11.7733,1.2874,-7.7094,-0.47324,-4.0706,6.8144,0.11181,9.6947,-4.6699,2.0582,
-8.1106,1.4836,-0.42307,4.3713,-5.2819,1.6921,-1.9442,1.4834,-3.8264,3.0311,-1.8231,4.2927,-2.9434,0.48891,
-11.7213,-0.7746,2.2539,-1.9165,-8.0984,-2.0244,0.82404,0.67145,2.4288,1.1624,-1.4723,-2.4728,-0.59767,-2.6739,
-14.1513,-5.7898,-4.3888,-3.9707,-9.2998,-3.5901,-7.6615,-0.57413,0.11389,7.1182,-1.6249,2.2553,-3.6953,-0.82625,
-8.9637,-9.7805,-2.6795,3.9806,-1.9931,-4.8207,-5.7558,-3.9139,-1.339,11.0297,-0.56332,13.6894,-4.9196,5.0081,
-6.0157,-5.8195,-0.10882,7.116,0.054457,-5.0141,-3.0001,-2.233,-5.1153,8.9214,-3.4223,18.1705,-7.0348,10.9739,
-8.0649,-1.1317,-2.0303,1.8685,-5.2508,-2.7849,-5.2305,-1.1345,-5.7724,7.4225,-5.6268,12.7417,-4.2023,6.9413,
-6.376,-5.1612,-2.1494,-0.41274,0.1255,-2.3763,-7.0858,-5.1642,-4.2208,4.808,-4.0839,10.29,-1.2986,-0.94701,
0.032139,-0.27223,-0.33321,3.7094,9.9999,-0.065055,-5.9377,-0.75704,-2.7627,6.2063,2.1862,12.806,-2.426,0.79704,
-3.1033,-3.3894,-1.5185,-1.0929,-2.4102,-8.0149,-4.3762,-3.8446,-2.8379,3.6647,3.2603,-0.73677,-5.8959,-0.45608,
-4.845,-3.6677,-0.94524,2.8293,-3.2297,-5.1236,-1.2213,-2.6499,-2.6674,0.070628,3.5469,-5.513,-1.686,6.32,
-8.6519,-1.7609,-4.022,0.48989,1.0614,-3.129,-0.42514,-0.32172,-3.2307,-5.9596,2.1288,-6.8695,-0.37952,-0.084781,
-9.3379,-1.896,-2.0937,-6.0468,-5.9919,-7.5208,-0.64037,-1.9899,1.5426,-1.5045,2.7242,-3.806,-1.0799,-10.9257,
-10.4648,-0.095449,-3.6553,-2.069,-8.2839,-4.9004,-4.2174,-0.66518,0.24478,8.9497,0.87348,6.3043,-2.7023,-1.3526,
-11.5239,-3.7047,-7.0509,-4.1136,-7.5455,-7.2574,-3.7234,-2.7944,-0.49235,6.7259,-1.83,0.86482,-2.7811,4.2727,
-6.2532,-2.7597,-3.977,-6.0361,-3.4776,-8.5094,-4.2231,-2.386,0.25987,1.2605,-2.9257,-5.6952,-1.8911,-3.4557,
0.62969,3.914,2.2874,4.6901,5.167,-0.044912,-0.35405,2.3366,3.3775,-0.98409,0.38352,-1.7379,-0.090676,-4.9354,
3.0025,3.679,4.5605,6.3367,4.3748,0.92188,4.4877,3.161,6.5496,-2.8535,3.2528,-6.4541,-1.0493,-3.6752,
0.89369,2.4939,-0.53385,0.17191,-5.0467,-8.2925,0.36157,0.56076,2.2997,0.69219,3.5396,-6.5492,-2.4326,-4.419,
-3.2573,-3.1989,-5.563,-1.5256,-8.3593,-14.3024,-0.38303,-3.5702,-0.007403,-1.0366,-0.77016,-0.61221,0.84681,-9.6975,
1.7586,0.36726,-1.3731,2.4225,6.2422,-0.42907,1.5684,4.357,-2.4169,0.95405,-6.5088,10.5115,-1.6144,0.52558,
7.9199,5.6476,3.0478,4.6871,19.9677,13.5762,-0.93608,11.3257,-7.5747,8.6094,-7.0823,22.4141,-6.8199,12.063,
2.8652,-3.1271,-0.26829,-1.1375,10.5747,6.7358,-3.5312,-0.19986,-4.9508,7.8516,-4.0061,19.3818,-1.8312,5.3139,
-2.6092,-3.4212,-5.5546,-0.58712,3.192,2.4755,-6.2117,-3.0797,-3.2073,6.4169,-2.8012,9.5425,1.171,4.9953,
-3.1757,0.39926,-4.9806,-0.3107,1.313,3.5321,-3.6696,-0.2436,-2.7741,0.0060725,-1.4285,-0.43031,-1.0687,3.49,
-1.2977,2.5447,-1.0661,-1.0152,2.4393,5.4895,1.1301,0.97608,-0.92069,-4.5738,-0.13725,-2.0915,3.093,-2.2627,
2.6363,3.838,-0.03805,0.49175,8.0778,3.7137,-0.38417,3.3274,-0.38328,-3.8172,-1.5755,-2.9301,4.8359,0.28337,
7.2988,0.23331,3.8206,1.4266,6.1468,-1.8113,1.5675,0.23571,2.5322,-3.5882,-1.9629,-1.308,2.1351,6.051,
5.1734,-0.50382,-0.024266,2.546,-0.24775,4.3227,-0.69591,-0.50156,1.6572,-0.23964,-2.0863,9.1341,-1.1262,7.8568,
2.9351,-0.95575,-6.2891,-0.017075,-3.1252,7.4375,-3.0645,-1.9175,0.59364,2.1851,-3.8891,7.6219,-2.0228,2.5649,
8.7843,1.7529,0.59596,2.6353,0.67798,2.4122,1.6989,0.84887,3.6913,1.8128,-2.4507,0.17499,-3.1065,6.5086,
5.124,3.8171,1.2833,3.6822,-2.9779,0.098096,2.802,5.3775,3.2286,-0.94729,-0.6162,-3.4507,-0.26875,6.3593,
4.0932,2.8647,0.48297,1.7741,-6.4151,-1.1131,1.4286,3.8495,2.3115,-1.1314,-0.82066,-3.4851,-0.011657,4.2901,
3.3656,1.729,-0.027938,0.22136,-9.4046,-2.0106,0.37901,2.6542,2.1733,-1.0635,-0.77142,-3.7579,-0.010957,2.5869,
2.4408,0.90235,-0.74916,-1.4787,-12.4553,-3.0948,-1.331,1.2901,1.32,-1.2407,-1.448,-3.7729,0.23067,0.74441,
2.0532,0.12508,-0.94541,-2.5955,-14.8417,-3.6323,-1.9742,0.48959,1.4815,-1.4074,-1.1204,-3.3058,0.45802,-0.50532,
1.689,-0.12339,-1.1297,-3.6446,-17.0842,-4.1372,-2.5787,-0.26268,1.1517,-1.082,-0.81176,-2.8665,1.1534,-1.6803,
1.5877,-0.59838,-1.0619,-4.3902,-18.9517,-4.3714,-2.9063,-0.72931,1.5645,-0.53472,-0.28112,-2.6945,1.5662,-2.5433,
1.4924,-0.080544,-0.99862,-5.0912,-20.7067,-4.591,-3.6958,-0.68555,2.9169,0.46123,0.69961,-1.0866,3.4004,-3.3551,
-1.0073,-1.5215,-1.4206,-0.44691,-22.3568,1.469,-5.4023,3.6944,6.1163,0.91549,3.5502,1.3887,6.5708,3.1128,
-4.8032,-6.2509,-0.37107,-1.3844,-27.2819,-4.4037,-3.1499,-2.7943,5.267,0.37863,2.3728,-1.5867,-0.089941,-7.1969,
-4.7562,-0.33249,-2.5182,-4.9165,-20.5835,-4.8626,-1.7559,-2.3859,0.37143,2.5248,2.4716,-1.7327,-2.7359,-10.3807,
-6.64,0.41104,-5.0184,-4.3804,-21.0355,2.9012,-2.8556,-0.073339,2.5185,0.20442,3.5284,-2.8338,3.936,-5.1779,
-11.3031,-1.7832,-3.512,3.3538,-25.7994,7.7883,-4.8534,-0.30991,-0.28367,2.3613,-0.78065,0.95169,2.0126,-0.7699,
-14.481,-2.1579,-1.3729,4.5991,-32.4459,1.0547,-3.1162,-2.2193,-3.6409,1.256,-3.1437,-2.4796,-1.0004,-3.616,
-10.2379,-0.58244,-0.32641,-0.49736,-36.284,-3.3471,1.8913,-1.122,4.7721,-3.6403,4.7575,-9.08,7.2545,-5.3275,
-11.7931,0.65757,-5.8507,-3.1188,-40.6146,2.3971,-2.8017,3.0424,4.7269,-2.6988,5.6771,-3.4737,7.06,-1.8746,
-13.9775,-3.7202,-4.5353,-3.8956,-41.0698,4.6639,-1.1874,-1.9604,0.58693,-1.0906,3.8902,-0.3728,1.8161,-3.2079,
-8.5596,-3.2563,-0.648,0.43528,-26.7957,6.553,3.9453,-4.4941,-1.1357,-1.7483,1.0055,-1.5555,-0.94415,-4.7029,
-8.5282,0.79574,-6.3939,0.89133,-22.7776,10.0164,2.7445,-1.8141,-0.1035,-1.1612,-1.9472,-1.4624,-1.3697,-5.8667,
-15.0061,-1.9036,-6.7332,-6.152,-28.8828,6.7639,-1.0356,-2.4286,-1.3021,-0.85057,0.33883,-0.16936,-0.082196,-1.4174,
-11.9366,0.38004,-5.1241,-2.6496,-17.7496,8.0455,-2.6604,-1.0774,-6.7678,0.88746,0.077762,4.9023,-1.2823,6.6216,
-3.5074,0.35724,-6.2629,1.3657,-9.9362,6.1165,2.3199,-1.977,-2.023,-1.5759,-2.8194,-0.21214,-0.72345,0.43977,
-1.1278,-0.86926,-2.2715,-0.40322,-14.4014,5.5088,2.4214,0.79291,1.7136,-4.1327,-1.4447,-4.297,2.9356,-4.6481,
-2.2654,2.3164,2.4441,1.7901,-21.0092,8.7932,-0.85733,1.9502,-1.5227,-0.75123,-0.15322,0.54012,4.9282,-2.2,
0.52182,0.0077813,2.0564,3.37,-24.8103,4.1683,0.88134,-4.6743,-0.22607,-0.46519,-2.7956,0.74867,1.9814,-3.2733,
6.0341,3.6232,2.174,5.8188,-13.9212,5.6054,1.5518,-0.77844,-1.4173,0.28562,-3.8327,2.8734,-2.7168,2.9486,
7.8417,6.0569,6.6233,6.1931,-6.0965,7.9206,2.1816,2.4017,-3.5015,-0.45442,-2.8794,2.46,-1.8309,1.0849,
7.3707,3.7653,6.7079,2.929,-15.8536,5.5167,1.5688,0.32945,-2.3275,-3.3197,-0.77886,-4.9184,0.20717,-7.1753,
5.4822,4.9852,2.9309,2.2713,-21.6513,2.2937,4.8486,4.1656,1.6685,-4.5668,6.4987,-9.926,4.0511,-1.4426,
1.5381,3.9634,4.4421,-0.99823,-21.5573,-1.9415,10.5835,4.1569,4.7017,-8.3899,6.8319,-11.9817,7.4237,1.2957,
2.1689,7.3408,5.863,0.74866,-32.5562,0.34435,6.8152,4.1487,5.6246,-2.3426,2.8068,-6.6833,6.2552,-2.3977,
4.6901,7.1415,3.8242,0.463,-44.7028,-0.88137,3.2731,2.6947,6.0103,1.895,1.4333,-8.9336,5.1567,-7.3153,
11.8805,3.5795,5.282,4.0506,-34.1874,1.3407,7.174,3.2559,2.9986,-0.38782,1.1064,-4.3003,3.642,-3.7429,
15.7468,4.0879,1.8314,6.9404,-18.0361,6.3217,2.646,2.8193,-3.6895,-3.4983,-4.5039,2.4655,-1.638,-0.86742,
17.9357,6.9759,1.9627,5.8013,-24.305,3.2911,0.31832,-1.4469,-0.33442,-6.9031,-8.3307,-6.6003,-0.33415,-4.9125,
20.7161,9.9316,4.2553,8.3455,-34.4161,2.6114,3.1915,2.4965,0.16781,-7.4535,-4.9391,-11.9891,1.6139,-2.2074,
21.1599,7.1665,3.2766,5.1932,-41.2692,2.6957,8.5436,6.4441,3.2908,-6.7653,2.3471,-6.69,4.1681,4.4325,
17.9626,4.3264,0.66988,-9.2184,-52.8931,-2.2863,7.0667,3.6473,6.4678,-5.395,1.2425,-6.2886,3.918,3.2027,
14.9564,6.9591,-2.745,-15.2935,-57.3118,-1.185,-0.58792,4.3921,0.2949,-2.1791,-2.2068,-6.3935,2.2369,0.60019,
15.5048,4.6134,-0.6521,-12.9298,-55.3193,-2.0782,-1.035,3.1647,1.2415,-0.60251,-0.62811,-4.0817,5.9591,-0.88208,
15.7801,1.6852,-0.85371,-10.9487,-56.0973,-5.0868,0.71452,-0.1589,1.8902,0.15677,-3.7237,-1.1854,1.504,0.85784,
17.4846,4.2354,0.40257,-11.4969,-61.1674,-2.6122,6.2155,2.02,0.5717,-2.0216,-3.2595,-3.7656,0.20866,-2.3269,
21.7379,4.9454,3.7531,-13.2172,-64.246,0.43682,11.6269,5.7554,3.4297,-0.93618,2.2389,-9.324,5.499,-5.0791,
19.4696,5.6128,-0.3287,-11.942,-61.3553,1.8566,8.037,3.4821,2.7417,0.56602,2.1044,-15.5133,6.1332,-0.9182,
12.5164,3.3478,1.6188,-10.7438,-70.6899,-1.6292,6.5905,-1.0656,4.5054,-5.7349,3.9063,-22.7776,6.7286,-4.2376,
12.9709,1.46,3.6915,-8.8939,-80.5485,-2.7365,1.6155,-2.2067,3.9939,-5.1496,5.3594,-14.4213,4.1559,-8.5628,
