"AF3","AF4","F3","F4","F7","F8","FC5","FC6","O1","O2","P7","P8","T7","T8",
-8.9181,-7.9537,-1.6872,-12.2921,40.2511,25.3079,-7.9537,4.5797,-0.7229,0.7229,15.1846,3.1335,-2.6511,15.1846,
-7.4187,-6.5126,-4.4781,-11.0726,39.2823,23.7895,-11.3329,6.2332,-0.67953,5.5002,15.2378,4.3913,0.88197,0.1735,
-3.1172,-8.0501,1.0928,-12.8184,41.7461,17.5414,-11.6173,3.931,-2.085,9.0266,16.7337,14.2512,-0.61675,-4.5369,
-4.8585,-7.5668,-0.90072,-20.2447,39.723,15.0429,-11.4024,0.32043,-7.2628,3.1826,13.3193,10.5038,-9.2571,9.8353,
-5.5311,-0.84609,-5.6672,-19.5117,32.0372,20.407,-9.7537,5.1217,-1.5241,1.0632,15.4124,2.6425,-3.8807,16.3553,
-7.6094,-1.2777,-4.8452,-17.3771,16.1357,19.1826,-13.5072,2.8862,0.97743,3.4096,14.0058,3.9302,-1.2377,1.274,
-7.3938,-5.2984,-4.7954,-14.6473,21.675,13.9338,-13.4197,3.4364,-1.2504,2.964,12.4421,6.346,-3.815,-0.36895,
-2.8526,-6.6675,-5.2309,-14.9735,34.4745,9.4826,-3.6967,4.9172,1.9579,-2.2753,11.9367,-5.3632,1.9577,8.0891,
2.1388,-0.00094036,-3.9527,-12.1469,46.5061,15.6626,0.86389,-1.1624,1.8404,-4.5489,10.2567,-12.2723,5.6966,0.85529,
1.7698,2.6504,-2.5104,-10.213,53.1157,18.8199,2.0171,1.5587,0.52494,-0.17837,13.7384,-5.0282,4.6317,-6.1861,
0.45805,-1.1238,0.2915,-13.2154,46.3136,6.8447,4.065,6.0446,0.25225,3.4475,11.709,-2.0752,5.0769,-2.1993,
-4.3899,-6.8412,-5.5108,-16.2791,36.7861,0.16729,-5.8196,-0.10284,-6.5116,2.7585,2.8115,-3.3967,2.362,5.6452,
-2.1981,-6.9124,-3.7337,-13.8559,34.5787,5.9421,-6.4345,-1.5427,-2.7462,2.5932,5.5356,-1.7469,1.2562,10.1274,
2.5133,-2.8825,2.0337,-7.9631,42.8681,10.647,-0.50508,5.5395,3.4439,-1.66,10.2649,-3.811,-0.024281,2.0477,
2.3625,0.18255,1.4298,-6.5214,42.2242,10.4901,1.4534,7.6173,7.576,-1.0784,13.5054,-2.6185,5.7618,-8.6804,
-1.3947,-3.4438,-3.2357,-14.0839,26.4343,2.8708,-0.80295,-2.2398,6.3981,0.19158,11.4898,-1.2561,8.0671,-8.4006,
-1.5522,-4.4423,-3.7647,-13.4796,23.1613,2.4578,-6.2986,-2.3461,-0.49347,-1.025,4.2927,-2.3858,0.11154,6.2035,
4.0848,-3.9345,2.4869,-7.1274,28.7612,5.9256,-3.7513,1.4098,-1.6689,-1.2047,2.8301,-2.0019,-3.9927,11.9775,
3.8397,-2.2522,1.3734,-6.2178,27.9999,4.6062,-3.0443,-1.0849,-3.0151,1.2782,4.1065,1.9746,-4.717,-2.8411,
-0.0063252,1.0162,-2.8061,-5.6036,27.0426,4.5705,-3.1024,0.66721,0.7815,5.2986,6.9934,1.6149,-0.81883,-10.5039,
1.1996,-2.178,1.4598,-7.4368,23.733,2.6093,-0.26491,-2.988,8.6886,-1.527,5.8507,-12.582,4.2922,-1.4378,
0.40424,-3.2531,2.5771,-4.3395,22.55,2.2113,-1.4548,-2.5678,6.9615,-4.5689,5.7406,-18.9374,5.7214,0.33526,
-3.7174,0.076026,0.25327,0.50066,24.8124,3.2839,2.2484,0.71978,6.7852,0.76694,11.4217,-9.365,7.0654,-6.1923,
-1.8071,2.2406,0.47904,-0.73467,25.9752,3.8103,3.8007,0.43563,7.5834,0.47996,9.5316,-7.1159,7.3648,-10.4001,
1.6756,0.17776,-1.9601,-5.0291,25.8627,3.5814,1.6443,1.3731,0.86168,-4.3693,0.76473,-12.9557,4.0302,-0.61728,
0.36996,-0.073639,-1.6013,-1.5937,24.0698,2.6434,3.2331,0.56807,0.56878,-4.8303,1.442,-10.009,3.5476,4.9631,
-0.61634,3.305,0.42278,2.84,20.2152,2.485,1.5926,-1.8764,2.945,1.7263,5.2116,3.1248,3.3345,-4.0115,
0.62571,-0.99088,-1.2896,-1.9099,17.3153,-2.2436,-3.0825,-2.9689,-0.84734,4.274,1.2837,4.1424,0.0012181,-2.0834,
1.5523,-2.8594,-4.5864,-3.7233,20.133,-3.0731,-2.8973,0.58351,-4.1707,1.6072,-3.1318,-1.4086,-1.4449,10.5749,
3.3873,2.1329,-4.7932,1.8028,19.8889,1.4501,-1.2772,2.9591,-2.4742,-2.3456,-2.9439,-3.2522,-0.39387,0.29943,
6.5583,-0.88784,3.207,2.1763,18.6953,2.8087,-2.1651,2.2989,-1.3617,-3.169,-5.1777,-4.5036,-1.8167,-9.8417,
2.7908,-5.1729,3.0145,-1.8102,19.9842,1.6763,-9.2656,0.71518,-9.4747,-1.0506,-13.5436,-5.6792,-9.4205,0.87174,
2.8643,0.6811,1.1464,-1.943,24.8107,1.8167,-2.2022,1.3952,-3.3626,1.6635,-7.6698,-3.6512,-2.8297,5.3992,
3.1744,2.086,-0.36861,-6.1647,26.2141,-5.0413,5.1608,3.2397,3.5876,-3.739,-1.425,-3.9145,2.1608,-9.0248,
2.7427,3.1664,-1.0692,-3.1435,25.8468,-2.087,3.1641,8.5891,3.1316,-2.791,-0.6164,-1.9922,-0.13826,-15.3527,
4.0244,1.0482,-0.041144,-3.4369,20.9215,-1.4798,2.4919,3.735,3.9076,-3.5879,2.795,-10.5498,1.7982,-7.6826,
7.6396,2.9133,-0.038446,-7.5692,29.7894,-3.3195,2.3426,-1.3096,0.29891,-5.783,1.1813,-15.2192,1.6906,-6.2576,
10.0733,4.6667,2.374,-5.6688,42.102,2.1823,1.2377,-0.26669,-3.5754,3.723,-3.7103,-2.2549,-3.2316,-0.57991,
5.8537,-4.5312,2.4723,-6.0518,40.1783,0.36395,-3.4161,-3.3839,-4.5664,3.7408,-7.5853,2.4599,-8.5811,1.6243,
3.0923,-3.7774,-2.4963,-5.2067,30.0548,-0.13982,-5.1388,-0.77078,-3.3281,2.5521,-6.1658,0.86648,-4.6918,2.9731,
0.25524,-1.3815,-2.5875,-6.5816,24.6361,-1.3363,-1.6975,0.4803,-1.4412,5.0505,-5.5549,0.091128,1.1329,-3.7133,
3.8556,-0.57507,2.1473,-2.0891,24.8454,-0.53296,0.091839,2.1389,-0.63158,4.9887,-4.0161,5.1476,-0.62206,-3.7312,
7.7211,1.6281,0.81314,0.20542,26.9697,1.1858,3.2194,5.1436,-0.35272,-1.3367,-1.6064,1.2228,0.13816,0.10764,
5.8123,2.0131,0.28265,-6.5556,25.3517,-1.7772,5.4366,4.3533,0.63254,-7.0408,-0.54547,-12.8296,5.4327,-3.2726,
5.9455,-1.4822,0.26523,-5.6803,26.2407,-1.1886,0.77204,5.5384,2.0408,-5.6545,-0.51274,-10.1316,4.6248,-5.4868,
8.963,-5.7318,0.73148,-2.9291,27.5586,-1.5995,-0.23838,-0.096812,2.8825,-1.941,-2.4104,1.5633,0.0088081,-6.1217,
9.8715,0.3967,2.1339,-1.3071,27.8333,-2.4678,2.668,-3.9474,0.29896,4.4424,-3.2301,5.3259,-2.8842,0.99451,
5.1818,1.5777,0.31859,-2.9159,27.8505,-6.4171,2.7489,-2.9872,-0.44188,2.0063,-3.7592,-2.9474,-2.4702,1.1758,
5.1119,-1.65,2.4686,-4.4282,27.3847,-9.1651,5.2355,-4.0132,4.1644,-6.5498,1.0461,-8.7961,2.2577,-7.3304,
7.4563,1.1001,2.0796,0.41678,29.839,-3.554,5.6443,-4.9777,5.6013,-3.0233,10.8653,-2.2428,6.2196,-2.3113,
3.8756,-0.65287,0.26778,-2.7415,28.7718,-5.0277,6.0287,-5.8841,6.9527,-1.1549,13.3466,-7.1697,6.5696,-0.0032393,
-2.8646,-4.2293,0.97439,-7.1565,22.9479,-7.8593,5.9082,-6.2542,6.2943,-3.255,5.0738,-14.2116,3.5241,-10.3676,
-3.4161,-1.324,0.67496,-3.1117,12.653,-5.701,4.3484,-2.7455,2.3012,0.073777,2.1183,-6.369,2.1073,-17.2174,
-0.55958,-2.4499,-1.5347,-5.0942,3.9401,-8.01,1.4364,1.5166,-2.8981,0.79225,4.1603,4.377,0.29368,-9.6764,
-2.2132,-4.954,-4.5756,-9.8497,9.2477,-8.2523,-2.7471,2.6309,-5.3753,1.95,1.7415,9.1761,-3.8208,4.1606,
-4.0086,-3.2105,-3.8192,-6.8486,14.4774,-5.3466,-1.6184,-0.41902,-0.71444,-0.095185,0.67318,4.7691,-2.6277,4.3934,
2.0165,0.35614,0.26636,1.757,14.5727,-1.1699,2.817,1.5339,0.77423,-6.8384,1.1147,-4.6761,-0.54186,-2.1372,
7.1981,2.263,2.6605,3.0978,18.5186,-0.61776,8.4326,5.2982,-5.0568,-8.3563,-1.8447,-8.2519,-1.9556,-5.3834,
4.8378,-1.729,3.9469,-1.9085,13.5513,-4.4369,8.8907,-2.7322,-5.7175,-7.8547,-3.18,-7.2746,-2.3204,-11.8091,
1.8962,-1.3845,1.5412,0.37493,4.7842,-1.5193,6.6703,-2.8095,-1.2769,-3.7682,3.0365,-0.81235,0.47011,-6.0391,
-1.8327,-2.9884,-1.2026,-1.3346,0.3996,-2.1513,9.4033,-1.9178,-1.9234,-2.337,5.0233,3.3335,1.165,3.7235,
1.1695,-1.3631,1.2794,0.19154,3.2679,-3.9506,12.2133,-4.695,-1.3258,0.21354,3.7578,4.0976,1.0949,5.428,
5.1967,2.8165,0.47976,3.7955,7.6516,-2.9902,9.3114,-4.1723,0.9229,-3.4142,3.7738,-4.102,1.7526,-0.44082,
2.4745,-3.1373,-0.031189,-2.2166,4.7821,-7.6313,13.0912,-4.4042,3.7598,-11.4048,7.4035,-17.9559,4.5397,-6.6816,
0.3981,-2.4669,2.381,-3.5299,1.6029,-9.5838,16.1624,-2.6934,4.0164,-5.4176,11.2978,-19.1682,6.1957,-9.1725,
1.3381,1.0551,1.7562,1.9843,1.5067,-8.5268,11.8177,-2.5323,1.3648,0.20963,11.1019,-12.7159,5.3416,-11.0327,
2.945,1.2332,1.8918,7.8908,4.5498,-8.7381,13.7602,-1.657,2.4882,-0.043454,11.1587,-5.9272,5.2621,-6.7554,
-4.2213,-0.046281,-0.39106,8.1405,2.5894,-10.8652,11.7295,-0.3525,0.16954,1.6461,6.874,0.93618,0.84877,-4.663,
-4.9319,-0.043504,3.0069,3.7957,3.3983,-9.7313,11.5077,-1.7776,3.0519,2.5112,9.3536,-0.56625,4.6547,-12.096,
-0.53864,3.5745,2.5855,0.91662,6.8094,-7.4602,14.9146,-4.322,4.0736,-1.2548,17.7104,-8.486,9.4366,-8.7187,
0.69874,3.1189,1.7072,4.959,-0.58881,-6.2895,18.1173,-2.8577,5.0347,-0.45643,18.8172,-2.433,6.7015,3.1324,
-1.7535,-5.7451,1.605,6.5899,-9.7123,-5.9123,13.656,-1.7221,3.7685,-2.357,10.9395,3.0154,2.4428,-1.3941,
-6.4688,-8.2923,-4.2761,0.89205,-10.0936,-2.1829,7.0519,0.79158,0.1682,-8.4823,13.6573,-5.3605,1.3321,3.0281,
-9.6959,-5.1439,-5.2246,-4.2231,-18.4059,-3.257,9.762,0.020952,5.2196,-6.2864,24.6483,-9.1362,4.3855,6.944,
-11.0428,-5.3172,1.3554,1.3327,-24.5323,-4.5078,5.8018,0.019695,5.3883,1.8036,22.205,2.499,4.1223,-7.5727,
-10.6212,-9.5774,5.3714,7.7606,-13.6604,-4.4783,-1.0538,-1.1868,1.4496,1.9368,19.1855,6.9288,3.1521,-13.5055,
-5.1632,-8.0389,4.0853,7.7769,-16.6972,-1.7995,4.7941,-4.4896,4.2551,-2.5182,25.7476,-1.6817,6.3374,1.2845,
-6.5409,0.39739,1.1888,7.5511,-28.47,6.262,7.6397,-0.605,8.097,-3.5722,24.9254,-7.6068,9.5724,5.7865,
-12.8968,2.7837,3.0457,4.6883,-27.2433,3.4766,5.2536,-2.4969,9.0574,-8.1781,20.0559,-14.8629,11.8905,-2.7554,
-10.1946,3.5808,5.2733,4.8887,-15.968,2.3034,5.902,-5.2394,8.5137,-8.1696,21.7448,-14.9355,11.1769,-4.518,
-8.1369,-1.4546,0.13643,2.1853,-15.0097,12.2884,5.5481,0.37741,6.0749,-1.4127,19.958,-2.4699,6.6501,-7.6214,
-15.1207,-11.2495,-0.59489,-2.5256,-25.9199,10.346,3.5277,1.0779,2.0948,-4.4616,8.8783,1.7756,-0.739,-12.7077,
-17.8287,-6.9593,2.5741,2.6874,-24.6054,3.2175,3.0749,-2.12,-2.6104,-6.8452,5.6943,-4.3567,-1.8997,-8.812,
-15.072,-3.89,3.6247,5.1775,-21.4421,-0.10878,6.506,-3.1979,1.6438,-2.3369,12.8247,-7.2286,6.6502,-8.5245,
-18.506,-4.1387,2.4431,0.046347,-26.4223,-0.58442,3.2234,-2.0419,6.8476,-0.7507,11.0911,-7.277,8.1796,-11.8694,
-23.6623,-1.4803,2.2965,-4.2948,-28.6934,1.8608,1.1018,-1.9194,6.9191,2.6688,7.5331,-5.8763,7.2064,-8.7469,
-20.7963,-6.6939,3.1228,-8.3754,-25.5253,-0.66077,5.3742,-4.6965,6.5037,2.5089,7.5633,-2.6312,9.6668,-3.8835,
-14.4871,-6.5334,1.2485,-5.2218,-19.8966,-2.7905,2.8824,-0.79956,2.4983,-0.77489,3.9763,0.17777,4.9892,-0.035305,
-13.3769,-3.008,1.4145,-2.7393,-22.3183,-0.45392,1.5046,-0.99255,3.5533,-0.48743,3.0143,-2.9661,3.0026,-7.0228,
-14.2613,-4.0325,2.5347,-3.7798,-22.1838,2.707,0.69121,-2.1381,5.0275,-1.1813,3.0747,3.2376,4.0275,-10.2167,
-14.129,-4.5137,-0.75063,-2.3482,-22.5402,-2.5173,-2.0016,1.1235,-1.7818,-3.2798,-2.1717,11.4788,-0.31172,-5.5063,
-12.076,-4.0019,2.9098,-0.037652,-24.8032,-6.9455,1.252,1.297,-1.9159,-2.3597,-2.2819,1.8725,-1.0159,-5.8988,
-12.3155,-4.2437,2.7352,-1.964,-12.7097,0.21963,-0.26939,-2.6372,4.4656,-5.5926,1.229,-11.7375,2.4195,-3.135,
-7.7199,-1.0968,1.607,-3.7742,2.1529,9.3657,6.9774,-1.5148,18.2976,-2.3647,9.3502,-6.2125,10.4693,8.1403,
-8.9442,-3.6826,-0.17662,-8.1272,-7.4968,-2.0425,5.3535,0.26327,15.3921,-1.018,5.1737,-3.6706,7.6715,-3.1943,
-6.9613,-2.0151,2.2443,2.4833,-21.147,-9.6329,-1.234,8.4424,4.3454,-1.4386,-1.8854,-2.9684,2.3907,-13.6078,
-6.5434,-3.8224,2.1097,3.7806,-22.6502,-7.6087,-4.5345,2.1513,4.0847,-4.7268,-7.5568,-2.7901,-2.0911,-7.0067,
-5.4279,-2.3882,0.29587,-1.0258,-7.1912,2.7298,-4.9857,-3.5214,8.4194,5.4388,-3.488,6.7773,0.6855,6.6701,
-3.415,-2.0037,-0.44525,-2.1693,-0.61346,5.2175,-0.58879,-1.141,12.4935,5.8358,2.7468,6.6116,7.6342,5.065,
-2.487,-3.5707,1.2687,-1.316,-9.9767,-4.4955,4.5082,-0.83153,13.9135,-4.3963,-1.0329,-3.667,5.4894,-5.121,
-5.23,-0.46421,3.121,1.1733,-10.3422,-6.6362,4.2375,1.6287,14.5247,2.1338,-0.48925,0.89134,7.088,-8.6701,
-9.7367,-2.3643,1.9696,-0.34313,-13.0958,-7.2021,-0.83724,2.4951,14.1354,2.9703,4.361,5.6586,11.4832,-10.0779,
-9.8756,-0.53547,2.0924,1.8466,-15.4436,-6.529,-3.9205,2.1044,12.082,-1.3057,0.9659,6.042,7.6612,-4.8939,
-7.3549,2.389,5.8235,5.5922,-11.6247,-5.1732,-0.79251,1.0141,12.8031,1.6649,-2.9487,1.8231,6.7194,1.1843,
-3.0572,0.31742,8.8485,5.7386,-10.4448,-5.3447,0.70084,1.4351,11.071,2.5294,-1.3255,-2.1427,8.2444,-0.81497,
-2.1507,-0.42475,1.8097,4.1892,-7.167,-4.7831,-1.9923,1.1081,7.7552,0.69037,-0.040672,4.9755,4.6163,-2.9352,
-0.57559,2.975,5.0753,3.9376,-3.8447,-4.9782,4.8759,1.5237,14.5205,2.095,4.2999,12.8719,7.7135,5.4356,
-7.5307,0.14559,7.4224,3.9426,-13.496,-5.4024,-0.47832,2.1552,7.6242,1.7283,-1.0194,11.8586,2.1895,13.0637,
-7.3201,-3.961,1.433,3.4651,-20.6404,-2.4272,-13.2241,3.7131,-0.30552,5.24,-6.5023,13.3163,-5.8961,8.664,
3.2421,-2.759,-0.58122,2.2928,-19.8839,-4.6917,-16.287,-1.8123,1.1591,7.3358,-5.6297,15.8917,-8.9168,-5.9559,
5.6991,2.9502,0.17701,4.3244,-7.3627,-2.241,-10.2481,-0.49827,1.3305,7.1366,-2.1589,12.7691,-7.1765,-0.41614,
-3.5609,-4.2167,-1.5208,-2.9245,1.9971,-3.7938,-5.0539,-0.70934,-0.43656,1.6467,-3.2342,-2.0971,-5.0587,13.7088,
-0.69595,-2.2767,5.0781,1.8305,0.67225,-1.8787,-2.0994,-0.42604,6.0973,4.1992,1.057,-2.8151,-1.14,13.2477,
0.79184,0.75219,2.3631,9.4332,-13.4681,-2.7305,-8.7221,-0.40025,3.3211,4.4294,1.9576,-0.71822,-4.4458,-1.6471,
-1.907,-1.4623,0.051907,6.6979,-14.7089,-4.2537,-7.4756,1.3108,-0.49331,2.9586,-0.32875,-12.9674,-5.3841,-0.70513,
-1.5514,-0.651,0.28999,0.7526,-5.3905,-1.8291,-7.7502,2.4372,0.25942,0.12977,-2.4784,-13.8764,-5.7842,6.8092,
-0.97614,-0.61217,0.75475,2.1535,-14.2258,-0.27332,-8.2493,0.36299,1.6899,-2.2884,-0.88368,1.0562,-4.473,-2.7581,
-2.3638,-1.5393,0.22753,6.363,-23.9776,-1.2208,-6.79,-0.62312,-0.33971,0.74144,-1.3126,3.7649,-2.2765,-7.8953,
-2.9451,-1.6881,0.93655,3.3299,-19.8876,-3.3169,-6.1419,0.61933,-3.4526,3.3483,-5.3314,-2.0049,-3.8269,6.6784,
-0.84023,-3.0331,3.7729,-0.24431,-19.6587,-5.0461,-8.6659,-0.38169,-3.7278,3.6293,-4.0472,3.4181,-7.936,20.3777,
-0.30765,-1.4046,-1.7559,-2.64,-25.7098,-1.3691,-11.0378,-3.2511,-6.396,7.2682,-0.4297,7.0696,-11.316,12.8885,
-0.048224,-1.0794,-3.8197,-2.2406,-30.1927,-1.046,-4.8319,-5.2252,-3.8431,4.6625,3.6934,-6.129,-7.0217,0.30464,
2.8472,0.91356,2.676,8.4991,-25.971,-1.4652,-3.0962,0.87291,0.72584,-2.3657,8.774,-16.8485,-0.81577,5.1071,
1.2299,3.2686,3.9615,15.7021,-22.9667,0.068763,-10.141,3.2309,-0.76374,-2.224,8.7297,-8.607,-1.249,3.3546,
3.0845,3.5547,7.098,12.8316,-10.9832,-0.41707,-3.7477,-0.33764,2.6563,1.766,9.1701,0.10437,0.27198,-4.5597,
7.9606,5.9925,6.9131,13.267,3.7758,-3.0436,2.0203,1.3698,-1.1185,-1.9553,5.4864,-6.4094,-0.94917,1.2575,
12.0628,5.8739,5.2935,13.1939,17.6492,-7.4407,1.1762,0.56475,-6.595,-8.8279,3.47,-13.979,-1.6156,2.8693,
15.9185,9.1371,10.0373,10.2329,26.231,-9.1632,6.167,-0.19226,0.30842,-4.6826,10.7338,-6.1504,3.0609,1.974,
12.3121,9.312,8.7119,6.4856,25.3803,-10.3004,7.9664,2.4706,4.8694,-0.78643,15.1512,-10.8428,5.0466,3.0606,
12.5374,6.8249,11.0815,7.0606,21.4471,-12.5749,9.8988,1.3583,10.3621,-5.5597,17.6164,-24.2923,9.0824,-1.9435,
12.5086,10.0313,9.6937,11.6986,16.0629,-12.5431,6.6538,-0.41046,5.1611,-7.8772,13.4264,-26.3294,4.4401,0.34274,
9.5887,9.1882,2.6044,10.7555,13.4122,-12.0317,3.6027,-0.14464,-0.21051,-0.89735,9.4875,-10.6497,-0.88825,8.2757,
7.5671,3.8162,-0.4444,3.8437,7.7867,-10.3459,1.9403,-1.1003,2.2122,5.4235,6.0257,4.0893,-0.35302,-3.3081,
1.0873,2.8641,-5.4792,-3.3771,-4.4908,-8.0382,-4.2014,-2.2393,-0.089878,6.7851,-3.736,12.2796,-3.4651,-12.0277,
-3.0751,3.8973,-4.9092,-1.9689,-5.9084,-10.6891,-3.7081,-2.3462,-1.2891,9.5112,-3.2707,17.5686,-3.9799,2.794,
-4.8188,1.7353,-4.6147,-1.8508,2.1589,-12.9399,-4.9319,-2.6873,-3.1399,5.5665,-1.1462,7.8374,-7.5975,10.4598,
-1.8788,4.2825,-3.6147,-3.9091,3.7163,-5.6558,-0.056473,0.12523,0.66365,3.0632,2.0558,-4.4432,-3.0445,2.3602,
-0.5603,4.7489,-1.2286,-4.3975,-2.0498,-5.5574,4.5267,0.35869,5.2036,2.6384,6.5122,-7.3096,3.6461,-8.6272,
1.1603,7.1153,2.4607,1.8922,3.6166,-5.9471,5.4601,1.0603,10.4347,1.757,12.1472,-10.9684,8.4888,-10.7607,
2.5367,6.6884,6.1695,0.8143,0.98946,-10.4107,8.5065,1.4786,16.5576,-2.6868,12.8647,-24.4103,13.2821,-9.6331,
-0.2668,6.0459,3.6299,-1.4037,-9.9159,-15.8116,3.899,1.6311,11.9485,-2.7668,9.4415,-32.2252,10.7982,-12.6705,
-0.73296,5.6831,0.037671,4.9472,-10.2853,-13.8991,-2.6019,-0.39497,8.3395,3.1838,8.875,-16.1917,6.2935,-20.1052,
0.75728,2.932,2.9279,6.5786,-10.1501,-11.1369,-1.9639,-3.7457,10.2493,6.3672,7.8601,-1.1202,5.4339,-18.417,
-2.6624,1.792,1.7882,1.3634,-10.0233,-8.0584,-5.2203,-1.1106,2.4037,10.3238,3.0504,13.047,1.7337,-3.3324,
-3.4667,0.72037,-0.72949,-1.6107,-5.5657,-8.057,-7.3174,1.3664,-3.5253,9.2222,-3.8818,18.6512,-4.1552,10.8468,
-0.36667,1.6415,-2.132,3.3062,-4.2675,-10.4657,-8.8061,0.32006,-6.6883,1.438,-13.2898,12.7119,-8.7261,14.5348,
2.5478,3.9531,2.8162,8.4105,-1.6013,-5.9813,-5.3857,0.30086,-6.287,1.3517,-11.0462,11.4668,-6.2743,3.5393,
3.841,2.2694,6.0219,2.6034,-0.54111,-5.1407,-0.24204,-1.6452,-3.4994,2.7167,-6.0449,6.9226,-2.0417,-4.8675,
7.4669,4.0615,1.8042,1.4829,-0.99057,-10.1347,-1.1914,1.3456,-3.7714,-0.33841,-5.6822,-3.6159,-2.4012,0.72718,
9.6702,4.059,4.3473,6.9378,-2.1362,-10.7317,2.4953,1.988,-0.41183,-2.0051,-1.7256,-8.9425,-0.087702,-5.3422,
6.9206,5.0205,8.1836,5.316,0.1609,-5.5085,3.5506,-0.7826,-2.0746,1.7304,-1.3813,0.99379,1.1226,-9.1193,
-0.0023104,3.9961,0.7029,-1.0283,-2.5001,-9.7575,-3.652,-1.9407,-8.4578,7.17,-7.3242,10.3344,-2.5604,0.82765,
-6.0275,-2.2694,-3.4369,-2.1717,-12.7137,-16.1617,-3.1922,-1.5831,-6.2629,2.6426,-7.1255,2.7247,-4.5757,-4.2835,
-7.5945,0.27688,-4.6769,-1.0775,-15.8077,-10.8537,-1.0725,1.404,-3.9589,-0.89038,-5.2522,-3.7058,-4.7835,-14.1496,
-1.8362,2.6709,-2.4676,-3.423,-12.4487,-9.2381,-2.9363,-0.60845,-2.2751,1.0912,-5.419,-2.5193,-0.64014,-6.5517,
5.2639,2.2696,3.224,-0.084106,-10.0145,-9.407,-2.0368,-2.2592,-1.8977,3.6769,-4.3705,-3.0911,-0.8427,-3.0253,
4.7068,3.8205,0.37927,3.5361,-13.9932,-6.6734,0.25437,-0.43617,-3.9532,0.80492,-3.3856,0.70981,-2.9611,-6.4592,
5.3888,4.0736,-3.0179,-1.9787,-11.7078,-7.719,1.2034,0.55387,0.14039,-0.20724,1.1563,4.5236,2.5188,2.1233,
4.5835,2.3829,-3.3188,-6.6802,-11.4873,-9.1841,-3.2071,0.038704,-1.3143,0.28713,-2.2875,0.87774,2.85,9.7086,
2.6213,2.9629,1.4596,-3.6283,-19.7156,-5.4995,2.047,0.27735,-2.4403,0.028935,-5.2837,2.0304,4.3663,2.6186,
3.91,6.6417,2.3361,-4.8566,-16.6047,-2.7594,5.2984,-2.1496,-1.8117,-3.829,-1.592,-1.9478,7.4785,-9.1076,
6.8089,7.9304,-3.3476,-9.6269,-1.5084,-2.3529,-1.5274,-3.2255,-4.3545,-7.2146,-1.7379,-12.1953,4.3787,-9.7665,
9.0515,3.8392,-0.49523,-11.2185,-2.5025,-2.4527,-0.71243,0.10105,-2.888,-4.1307,-4.7667,-8.3301,2.4288,-3.6369,
2.4831,2.4038,0.25761,-8.8581,-16.4524,-0.61832,-4.7673,3.7106,-3.4378,1.1786,-8.0963,4.9439,2.0418,2.1249,
-7.3071,3.2234,-0.23978,-7.3625,-21.8522,-0.58122,-6.4094,3.9699,-1.3034,0.62597,-6.6462,4.1654,3.3656,4.408,
-3.7352,1.343,1.4616,-8.1261,-15.4796,-2.7157,1.4467,1.5624,0.46184,-0.61665,-2.6323,0.30003,4.8507,1.0098,
2.0323,2.4675,-1.2774,-5.4694,-7.0793,-3.7579,1.6011,0.26355,-2.6991,-1.3028,-4.1613,1.0049,1.9083,-4.5944,
0.94625,3.2835,3.1373,-1.2846,-1.3521,-4.9786,1.0229,-0.71636,0.35511,-5.5632,-4.3938,-8.2144,1.3116,-7.2112,
1.8536,2.6044,6.3238,-1.2073,-3.6809,-5.6438,0.96174,-0.19122,-2.5585,-10.0499,-6.5405,-13.0237,-1.177,-3.886,
5.358,1.243,0.88289,-7.6428,-9.0034,-4.582,-3.1935,1.0253,-6.5021,-6.7955,-6.8708,-5.7346,-0.86515,-1.9656,
3.831,2.3735,1.553,-6.9432,-16.8991,-0.69192,-2.2788,-0.24127,-2.0149,-2.2902,-4.2896,1.5991,3.7658,-1.6067,
4.3245,3.9183,5.0753,-0.98304,-29.1415,1.0368,-0.93678,-1.914,-3.0988,-2.8762,-4.2732,1.7441,1.3707,-3.6795,
10.0906,0.067819,4.0474,-5.9855,-33.4186,-6.9791,-2.0859,-3.9683,-4.6001,-6.801,-6.186,-2.9398,-1.3626,-7.5561,
9.9671,1.51,-0.53376,-9.9649,-17.3135,-1.7401,-4.8532,0.60809,-2.8783,-3.9828,-4.8509,0.61059,-1.2809,1.0922,
4.0666,1.9016,-3.394,-5.9926,-5.3084,12.4643,-3.5979,8.7665,-0.29524,2.5229,0.743,4.4306,3.6165,14.5238,
1.1713,-0.38191,-1.5034,-4.9101,-19.0899,12.3193,-1.2127,7.5174,-1.0007,0.68456,-0.98904,-0.41478,2.6763,11.9654,
-0.34522,3.9793,-2.377,-6.0615,-26.7421,8.6876,-5.4782,2.728,-2.8688,-0.32084,-2.8579,2.9843,-2.7869,6.4268,
-5.6269,0.84827,-4.1628,-7.626,-16.4607,13.9512,-5.6317,-0.32792,2.1238,3.555,4.0623,10.0363,3.1651,7.4876,
-7.2175,0.31544,-2.4668,-4.2762,-29.573,14.078,-1.4374,1.6199,6.3352,11.5364,6.2291,8.4698,6.8316,10.4128,
-6.3025,4.1527,0.091548,-3.5377,-41.8987,6.0027,-0.86901,-2.3339,2.0984,10.8445,3.445,1.213,2.0832,2.557,
-3.5138,6.3143,3.9427,-0.91484,-28.0561,10.463,1.5935,-3.6399,3.9009,4.409,8.0588,0.65826,6.7787,0.47561,
-10.775,1.3555,-3.7659,-3.0293,-16.973,16.3429,-2.1178,-2.2164,3.4257,1.0112,1.0676,4.7161,4.2026,8.4006,
-13.5027,0.3103,-2.5756,-3.3295,-30.0546,9.5778,-1.9907,1.773,5.6307,1.9149,-6.2273,10.7001,-1.3518,13.6816,
-4.4978,7.0404,7.7016,3.1368,-32.4691,5.6284,-3.3173,8.4153,3.364,2.2817,-3.9257,15.8425,-1.2709,8.0397,
-4.9511,3.9666,0.24983,-0.66686,-16.421,13.2447,-6.7339,6.2233,-3.8275,-2.9167,-5.8591,8.8661,0.010411,-0.39615,
-7.7875,-2.2969,-5.3088,-4.7244,-10.254,16.0654,-2.7145,-0.1756,-1.9106,-2.9826,-11.0512,-0.1015,-1.1955,-3.0239,
-7.0793,0.010044,-0.41096,1.5846,-14.2181,10.5218,-4.2388,1.0398,-1.0731,1.2937,-13.5216,0.62749,-4.2568,3.1831,
-6.4134,1.2147,3.2291,5.5873,-16.4985,13.0239,-1.8149,4.5928,0.67901,-0.47118,-9.0949,0.34887,-0.38597,7.5718,
-2.8951,-1.5095,-0.097887,0.67234,-21.0519,16.822,0.46296,4.0765,0.39707,-5.9863,-6.3798,-4.7337,1.3242,-1.8003,
-1.2753,2.9194,-3.4665,-0.81403,-28.4657,11.9563,-2.4569,6.242,2.3014,0.15746,-5.0327,-1.5572,2.691,-2.6566,
-3.8501,2.9852,-3.0175,-1.0064,-33.7476,5.2134,-3.9967,2.734,5.7788,5.2092,-2.0796,3.1155,4.2168,5.9384,
-0.72684,2.3239,-1.39,1.9465,-27.3842,8.7572,-3.2747,3.0521,1.0935,2.0044,-1.9551,4.3749,2.5177,11.3669,
1.7271,1.7028,0.13946,3.7581,-31.0438,7.2677,1.2598,5.7613,-0.90008,-1.972,-3.7657,-1.1903,1.8845,5.3825,
-1.2688,0.15414,0.13132,3.0505,-40.7503,5.3851,0.70255,5.4159,0.59996,0.55665,-2.5757,1.2915,0.80733,-0.24286,
-7.2182,-0.57801,-7.3484,0.21637,-38.5463,8.1955,-9.7039,3.4037,-4.9797,1.2462,-3.6265,4.8296,-2.8565,3.8691,
-1.7237,2.5902,-5.7026,-0.038036,-25.8694,7.9447,-4.06,0.54791,-1.0655,-1.9621,-0.27538,0.44206,2.8585,11.5907,
1.513,6.5319,-0.78096,5.0259,-23.5941,5.7811,1.727,-2.1363,1.6498,-3.0494,3.8387,-5.61,6.7845,9.6902,
-2.193,1.0787,0.95313,4.4836,-29.6503,3.265,-1.0277,-0.32089,0.82791,2.6771,4.8132,1.7165,3.244,-3.1835,
-3.7486,-0.19127,1.1374,2.5274,-33.4149,0.41804,-0.72511,3.7962,1.0192,9.0244,-1.5011,13.4238,-2.0119,-5.1617,
-7.1393,-0.42077,-6.8851,5.9907,-31.6512,2.5617,-7.6715,1.3988,-5.068,3.4213,-9.3648,12.377,-7.4352,9.248,
-4.0597,-6.9035,-6.7129,4.9084,-29.5109,7.4696,-9.8623,-1.8182,-3.5586,0.082539,-3.2593,12.3577,-4.3376,18.6955,
-2.6108,-7.2122,-2.2128,0.99844,-36.1762,6.7805,-6.1371,1.9063,-0.69352,2.2472,-0.41263,13.7854,0.020043,8.6557,
-3.6592,0.21045,0.089121,4.554,-31.3543,5.1684,-0.22522,9.7457,4.4093,1.389,1.7813,6.4506,7.9726,7.8954,
-1.2707,-0.043373,-0.63936,1.6292,-15.373,5.0995,-3.3454,6.9916,3.9036,-4.7201,1.4332,-1.8904,6.7711,11.0369,
5.3132,-0.28174,-1.8063,1.7726,-3.9663,7.4446,-4.8319,4.4029,3.4284,0.62478,0.62432,2.8025,1.3032,4.8311,
3.7894,-0.98773,-2.9027,3.8354,-14.5743,4.8288,1.9659,0.04139,9.7306,8.0591,2.756,2.8753,6.2866,-3.8945,
-1.4994,-0.20557,-5.3797,2.4002,-17.3153,4.2981,-0.80312,-0.68445,6.0133,10.709,-1.0243,6.8006,5.6685,2.8471,
-3.0967,-1.3985,-5.7803,0.087282,-11.6969,3.7992,-7.7448,2.4901,-4.2294,6.4511,-9.8809,13.8639,-3.1073,9.6657,
-1.4649,1.5779,-0.13079,0.081587,-15.3336,3.5713,-4.87,5.7151,-2.0475,-5.5056,-7.8423,3.3911,3.3456,7.1576,
-1.6179,3.1702,-2.7743,-3.0566,-20.9213,7.9365,-5.7831,2.7209,-3.6121,-15.0572,-4.2385,-10.9123,4.8319,3.5949,
2.0948,1.293,-2.3671,-1.6681,-22.3173,12.0398,-6.6409,-0.093663,-5.5643,-14.3947,-3.261,-10.1371,-2.9296,4.5842,
-0.68245,-2.4,-3.4299,0.1192,-23.1477,6.2558,-12.2685,-1.2933,-8.8463,-7.9874,-9.5728,0.83521,-10.708,7.9246,
-5.703,-3.4615,-5.8754,-0.12914,-26.8203,2.7472,-10.3273,-2.9027,-8.0743,3.3378,-12.1317,8.2567,-8.8605,10.1005,
-1.7451,-3.4946,-2.3892,0.12026,-32.6824,4.2698,-4.1638,-3.4517,-2.528,7.7175,-6.8243,6.0747,-5.1951,2.9867,
4.3851,-1.1157,-3.4511,3.2461,-19.8754,6.6647,-8.4933,0.37082,-2.6173,6.5311,-2.3175,10.2895,-6.0887,2.0846,
2.9165,-5.6283,-8.306,-1.5282,-7.3549,1.6853,-10.1531,-4.7129,-8.486,3.4879,-7.2399,13.2874,-8.3747,7.5029,
6.5981,-4.3265,-4.9149,-0.95435,-10.2879,2.5483,-2.7952,-4.9123,-8.9409,4.2428,-10.6621,12.9723,-4.4975,13.3195,
8.1304,-1.1744,-3.1742,1.995,-15.4552,8.18,-6.4839,-1.725,-8.4045,-0.35013,-8.5761,10.2657,-4.7101,9.1459,
11.0171,-1.5863,2.8009,7.6599,-13.564,7.6887,-8.9874,-2.5858,-8.8645,-5.1498,-8.544,8.2035,-8.2839,6.1865,
12.0433,-2.2136,2.8742,10.8161,-15.401,7.9507,-7.7248,-2.6717,-14.3582,-4.1175,-14.0564,3.132,-12.3661,5.5748,
11.3207,-1.1169,-0.19073,5.346,-9.1748,8.9199,-1.9591,0.86264,-8.6765,-0.014505,-8.8747,4.8719,-4.8757,2.3478,
9.6773,0.39614,-0.17952,0.68715,4.8733,2.118,-1.3594,-1.599,-4.2993,0.95092,-4.4861,7.4723,-2.1728,1.7248,
5.2403,-1.0739,-2.0969,0.64592,0.72428,2.4729,-8.0263,-2.4674,-9.8259,-0.55239,-8.0733,4.1314,-9.7552,3.0676,
7.5772,-3.6603,-2.6938,-0.5979,-9.683,7.8683,-9.2317,-1.5962,-8.0313,0.68581,-6.8658,13.7657,-12.3032,0.23219,
7.6045,-0.066702,-4.4608,-0.080092,-6.2098,5.468,-7.232,-1.0185,-6.5851,1.1266,-4.5256,24.027,-8.1905,1.1826,
-2.4927,-1.0266,-4.1932,-1.0392,-10.1757,0.31925,-2.9417,0.97124,-2.3336,-1.8331,-4.2541,8.6061,0.49562,5.9319,
-7.1639,-4.8214,-1.0491,-5.7975,-23.5447,3.1926,-5.6572,2.3588,-0.26537,-1.2411,-3.9988,-1.5517,1.4302,8.9504,
-4.5647,-4.2913,-7.4938,-7.1367,-23.819,2.2779,-11.8255,-1.3979,-7.2391,1.4847,-8.3384,6.4954,-5.1633,2.3881,
3.9042,1.7509,-2.2237,1.4865,-9.8566,1.1772,1.8992,0.13196,-0.538,3.324,-2.5352,4.6596,2.3771,-4.9863,
2.7056,0.19963,1.7661,4.7713,-3.9626,-0.33974,4.1958,3.0166,1.9044,2.1602,-0.93687,-4.2971,2.2345,-5.651,
3.5073,-4.1509,1.178,2.557,-5.1711,-3.2116,-0.39447,2.3534,1.308,4.9229,-0.39895,6.0839,-1.7562,1.9187,
4.0198,-6.5534,3.2764,-1.6942,-7.0302,-4.2242,-1.5761,-2.3675,-2.3859,1.0121,0.34789,10.2981,-4.7843,0.11635,
2.0914,-3.5086,5.249,2.9872,-2.5108,-1.3192,-3.1688,-0.53827,-6.3401,-0.73584,-0.39589,6.5472,-7.6303,-2.5422,
6.7866,0.55827,3.9702,5.7,5.8348,-5.5784,-2.0143,-0.9879,-0.17513,1.7184,-2.7823,9.0465,-5.2443,-0.461,
9.7541,-0.43887,0.35778,2.4662,7.4129,-8.6179,-4.3038,-3.8209,-1.6107,-0.31264,-7.9177,9.9502,-6.8576,-0.9155,
9.4096,-2.1,3.9515,4.0052,-0.98586,-4.4857,-3.3224,0.50592,-5.1297,-1.4989,-5.7557,6.7018,-6.2054,-1.1018,
8.6041,2.1234,7.3298,6.4165,-6.952,-3.9755,-2.8821,4.091,-3.1347,-1.65,-4.205,4.6125,-4.1458,-1.2766,
7.3647,4.1654,-0.099601,4.826,-1.4737,-5.9064,-8.253,3.1224,-6.0798,-3.7204,-9.0147,2.6483,-8.4766,0.96936,
14.6358,1.5051,0.87047,4.0542,5.3636,-4.1055,-1.0087,1.971,-4.269,-0.12292,-2.689,2.9716,-5.5577,1.8753,
13.7574,2.8608,0.81847,4.7755,2.6315,-4.8233,-0.4665,-1.0396,-5.4589,-0.11531,-2.5274,1.8292,-4.2601,-5.4678,
7.6296,6.0634,-1.641,2.5606,0.54538,-5.4985,-2.3665,-0.01312,-5.6135,-3.0007,-8.1606,1.7196,-6.4149,-0.80167,
9.5819,0.87932,0.86759,-0.48558,-0.45167,-6.1324,1.1495,1.4335,-7.6868,-1.8568,-8.6353,4.9905,-8.4401,7.4411,
12.3815,0.34462,0.81554,3.8823,4.3961,-3.3543,0.59861,1.8299,-8.6719,5.4855,-7.1528,14.8144,-9.3799,1.6925,
5.613,0.56491,-2.8488,0.033978,5.3379,-4.8398,-0.64214,-1.4134,-2.1256,2.0233,-9.8567,8.8643,-10.5039,-10.2192,
6.2403,4.3872,0.2144,-0.45022,5.9813,-3.1034,0.36048,5.4201,0.89379,-0.99083,-11.1937,2.5476,-8.91,-2.3754,
5.3838,2.196,-0.76256,1.0228,2.2482,-3.8813,-6.4098,4.1308,-8.3186,-2.8593,-16.3069,5.769,-10.7853,3.0695,
6.266,0.85893,3.3806,3.613,3.3183,-2.4436,-3.8561,4.1243,-3.2398,0.92763,-15.5694,16.2691,-5.5589,0.71618,
3.2385,2.9766,0.04469,-5.0399,6.7347,-2.538,-3.8657,5.5636,-1.3586,-0.81525,-16.3225,7.8212,-3.5382,-2.9422,
2.0803,4.2442,0.042009,-9.5578,5.8486,-4.7958,-1.7055,4.266,-0.79471,-1.2483,-11.9687,-1.3252,1.4948,-1.8014,
0.75045,0.37438,-0.20171,-8.2612,-3.9023,-8.1232,-6.6647,0.87674,-2.9164,3.4061,-13.9019,12.8543,-4.1387,2.8862,
2.8748,-0.85315,-3.3229,-8.4886,-6.8014,-0.64621,-11.8086,0.58294,-2.9822,10.1914,-13.7909,26.1831,-10.3981,5.8463,
5.3536,-4.4176,-4.3286,-11.595,-5.6704,2.0439,-10.377,-1.621,-4.0083,5.0004,-11.7584,21.2378,-8.0867,1.8799,
3.1038,-2.2244,-3.5869,-9.453,-4.848,2.8851,-7.8262,-0.077906,-6.1784,2.2903,-13.463,14.179,-6.6377,6.5878,
0.98935,0.80162,-4.336,-7.922,-6.0034,1.2658,-7.3566,0.4087,-3.8795,5.0449,-10.2451,14.2921,-4.7932,6.1925,
2.3767,2.1998,-5.0397,-5.518,-5.643,-2.6661,-9.8073,-3.4717,-5.5749,4.2603,-9.6299,6.6861,-5.4694,0.51835,
4.6442,3.996,-2.3272,-1.8129,-0.48414,-1.5423,-8.7369,0.59294,-5.2404,0.63021,-10.9808,2.9105,-5.6237,0.48725,
6.5345,1.5868,1.91,-3.8731,1.2321,-4.1011,-3.1512,5.1364,-0.82842,-2.0589,-4.7781,5.3872,-3.1168,-3.1572,
7.8294,0.7685,1.5542,-1.9537,1.8811,-2.6499,-3.6853,3.1412,-4.8763,3.608,-4.2507,14.4638,-3.653,-1.2808,
9.0471,1.4455,-1.1899,-1.5953,3.9379,2.5705,-4.6692,-1.1444,-6.2707,6.5252,-10.9853,17.6935,-4.6389,5.7862,
7.058,2.3227,-1.6009,-4.3921,8.5218,1.9343,-3.9071,-1.5581,-5.4125,0.34868,-10.3262,10.8473,-9.1812,6.4024,
4.2244,3.1476,-2.9511,-3.6466,11.8669,-4.9306,-3.1908,1.9099,-7.9803,-1.6,-4.8859,3.93,-10.5586,3.1262,
6.6223,1.2713,0.35921,-3.1866,7.5397,-5.3579,3.9903,-0.85606,-1.9576,-3.6734,-1.9419,-9.5624,-0.042877,-0.1946,
6.2245,2.6413,-1.1081,-2.9954,2.2666,2.1944,4.7152,-1.769,3.9444,-8.2737,-3.2712,-21.5222,6.7081,-4.0393,
3.1999,6.0982,-1.2826,-0.64654,2.8538,2.3037,3.7094,4.3627,3.4668,-4.1618,-0.90573,-14.6872,6.5466,-4.5199,
1.08,-0.5344,-0.24157,-2.0538,0.75433,-3.6189,-0.36978,3.1373,-3.4899,-2.948,-4.708,-5.6111,0.36947,-7.141,
7.7638,-0.50211,0.25463,3.8538,-0.73718,0.93681,0.13457,2.4669,-3.2808,-2.7709,-2.979,0.99234,-0.13486,-1.4101,
7.7802,-0.95415,-1.6886,6.9973,-7.4416,-2.976,3.5007,-2.0197,-2.1198,-6.9432,-3.2825,0.93303,-1.5728,5.4232,
6.831,1.9952,-1.1054,8.0232,4.0919,-0.86926,4.255,-1.4166,-4.4027,-7.9729,-4.5318,-4.908,-3.889,6.5441,
8.3495,2.3576,-2.0031,5.6139,16.3801,10.2699,4.4814,1.5607,-1.7282,-6.048,1.525,-14.2543,-0.28099,-0.11532,
8.8129,-0.19397,-2.3649,-0.025616,5.7561,9.1718,3.7306,3.3953,3.6781,-0.86488,6.2542,-10.5065,4.5566,-4.4467,
4.9094,-0.1821,-6.5615,-2.4344,1.0722,2.3547,-3.7239,1.2636,-2.8093,1.1154,0.57604,-5.0561,0.9085,-5.144,
9.6761,3.4438,-2.5524,0.84512,11.8539,6.7927,1.0789,-0.017531,-1.9179,-0.63918,-0.66382,-7.8862,1.095,-0.25608,
10.0596,4.2013,-1.4352,-0.16969,5.3583,9.7598,1.9782,-0.98058,-2.7669,-4.457,-4.4806,-5.4846,-2.345,6.0256,
6.5642,2.9851,-2.7951,4.179,-3.6403,10.1383,-1.9966,0.52429,-4.0469,-3.2255,-4.2115,3.0394,-2.2045,9.5206,
4.7241,-0.086081,-2.6274,5.8565,-0.047221,7.1199,-3.3231,-1.4349,-3.3222,-5.924,-0.58393,-0.035006,-2.5537,4.1292,
0.10211,0.88318,-2.47,1.6485,-4.3832,7.6568,-6.016,-3.2772,-5.5332,-6.0507,-2.4778,-2.4433,-7.7034,2.9173,
-3.2782,-1.5802,-0.39336,2.9961,-12.7968,9.1258,-4.6909,-2.5984,-5.6829,0.57906,-4.739,2.5238,-5.3127,5.1526,
-4.7685,-2.6904,-0.61096,5.9496,-8.8958,11.2296,-5.1326,-1.7194,-5.1012,6.5701,-5.1778,8.3982,-2.3426,1.2278,
-6.893,-1.0827,-3.9483,2.2181,-11.2543,8.6276,-7.7167,-2.5806,-2.3845,6.6578,-4.3852,7.8943,-4.1303,0.19028,
-7.6847,-0.7768,-0.57837,0.39782,-15.6407,3.5302,-6.5308,-4.113,-0.072752,-2.6597,-2.4349,-0.051647,-5.0882,2.348,
-7.9465,1.9209,-0.78463,6.3995,-10.6049,6.9338,-6.3799,-0.25076,-0.79129,-7.5618,-2.0478,-4.1459,-4.5415,2.93,
-9.157,-0.36352,-0.97852,4.8107,-14.5479,10.1332,-1.4178,0.96958,2.8716,-0.60016,-2.1659,1.1645,-0.65358,3.4771,
-13.4278,-0.82364,-0.43788,-2.2269,-22.3519,6.6332,0.11349,-0.53485,0.77112,6.6667,-3.9641,7.8436,-2.0606,3.7509,
-15.2737,2.3593,-2.5808,-4.7443,-14.9852,6.4757,0.82958,2.1483,-2.4086,8.9178,-2.521,10.024,-1.2141,6.6593,
-13.8751,-3.5671,-3.39,-10.7264,-12.1579,5.1231,0.78003,0.5734,1.5925,1.1521,-1.888,7.0122,1.751,7.2239,
-9.4272,-1.6658,-1.4994,-8.3956,-7.813,7.9492,0.01033,2.7082,5.1124,-0.60425,0.39487,3.4585,2.8513,7.5133,
-9.3437,1.3264,-1.8916,-6.9278,-6.3804,5.5438,2.9015,3.0278,4.8054,-2.4964,0.85288,-5.9083,4.1262,-3.5425,
-10.4703,2.4521,-0.090865,-8.6813,-12.0229,4.4883,2.9689,4.0515,3.7942,1.7512,-3.2956,-6.7586,5.5659,-4.0529,
-13.4575,-0.34658,-3.7008,-8.8838,-14.9169,7.8344,-7.5736,2.1211,-1.0128,5.7435,-7.1953,3.0469,0.65264,6.5542,
-6.8655,1.6024,-0.10433,-3.0481,-5.8272,10.7388,-4.709,1.0295,-1.4344,5.3984,-4.8354,13.9508,-0.83278,7.1248,
-0.18659,2.4706,0.8658,-2.3833,-3.0672,11.0583,-0.08772,3.3779,-3.2765,7.4851,-8.4016,17.4526,-1.2647,3.3228,
-0.89875,1.1171,-0.87338,-5.3733,-5.5345,11.6001,-1.2877,3.4167,-0.42838,8.7232,-11.5129,15.2001,0.015975,9.1495,
-0.8446,4.9067,0.62551,-0.71235,-0.38196,11.3863,-3.1384,-1.6088,-1.8492,4.3432,-13.2325,9.4676,-5.2874,8.1183,
-0.55296,4.8532,1.3109,-0.42864,0.84602,9.9797,-3.6735,-3.6819,-7.7638,-0.014753,-13.1615,9.6229,-10.5138,-1.2868,
-2.2068,-1.4637,3.8836,-5.9468,-4.2662,9.6221,-0.31983,-2.2555,-1.2722,1.1912,-7.3103,7.3581,-2.4109,3.8523,
-6.4127,-0.41159,0.27609,-7.5181,-4.9741,10.0091,-3.6746,-0.67389,-1.1958,0.63779,-8.7999,0.65011,0.62581,14.226,
-1.4489,2.7464,0.50072,-2.0056,0.38581,10.6137,0.16103,3.9456,-1.3653,1.3227,-7.5488,5.1906,-1.0987,11.2035,
1.5306,-3.203,3.3627,-3.8135,-1.0836,3.2279,5.454,1.2987,-1.2834,0.7609,-7.5778,3.4329,-1.5152,-2.9665,
-1.4538,-2.047,2.679,-3.1027,-4.393,1.588,1.7523,2.1847,-0.24203,1.6796,-8.5694,2.2626,0.98629,0.10399,
0.079713,-2.4061,0.5901,-4.3624,-9.4319,1.0108,-4.1374,2.536,3.1469,0.133,-5.6446,5.9837,0.44518,6.3647,
5.3771,-2.2617,-1.3735,-2.6548,-6.4558,3.3603,-5.3354,1.9014,0.065608,2.5347,-2.4144,13.337,-1.9921,4.0542,
4.3316,-0.92071,-0.56819,2.0842,-1.9709,7.256,-1.3999,2.5107,-4.0357,5.5161,-4.9206,7.9575,1.2609,2.1237,
2.6259,-2.3117,0.43023,0.5129,-6.1912,3.9286,-1.3159,-0.53245,-2.8297,0.36487,-11.8562,-5.053,1.6672,0.55049,
6.0838,-0.003866,-2.2467,1.2055,-0.27588,3.4519,-3.888,-0.74101,-1.4546,2.5121,-10.4215,-2.5806,-2.5302,0.27649,
5.9599,0.7195,-2.3531,1.8563,6.2482,3.0036,-1.9677,-2.384,-2.0905,4.0489,-8.5911,5.0458,-3.5835,-2.8734,
5.1197,-0.7697,-0.28392,2.2266,4.427,4.2694,-1.8499,-1.2769,-6.3036,4.7696,-13.3781,13.9018,-5.7788,-0.77299,
8.187,-2.1698,1.1794,5.9494,6.0896,4.4956,-0.29265,6.0306,-3.5148,8.3398,-11.1291,18.8528,-5.4321,11.3245,
6.7317,-2.5218,1.5908,2.7002,6.2064,-1.077,-3.6493,5.1861,-1.8579,3.9828,-10.4616,11.4544,-8.4808,10.1629,
7.0511,-0.20129,-0.67383,2.2972,3.1829,4.0493,-10.9022,4.6344,-6.8081,0.12885,-13.9313,9.5623,-12.5513,5.4557,
11.2076,-1.8762,1.0536,6.7389,2.2686,12.7242,-3.2584,5.5614,-1.3381,3.2544,-6.1057,12.6042,-4.8081,4.4053,
4.9915,-3.4509,-0.69685,7.0574,1.8915,7.8634,0.55253,5.9507,1.3937,2.8181,-0.67771,5.8219,-0.90465,3.418,
0.83517,0.61257,-2.5832,5.6701,2.2599,2.5709,-3.337,7.0399,-0.13617,-0.72539,-1.6014,-2.2401,-1.8142,8.9975,
6.0882,2.504,-0.50004,1.9555,1.6424,3.8629,-3.1368,-2.0592,-0.128,-3.092,-2.4692,-1.1414,-1.7054,4.6013,
9.0969,1.8718,-2.3982,-0.572,2.9899,7.4875,-4.3948,-2.8999,-1.5666,-0.97828,-3.2853,0.85527,-1.1211,-5.3157,
8.0694,0.79543,-1.2902,-0.53745,0.40036,6.5565,-4.6129,4.0227,-2.9186,0.52644,-3.5699,-3.0527,-4.4281,-4.0327,
8.0667,-1.1805,0.71536,1.4225,-2.9981,7.6089,-5.7823,2.3351,-6.118,-2.8796,-5.7663,0.023016,-13.3214,2.9577,
8.306,-0.86869,2.3597,1.0962,2.7252,11.7317,-3.7486,0.50778,-5.028,-2.9478,-4.2155,12.7956,-8.9067,7.36,
7.5667,-0.5756,0.048928,-5.4775,3.7669,6.4485,-0.39023,1.6826,-3.0391,0.36257,-4.2035,13.2332,-0.90051,8.6056,
10.2462,3.0744,-3.5694,-1.533,-2.0025,9.677,-3.0179,7.1253,-3.0977,8.7765,-4.6742,15.5727,-3.4976,22.1893,
8.4261,1.2027,-1.668,-2.6463,-2.1235,10.7836,-4.0421,4.0462,-2.6709,7.527,-1.7422,14.3974,-4.0111,23.6297,
6.9562,-0.79769,0.36024,-7.7902,9.5731,1.9414,-0.42515,-1.0173,-2.9925,0.32647,-3.0844,1,-0.87836,8.1119,
7.2624,1.9015,-2.3127,-0.81458,15.9888,3.9948,2.7341,1.6955,-2.0899,2.4763,-3.1396,-6.5316,0.37987,-6.4748,
3.9339,-1.1049,-1.6918,7.4288,9.2446,4.7188,3.0517,2.0755,2.856,3.2918,0.90492,-1.3196,1.3212,4.0366,
5.3854,-2.726,2.5073,8.1881,17.1259,2.2667,1.6636,2.1922,0.51526,-0.5209,4.4658,3.3395,-0.92749,7.4101,
7.2312,-2.8032,4.0439,3.5992,25.0162,2.3714,2.7688,-1.0726,-2.167,-2.1771,1.5465,-1.9228,-4.9694,-3.3991,
1.9768,-1.189,0.90895,1.9373,13.8744,2.7113,1.6386,-3.4186,-2.0367,-1.0824,-3.8487,-5.6636,-6.5992,-4.1588,
-0.31072,2.9799,-2.2788,4.4723,9.4263,2.7898,-0.14672,1.366,-5.5297,-1.7406,-4.3409,-2.6724,-5.9621,3.0804,
5.492,-2.9835,3.6425,3.7221,11.2709,3.5863,1.3079,1.2841,-4.716,-1.6361,-4.0804,-0.58388,-5.1224,3.8594,
3.4758,-4.4917,4.6288,3.2578,10.3537,4.0945,-1.9036,-2.8903,-6.1203,0.14926,-9.3792,4.0304,-7.9486,-2.3977,
3.5082,-0.12482,-0.22826,5.2315,13.3479,0.2334,-1.5484,-2.9579,-8.8865,-1.065,-11.9499,4.9939,-6.2663,-5.3873,
11.0102,0.36484,3.6416,6.8455,20.26,3.5936,1.4368,0.59381,-7.3892,-4.3753,-8.8226,-1.0905,-2.9981,6.5053,
8.6624,0.58391,2.2183,3.3013,18.321,7.9573,-0.33667,1.2811,-5.7406,-4.3538,-8.5342,-8.015,-5.9517,9.7304,
6.6968,-0.89738,0.15698,-2.6809,12.4015,6.034,5.4681,1.2047,-0.57545,-1.2,-5.6116,-8.4979,-3.184,-3.3869,
7.7411,-0.36138,-0.33461,1.3361,16.4779,6.1537,6.5861,1.1322,-0.059221,4.1744,-7.2033,-1.2394,-2.0293,2.1187,
3.6612,1.8295,-2.4837,6.3176,15.2483,6.0255,1.1297,0.34088,0.1853,9.9495,-7.0121,8.235,-3.5948,11.874,
0.54899,1.7197,-2.3347,1.1179,1.7999,5.6639,2.0258,1.7667,1.6204,8.3882,-1.7711,8.2228,-2.4148,1.0382,
1.7216,1.3753,-1.9534,-1.1181,-2.4057,4.119,1.1811,-0.026314,-2.5744,3.7878,-5.28,3.1499,-2.993,-4.0855,
4.9925,-0.63516,0.091775,1.8413,7.3798,1.462,-2.264,-3.8809,-3.3835,5.007,-9.3018,4.4074,-6.1877,1.4625,
7.1035,1.3311,-1.8419,1.7308,13.204,4.2663,-3.092,-0.27404,-2.2167,5.1885,-4.8873,7.9994,-6.7803,3.3029,
4.5079,1.9744,-2.4545,-3.4345,7.3499,6.6617,2.6369,3.84,1.0496,-1.1486,-0.014516,3.4218,0.6162,1.8992,
4.7192,-2.0007,1.5493,-1.7824,2.5703,2.4054,5.8529,-0.24703,-0.45941,-3.972,-2.9059,0.32421,2.5072,-2.5533,
7.5695,-1.1573,0.73303,4.832,3.6214,1.0562,-1.0058,-2.8833,-8.3856,2.2919,-7.3109,7.7766,-6.5613,-3.123,
8.0797,-1.0878,0.68905,1.1676,3.4041,0.028503,-1.9097,-3.6746,-7.4005,1.6725,-6.3903,7.31,-7.6134,4.7772,
4.4614,-0.7816,0.40674,-4.928,4.4052,-0.69611,0.374,-4.1771,-6.2336,-2.0433,-5.7659,2.2916,-7.3981,5.2139,
2.5065,0.95252,-1.3049,-6.3195,5.3457,1.0329,1.5568,-2.2392,-3.6904,5.5511,-0.35826,5.7696,-4.7845,-2.0888,
0.90983,-0.55089,0.21966,-5.9403,-1.724,0.0065855,2.9097,-3.0692,1.3517,6.1819,1.109,2.0489,-2.0873,-7.2661,
1.3374,-0.035676,-0.27568,-2.2092,-4.5123,0.48835,-0.15717,-2.8848,-2.586,-1.4196,-5.2238,-9.161,-4.8544,-5.8661,
3.4268,-1.2388,0.94615,3.9489,2.7483,1.6643,2.5038,-1.9884,-3.1537,-2.0573,-2.7412,-7.4061,-2.8759,0.51191,
2.98,-1.4057,1.1306,5.8813,5.7166,0.84135,3.0763,-2.1102,0.16875,3.6095,-3.2999,7.1383,-2.4626,8.9166,
0.63156,-0.11606,-0.14255,3.8407,3.204,0.067514,-2.6519,-0.7788,-1.0462,6.5264,-3.8252,20.81,-5.9303,12.479,
0.83509,-3.2426,0.10697,1.9235,0.84261,-2.5876,-5.6258,-3.3832,-2.6707,1.0731,10.5043,12.8127,-5.8154,-0.56181,
1.0257,-3.2888,-4.9609,4.4594,3.9258,0.21895,-5.5295,-3.9033,-3.7155,-0.19632,23.974,5.5363,-3.779,-12.3385,
3.6155,-0.44012,-4.9044,5.3969,8.2693,4.3034,-1.1001,-2.464,-2.2875,1.9844,16.751,3.0347,-1.3834,-7.9825,
3.8807,2.4786,-1.7179,4.109,7.7734,0.67051,-0.070035,-2.7984,-5.0425,-1.5089,1.6459,-10.1626,-2.2645,-3.165,
1.2375,4.2578,-1.6146,8.683,3.4503,1.5944,0.8978,1.2262,-1.8482,-4.3107,-8.9374,-16.7839,2.6919,-4.9035,
-1.0059,-0.094993,0.65145,10.3312,-1.336,3.1859,3.9774,3.3217,5.2526,-1.4009,-4.7857,-6.8588,7.592,-1.9582,
1.7056,0.15167,0.3714,8.506,2.8415,2.2719,2.0516,4.3277,0.35816,4.7091,-9.0779,7.6527,1.5929,12.2593,
4.2546,2.7939,-2.3022,5.8267,6.7686,0.93051,3.6159,0.93435,-2.3146,1.2929,-9.7387,6.5912,-0.67205,13.3314,
4.4817,2.6263,1.2104,4.0308,10.2189,0.87468,6.291,-2.9776,2.1625,-6.9794,-6.7438,-6.8197,1.7789,-1.5685,
1.0793,-0.6648,2.825,2.1018,11.7749,1.5451,1.8162,-1.1122,2.2738,-5.8373,-4.652,-12.4361,2.395,-14.1281,
-4.2881,-3.517,3.6194,-2.3627,-3.0316,-2.8859,3.6354,-2.4913,4.5479,-1.1487,-0.51645,-11.208,3.2157,-0.26498,
-5.7178,-2.1009,3.1615,-3.9084,-7.3085,-6.3284,7.5149,-5.4751,4.5158,-3.7311,0.7196,-17.5252,5.1916,-7.7207,
8.7252,4.2921,6.8282,-0.29895,7.23,-2.0919,16.705,-1.2902,7.1374,-7.8456,2.6046,-28.5247,13.5572,-16.4165,
17.9632,8.1317,8.5879,0.92406,20.8962,-2.2076,18.354,-0.97156,5.5041,-8.5799,0.27941,-26.5725,12.0207,-12.2982,
2.7854,0.41299,1.3232,-5.3984,33.7425,-12.1985,6.6475,-9.1084,-3.5033,-6.6193,-6.9687,-11.9628,-1.234,-7.222,
-0.15331,-3.9499,2.2084,-6.0386,35.936,-14.3584,9.1409,-9.526,2.0098,-1.8836,-2.6939,1.7707,1.7327,-3.414,
1.5427,-6.3644,0.38865,-4.4709,36.4309,-10.3639,7.3876,-7.2672,0.20197,-3.4578,-6.1477,-1.4691,1.8697,-6.8246,
-3.3704,-3.5722,0.36556,-6.1311,34.2453,-5.4035,5.0159,-7.3134,-0.77424,-2.7682,-3.3685,-11.0221,1.2754,-7.3792,
-6.5422,1.4628,0.82556,-13.958,28.3337,-11.3458,7.6075,-6.8746,5.0568,-3.084,4.5464,-15.6634,4.0914,-6.9364,
-9.0421,1.857,-5.9729,-13.6029,19.4029,-12.5932,2.8123,-4.5339,1.8609,-4.3452,0.89916,-13.2774,2.3997,-7.9665,
-6.8126,0.058115,-1.035,-4.3508,19.4437,-4.848,1.4385,-3.0568,-0.90211,-2.8795,-2.288,-15.614,4.4246,-5.8015,
-2.0655,4.8749,6.7399,-1.1972,26.9542,-1.1831,-0.094105,-3.3553,-0.84798,-4.6349,-2.1508,-20.9441,3.1948,-4.4896,
-2.6643,9.1624,4.1661,-1.8485,21.2394,-2.3172,2.0809,-3.3952,0.40796,-3.6337,-1.7805,-15.108,0.83418,-8.3173,
-8.7714,2.3457,2.4703,-0.77329,6.4677,-5.0702,3.8843,-6.5655,-1.0623,-1.9694,-4.0843,-8.4164,0.3022,-6.372,
-12.3425,1.482,0.15249,-0.003989,4.8748,-5.007,-2.8563,-6.8949,-1.24,-0.64639,-4.5621,-4.2965,1.9713,2.9279,
-11.6019,3.3213,-3.2311,-2.8963,7.4744,-4.2246,-3.6492,-5.035,2.2088,-0.12567,-1.8783,2.2278,4.7451,6.6086,
-8.9774,3.6042,-3.037,0.65219,6.0618,-1.5608,-1.0199,-3.7688,-0.81597,2.2927,-2.7297,7.8794,0.60421,2.8379,
-12.5366,4.5928,-2.1319,2.2998,5.9391,-1.2262,-0.71775,-3.7836,-2.4542,1.4318,-2.8069,-0.54755,-3.0475,-5.7681,
-15.1581,5.2817,-2.0037,-4.5864,6.0649,-2.5986,2.2181,-2.1106,3.9602,-0.10017,4.1107,-7.2629,4.8484,-1.5654,
-15.6951,4.0003,-6.2221,-8.1678,4.7369,-0.99669,1.6024,1.3903,3.24,1.8338,5.3096,2.8136,10.3418,11.0614,
-14.2713,2.7962,-4.4027,-5.7498,5.4168,-0.93711,2.4703,1.789,3.5277,0.75968,1.6168,7.4653,8.7572,7.5054,
-11.2458,4.798,-3.4152,-8.0559,6.2971,-1.1219,0.63533,-1.4513,1.6289,-1.4551,-2.5775,-2.3827,0.75999,-6.6833,
-9.607,3.546,-7.0669,-8.5366,8.3296,0.87388,0.59698,0.56372,-1.3612,-2.3319,-0.012532,-6.5782,1.1966,-0.49746,
-8.3074,-0.7643,-3.9916,-6.8194,10.4811,1.0626,5.6226,-0.19324,5.2282,-3.8789,5.5321,-4.4961,7.1505,8.9322,
-8.0502,-0.95964,-2.0646,-4.7228,11.0573,0.75769,2.152,-2.351,5.1557,-3.4055,3.9946,-3.9856,3.5878,0.92465,
-6.6031,-0.4199,-0.97664,-3.4753,8.4655,-1.6981,1.0588,-3.1741,-0.45604,-1.7547,0.38072,-0.85416,-0.0017019,-7.8077,
-5.4838,0.32796,-0.19537,-2.0622,5.7882,-2.3194,3.1642,-2.7424,-4.0443,-1.8906,-1.8115,0.88408,-2.171,-3.724,
-6.1188,0.30897,-1.1473,-0.49195,3.5129,1.6764,2.4926,1.2787,-3.8014,-2.7412,-5.077,-2.5427,-0.59424,10.5994,
-2.6184,-0.91509,1.0905,-3.1138,4.9891,1.3346,4.5125,2.4071,-2.3683,-8.1201,-3.5674,-9.3803,3.0566,10.5661,
2.1184,8.5398,2.2303,-0.27538,15.0541,2.4598,3.0364,3.4679,-2.4672,-9.3202,4.1185,-10.0227,3.1142,-4.1679,
1.0274,11.4019,3.5428,7.4539,15.1152,4.7224,3.8186,3.2599,2.9835,-6.3508,8.2102,-9.9033,4.856,-8.3768,
-0.72189,4.6922,5.0174,8.2115,11.5567,2.2699,6.7225,0.89466,1.5992,-9.5852,2.6559,-12.9245,3.3593,1.0438,
2.4549,3.2054,3.0292,5.0677,21.2272,-0.51787,2.7037,1.0819,-5.9685,-14.0718,-0.63697,-9.498,-0.45765,-1.6703,
3.9946,3.7362,3.0882,4.0405,19.2309,-2.1738,2.7827,-1.6338,-0.067052,-7.2017,-0.35756,-4.8305,0.77487,-10.9699,
-5.1631,-3.4778,-4.5689,-0.29925,3.977,-1.3205,-0.035833,-4.1874,1.1423,2.6304,-6.3621,-3.3354,1.4513,-5.7324,
-6.7813,-3.7513,-9.1153,-4.1379,-4.5772,2.6154,0.93041,0.40197,0.59157,9.7032,-1.6418,9.398,2.3283,7.1448,
-5.8925,-3.5258,-8.0864,-8.7099,3.8921,-7.6644,-2.4994,-3.4781,-3.3003,5.2646,-0.579,13.6548,-5.5242,1.4139,
-2.8874,0.30117,-6.396,-6.5001,3.9,-6.9636,-1.1446,-5.9209,-2.3789,3.7439,-3.1958,1.5073,-3.0236,-4.6965,
2.5883,3.1749,-2.156,-3.2182,-5.4933,2.613,8.0829,-4.1197,8.8508,1.1089,4.2265,-10.1525,9.6911,0.88727,
1.9508,2.9847,-0.58019,-0.61478,-4.1996,2.9384,5.188,-0.49779,5.9094,-3.2962,5.9014,-6.651,5.2535,3.7268,
0.6287,-1.292,-1.2685,1.5915,1.5958,-2.7818,-4.5235,0.73714,-3.363,-5.2678,1.4497,0.25573,-3.4976,-5.4151,
4.9295,-1.2142,3.1462,7.7627,-5.2486,-2.6146,-2.3237,-1.2351,-0.75087,-7.3616,2.8092,-2.17,0.56839,-7.982,
5.5981,6.5714,6.8138,14.0459,-6.8615,3.8088,5.5285,0.28485,5.0788,-4.9917,6.4971,-5.4142,5.8369,1.6559,
-1.4869,3.2848,6.4047,7.4183,-3.0755,-0.75785,-0.588,-0.69634,4.7738,-2.2819,8.0352,-10.3918,5.9689,-0.37186,
-4.5312,-1.0101,5.7795,6.2499,-15.1835,-4.8102,-6.5783,1.5146,3.7645,0.50614,8.2764,-8.5634,7.7799,1.3377,
2.4896,1.4611,2.0582,10.2137,-16.2007,-3.5573,7.9164,-3.3965,2.5743,0.47578,3.923,-2.747,7.3131,7.042,
9.8122,2.5785,-3.1267,5.0213,-1.1287,2.1996,15.2747,-8.7366,-1.6773,-0.75783,1.0368,-1.3771,-1.5616,-1.3345,
0.5464,1.9419,-2.4567,2.7918,6.7728,6.4064,0.25822,1.429,-2.0586,1.6978,2.4208,1.1161,-4.8419,-8.9672,
-5.9941,0.13789,5.6442,10.0959,-7.7336,-4.3426,-2.2879,3.9942,4.0902,-0.57349,2.5163,-3.5304,5.3303,0.48867,
5.9347,-1.3162,0.4853,9.4902,6.8304,-9.3842,11.9494,-10.3455,-1.9398,-11.6263,-9.2038,-17.4186,5.4925,1.4237,
19.6786,2.3777,-0.26718,8.6798,20.5206,5.2789,12.317,-4.0604,-1.5824,-14.5442,-8.8926,-22.2787,5.8863,-7.0979,
27.2953,4.1637,10.8361,13.9436,27.3636,19.0621,-2.522,9.6805,0.92267,-17.0455,-11.2515,-22.8702,3.6049,-16.313,
35.058,9.9395,14.7657,18.1686,39.8218,25.3902,-12.6143,13.6795,-6.604,-16.7461,-21.4225,-19.3288,-3.6013,-13.647,
47.0545,15.3686,15.0846,16.8376,51.5325,28.928,2.2426,13.0992,-9.3413,-15.0185,-19.4142,-23.7127,-1.698,-12.5872,
40.013,8.1798,8.3951,9.0786,62.5405,14.1771,11.8694,1.2263,-14.5656,-26.6501,-21.6236,-36.39,-5.9346,-23.4009,
37.1305,12.9919,9.8194,16.2469,72.8881,19.5933,0.070284,1.1529,-8.3888,-20.2307,-14.0594,-26.3731,-2.6863,-8.4997,
31.7692,6.1863,8.5073,5.8716,82.6148,26.3714,-14.0339,0.36037,-5.2344,-13.4737,-11.0465,-15.8726,-4.2123,-1.4818,
20.9452,8.4665,11.1301,3.3504,91.7579,22.6197,-25.6049,7.3289,-2.269,-6.6395,-7.7324,-5.5205,2.0662,0.29412,
9.0832,3.6202,5.1597,1.2212,100.3524,7.1625,-19.2479,2.0684,-5.0249,-12.9895,-10.6429,-8.0813,3.8704,-1.6517,
6.1278,-4.792,0.99395,-0.29811,83.3648,0.10482,-29.6622,-0.46559,-5.2056,-9.7998,-8.5583,-7.5962,2.6741,-0.58852,
-4.1218,-7.1555,0.21095,2.3709,64.2629,3.714,-41.621,7.0337,-0.31396,2.1164,-1.5368,1.7772,3.2365,4.9904,
-16.8901,-12.511,1.6443,-4.0381,46.3071,-2.7756,-39.1237,0.82732,5.4897,1.5072,1.9296,1.1884,7.8628,4.6908,
-18.528,-15.8579,3.2331,-4.037,29.4287,-7.1886,-42.8021,-1.8736,5.401,-1.7169,1.0907,-4.9087,9.0785,3.2042,
-21.7547,-15.8703,9.3056,4.4004,13.563,-9.6498,-47.4648,7.8797,7.9695,3.6887,2.4715,-0.2754,10.9439,4.4582,
-29.3675,-17.0873,10.4345,3.8954,-1.3508,-16.0602,-43.4116,5.7197,8.6962,7.0828,4.4924,6.731,10.5283,10.2163,
-31.4616,-17.9905,0.16773,-4.0514,12.8302,-17.9889,-37.9146,0.07413,4.3182,8.5863,2.2949,13.5577,5.0761,12.4961,
-32.2252,-21.9725,-2.0117,-9.3517,-2.0396,-21.0072,-41.1834,-1.6178,1.8898,9.7581,-0.49414,16.8419,3.0845,3.7923,
-24.2661,-12.2185,5.0984,2.5376,-16.0172,-20.952,-45.702,0.16652,4.4279,7.9678,4.1148,12.6979,7.9607,6.6978,
-17.9895,-6.1827,2.3824,8.6519,-0.95617,-22.105,-39.5854,-0.32541,7.0543,1.7051,10.1344,1.3307,10.3756,10.6347,
-23.659,-11.5963,3.2037,1.3839,13.2012,-19.3325,-29.4975,4.0324,6.1491,4.4949,7.1162,4.6253,12.1631,9.9966,
-34.7727,-20.0593,2.5294,-8.3399,6.3834,-17.2084,-33.0303,-0.065664,-0.96851,7.1175,-1.5057,7.722,6.6129,7.9504,
-28.3478,-19.338,8.6439,-2.0552,-6.0514,-16.6581,-27.6743,-1.5082,7.2841,7.1726,5.8153,2.9201,9.1084,9.8837,
-25.6831,-13.357,11.0178,4.8171,-19.7883,-19.9969,-26.0138,3.403,12.6321,8.6704,10.769,3.7093,13.3826,10.7369,
-31.6137,-12.7965,7.7056,0.43068,-32.701,-20.4843,-28.5504,1.994,11.1512,12.2476,9.8819,9.0303,14.2669,10.8156,
-28.753,-18.7779,2.9047,-5.8624,-44.839,-16.363,-29.7299,-3.4285,7.5894,11.0305,5.4324,9.9345,7.6261,4.8643,
-30.1611,-19.8203,-4.2594,-6.7155,-38.8947,-13.212,-34.4538,-5.392,1.5904,15.4304,1.9734,16.3283,0.17862,1.9209,
-35.341,-15.4976,-4.2448,-6.5535,-49.3354,-13.1422,-31.6634,-4.3456,8.003,20.0482,9.3268,20.4103,4.7476,8.3135,
-39.2463,-13.8449,-6.1593,-9.2938,-60.4753,-14.0409,-29.5224,-2.3976,10.1739,11.8554,9.0082,11.7139,5.1857,4.1993,
-37.3737,-16.3886,-5.3076,-7.772,-58.8955,-13.6806,-25.3409,0.63854,7.1531,8.2518,5.093,6.6725,6.8025,-5.2119,
-27.9005,-16.8514,-1.1327,-7.7877,-41.2617,-11.4135,-19,-3.7381,5.2776,14.0232,4.3055,16.3951,6.3944,1.8497,
-23.093,-10.7786,-2.2701,-7.0794,-24.686,-10.0058,-16.6547,-6.6473,1.346,18.7259,3.3242,28.1858,-0.01439,15.8387,
-19.5382,-5.0704,3.41,-2.5571,-37.3049,-14.9488,-4.3272,2.1874,8.7368,20.2532,11.5607,30.1098,7.94,18.6243,
-20.776,-9.5867,-1.1332,-9.1526,-44.3459,-19.3548,-3.1035,3.5022,9.6587,14.6995,11.8311,16.2524,10.8378,4.9736,
-18.0832,-7.0833,-5.4035,-12.9417,-27.5851,-9.0345,-7.2556,-0.081895,7.1514,14.7818,9.1931,9.0103,7.2955,2.747,
-12.6599,-3.7658,1.6692,-7.3447,-40.03,-8.4924,-3.4461,-2.0052,10.5782,14.3768,10.0878,11.3622,4.4476,6.9205,
-11.9005,-5.4682,2.5331,-0.63732,-51.7282,-15.2135,-3.7215,1.4894,10.9076,14.4783,10.9285,12.6084,2.7343,8.9156,
-9.4991,-3.4529,3.1045,0.12382,-45.8527,-12.1315,0.11725,2.1229,8.084,15.7788,9.5499,14.5035,5.7037,9.104,
-5.073,2.0569,6.7741,2.0446,-29.0016,-9.9573,6.377,1.9955,3.2607,12.9039,5.1201,20.3817,3.9152,10.0036,
-3.0811,0.72842,4.6807,2.1631,-41.3615,-10.565,7.1996,5.9734,4.2701,8.0325,7.9466,15.5436,5.3678,8.1983,
-7.2348,-5.1001,-0.90257,-3.2691,-49.7258,-10.4132,6.7677,1.2764,7.8705,0.31995,8.4339,0.51099,8.4199,1.9221,
-7.0417,-2.1425,-3.9819,-0.90379,-40.7167,-6.173,6.1204,0.47694,4.2648,-2.3508,5.7587,-1.0864,6.7094,3.9759,
-2.5218,1.1193,-3.0199,1.8018,-51.5301,-9.4183,7.4404,1.6534,3.2858,5.2618,8.5464,8.8609,7.03,1.086,
-1.4064,4.4263,1.0175,6.0317,-55.6691,-11.7455,6.0297,0.59008,2.1245,13.1411,7.5515,14.5956,5.1622,2.4669,
-3.2502,2.7145,3.367,10.4906,-38.229,-8.1482,7.1144,0.072746,-2.3413,12.353,-0.13245,18.5405,0.99605,11.9598,
-2.5733,-3.233,7.0214,8.4149,-31.2352,-13.9259,12.954,-1.8598,0.20934,10.1656,2.2856,15.4999,2.3825,5.4577,
-4.5883,-1.8339,2.0206,4.2943,-43.4611,-17.1879,5.6688,-3.9176,1.4018,9.7964,11.5487,9.0261,-0.89412,-5.2339,
-12.2667,-0.51858,-5.0905,-2.9528,-54.9535,-14.9518,-2.1429,-3.9235,2.523,3.665,11.0968,1.0127,-2.0453,-2.7507,
-10.3254,2.1639,-3.5796,-5.9088,-49.2459,-11.4029,6.9038,1.3733,6.9512,3.6863,6.3334,-0.73505,6.5133,-1.3806,
-6.5724,3.2393,-2.16,-3.3852,-56.1731,-10.4777,13.9613,1.05,3.883,7.0805,5.2305,2.9245,4.4353,-9.2515,
-6.9012,-0.57069,3.9954,0.43361,-62.2029,-12.9823,13.8466,-5.0388,0.5163,3.5225,10.9424,6.8466,-1.8566,-5.5631,
-7.6922,2.1149,3.5145,0.16639,-49.0705,-13.8909,5.062,-2.0852,-2.1655,2.106,7.6345,9.569,-2.9503,5.1352,
-4.0974,7.0494,2.581,-2.0125,-39.6186,-8.4779,4.0354,4.0657,-0.34861,6.0773,1.1507,13.0925,-0.60387,3.622,
-1.2,5.4214,7.4875,-0.20477,-42.3031,-2.9078,7.8906,1.1705,3.2875,6.9177,3.733,16.8865,-0.80883,0.75338,
-8.3591,1.7217,-0.67494,-2.1207,-43.1394,-5.1434,2.1146,-2.7561,2.6083,4.574,7.3654,10.5706,-2.2066,1.1901,
-14.6064,-1.2739,-8.347,-10.6708,-46.8178,-10.6196,0.059259,-2.1091,3.8978,-0.039008,7.8876,-0.18675,-1.1101,-0.80972,
-13.4889,2.8999,-3.2669,-10.7534,-46.1779,-9.2591,6.5636,-1.2592,1.0129,-4.616,5.2451,-3.791,-0.80204,-1.484,
-9.3053,4.1719,5.1241,-0.94941,-42.9253,-6.7756,10.5081,-0.70146,-0.49438,-4.3392,4.4483,-0.18928,1.174,3.4255,
-8.9877,-1.1394,5.0578,-4.5076,-43.9649,-10.4662,8.6726,-2.8288,0.7408,-0.94516,6.3508,-0.90059,-0.58339,1.533,
-12.3048,-0.10717,-3.4404,-13.8781,-31.2039,-8.3919,12.4908,-3.141,-3.16,-1.3704,6.4517,-2.2928,-3.9228,-0.0052741,
-11.5665,1.3455,-5.6445,-13.5274,-17.2804,-7.4065,19.4541,-4.3988,-1.0422,-2.7344,7.5108,2.1831,0.16891,4.3334,
-12.0779,2.4696,-3.1367,-5.7263,-30.3435,-13.47,11.7792,-2.4476,2.6353,1.527,5.3729,3.7393,-1.0465,4.7963,
-12.7992,3.2855,-1.502,-3.4543,-42.6229,-13.6259,7.216,0.1096,2.4774,2.8814,2.6402,2.5509,-2.4298,0.17039,
-7.4517,0.91925,-1.1709,-6.3803,-30.6655,-10.1571,17.1472,-1.5842,2.5697,0.53937,4.169,3.6031,-1.5606,1.365,
-8.2097,-0.34074,-6.1623,-8.6488,-18.9435,-14.6091,19.2518,0.68001,0.24635,3.1586,3.6779,10.8587,-3.6361,7.3091,
-8.9224,-0.56172,-6.0336,-8.3711,-22.3866,-14.9378,17.3733,0.39824,-0.0093937,2.2457,3.6982,8.0376,-1.7312,5.1829,
-9.3512,-1.0097,-6.1537,-8.8327,-26.3458,-15.9695,15.849,-0.58975,-0.0086017,1.1468,3.9585,5.1454,-0.18084,3.4259,
-9.9954,-1.1906,-6.0255,-8.5439,-29.3448,-16.2166,14.1749,-0.79533,-0.24951,0.35468,3.9619,2.6671,1.0348,1.5331,
-10.3598,-1.6008,-6.1461,-8.9954,-32.8865,-17.1718,12.8425,-1.7117,-0.23431,-0.63024,4.2064,-0.38523,2.4188,-0.004919,
-10.9432,-1.746,-6.0181,-8.6966,-35.4929,-17.3466,11.3488,-1.8502,-0.46145,-1.3156,4.1947,-2.5311,3.9611,-1.6916,
-11.9736,-2.3639,-5.8982,-8.8977,-38.4247,-18.475,9.945,-2.9443,-0.19257,-2.4417,4.1842,-5.0305,5.4104,-2.7952,
-10.7733,-3.1864,-4.098,-10.2923,-38.0475,-17.3667,10.3122,-2.2857,-0.18101,-3.2595,3.4513,-7.6212,3.1576,-7.4482,
-2.8961,-1.5492,-4.8162,-8.7104,-26.1236,-18.2527,16.4423,0.26183,-0.65231,-5.9562,3.244,-2.8254,-3.2981,-9.8936,
1.616,-4.3487,-3.5634,-11.0803,-23.1102,-22.4604,19.7941,-3.1283,-0.61317,-8.009,4.0136,-2.1739,-5.9927,-4.4797,
-2.5783,-0.9541,-2.1445,-9.2104,-31.6055,-19.9075,14.9911,-2.6994,-3.2277,0.42506,3.5316,4.9466,-5.3924,1.3329,
-5.3161,4.4056,-2.98,-4.3195,-43.2068,-18.7132,11.1991,-1.5734,-3.0343,7.1482,2.3556,14.7725,-3.6229,0.77077,
-1.8637,3.9003,-2.0778,-0.92684,-43.2657,-16.8673,12.2144,1.6541,-0.20067,7.4427,0.52707,17.5016,-1.7183,0.96549,
-2.9569,-1.3952,-4.1225,-3.0404,-30.3054,-13.2037,15.0971,2.2784,0.052571,8.2012,2.6648,12.3543,0.072282,-1.2614,
-2.7795,-4.6859,-4.3571,-6.2324,-23.1847,-16.2679,17.0834,-2.1971,-0.43298,7.7091,4.9151,9.2025,-3.3065,2.6707,
-0.20236,-0.5484,-4.0957,-4.8941,-28.542,-17.7022,10.2743,-1.1009,-1.8528,3.8726,2.692,9.1327,-6.0002,10.7052,
0.29149,0.4486,-4.3321,-4.6007,-27.3119,-15.6762,8.6932,-1.517,1.1502,-6.9653,4.4584,-0.57449,-3.7122,2.3499,
3.1665,1.8677,-3.1081,-4.8066,-12.6575,-13.2891,14.4384,-2.3901,3.9739,-7.5115,8.5299,-2.9499,-2.043,-5.9856,
2.7356,2.479,-5.0908,-3.3129,-13.5853,-9.8404,15.7417,1.8506,-2.772,5.7137,3.4384,7.109,-3.1257,0.881,
1.6071,-1.0444,-3.8212,-3.1144,-21.4473,-11.6606,19.1353,1.7394,-3.0883,8.7451,2.268,11.0206,-0.52826,3.7204,
4.8851,1.4288,-4.0739,-4.3736,-12.4475,-13.3711,15.577,-0.77511,-1.9387,0.98953,4.0601,6.9853,-4.8349,0.12275,
6.2792,3.5123,-2.1422,-3.8702,-3.2647,-8.4712,12.4733,2.4049,0.34682,4.0636,2.6112,5.8429,-6.232,-0.12558,
3.2512,-2.7242,-1.7729,-2.4329,-5.7201,-10.1324,13.8938,0.57313,1.0491,3.0967,0.2856,-1.9793,-2.2424,-2.7694,
4.7433,0.5727,-2.8714,2.2926,-0.79742,-10.2473,17.6399,0.78017,2.6734,-0.22213,1.4733,-4.5116,1.0256,0.53028,
5.4228,-0.9077,-2.2174,-6.0397,-4.606,-12.0428,17.5456,-0.23074,3.959,0.2729,0.90319,-3.7588,0.96382,1.9445,
1.723,-3.7458,-2.0844,-11.4621,-16.3809,-10.3562,10.7083,-0.69928,1.3114,3.149,0.849,-4.9795,-1.0222,2.3098,
3.0659,2.2638,-2.9234,-3.0614,-15.88,-6.3603,10.0656,-1.139,1.7149,3.9242,4.1723,0.62169,-0.96064,-0.23873,
5.774,5.0198,0.62623,0.014373,-12.0351,-9.3534,14.7641,-3.481,0.16547,1.7603,1.5116,4.4405,0.54257,-6.9735,
5.6687,3.0314,3.2402,3.1468,-9.6258,-9.5151,17.0117,-0.62109,-3.9418,-1.4788,-1.2302,0.55869,0.75144,-1.0115,
2.9183,-1.0069,0.15327,3.9223,-10.9765,-10.3905,18.8835,-1.5477,-2.741,-11.031,-0.19252,-8.6334,-0.7399,-0.46843,
3.7073,3.8742,-2.748,5.6151,-3.5694,-7.3569,15.8219,0.47291,1.7618,-6.5128,1.2653,-5.2233,1.2327,-2.8509,
2.7619,5.8109,-3.7884,6.0011,6.045,-4.7461,10.2933,0.20402,1.8971,5.6886,5.2867,3.5262,1.8816,0.93556,
2.114,1.6057,-1.6327,3.2307,8.0924,-5.9076,18.3525,-1.7366,1.3011,5.829,8.3437,8.617,-2.5698,0.87966,
-1.1461,0.78667,-6.1142,0.86794,4.4738,-7.2401,19.9027,-0.42738,-1.4279,1.3821,1.3359,8.8231,-6.9947,0.58569,
3.2613,3.6318,-3.337,1.78,8.5437,-4.3954,16.7806,1.0448,0.10385,5.1558,-0.19077,7.8116,-0.30827,5.8534,
5.4757,3.8958,0.71959,3.1194,13.3337,-4.1316,13.8455,-1.9105,-4.2412,3.4002,-0.66126,5.8966,-1.2541,1.1634,
1.2908,-0.19435,-1.7342,1.9679,16.3901,-6.2941,16.3888,-1.7958,-3.9867,-3.5527,0.82468,-0.24174,-5.0352,-7.1011,
-1.679,-3.075,-4.04,-2.0065,22.6373,-6.8806,20.7084,-2.6522,1.5554,-7.1962,0.29303,-9.868,-2.8052,-5.7109,
0.34998,3.376,-3.7976,-0.92204,32.8485,1.2453,20.4297,-2.493,-0.46613,-5.8001,0.27545,-7.3477,-1.1906,-1.0299,
2.4984,3.4147,-2.3647,1.7846,27.7443,7.6783,19.9271,-5.9586,-2.6076,-5.2109,2.9102,-2.8093,-1.3599,-6.0296,
3.7945,2.2457,-0.77678,6.9799,15.9563,8.1814,16.3211,-4.1551,-0.040742,-1.524,0.80721,-3.1233,-3.6887,-5.668,
2.1206,4.5211,-3.1403,7.0431,25.122,10.1007,16.7881,0.91446,-0.038298,2.4238,-0.20509,-2.4535,-4.9136,-3.8817,
1.2702,4.9729,-1.2649,3.4872,37.7147,15.5207,19.396,-2.7556,-0.75913,0.59139,1.9761,1.3089,-2.4494,-7.7464,
3.6046,5.6389,3.1498,6.6525,49.5518,21.8203,14.3763,-4.5185,-4.088,-1.3723,-0.55255,1.2303,-4.2306,-7.2811,
4.5936,3.6133,4.648,4.0841,41.0353,19.7877,14.7186,-0.63193,-1.1912,-1.5309,-0.76036,-8.7254,-3.7358,-5.6394,
0.46113,0.022079,-1.8978,-2.9096,31.3424,19.5647,16.2456,-2.0403,0.32607,-0.95712,0.73152,-11.0944,-1.1015,-5.3011,
-1.4947,2.4311,-7.0868,-1.7711,35.2464,29.9598,14.7887,-3.3639,0.30674,4.4027,2.1337,2.1045,-0.071351,-1.1264,
1.4872,5.1775,-2.3226,0.74549,39.8803,30.5726,14.8659,-2.6799,0.2881,6.5489,2.9697,6.3168,-1.5131,-0.094715,
2.1211,7.036,-0.014559,4.3162,48.3337,27.051,14.2149,0.132,-4.3085,4.4688,-1.3058,5.2149,-7.4483,-2.2587,
-0.41625,7.5782,-1.4595,1.6471,59.5337,28.8024,14.8083,-1.3217,-4.05,-1.584,-7.012,3.9381,-7.4829,-2.6046,
-2.0785,6.4002,-3.5411,-3.9954,70.0617,26.8333,15.607,-3.412,-2.1197,-5.1043,-6.3503,-0.87791,-2.4546,-2.2074,
-2.436,2.1595,-7.6672,-1.8277,79.958,21.3667,14.1884,-0.79696,-2.4747,-0.94192,-1.6308,-0.82547,-0.37939,-1.1113,
-4.2178,0.58416,-3.3507,2.6208,85.1634,17.1926,14.7834,-1.713,0.56629,0.56132,0.39526,4.5272,-2.7668,-2.9723,
-5.411,2.4773,2.1529,3.4274,92.1047,18.0892,13.8964,-3.0565,-2.8421,1.9734,-1.0747,10.0401,-7.9034,-1.3482,
-7.2555,-1.7685,1.3006,1.0528,79.5888,15.3169,14.7496,-4.5601,-3.3947,2.5782,0.67723,5.3401,-6.2237,-1.99,
-11.1587,-4.5551,-3.1159,-1.4207,60.7134,11.5051,16.275,-4.2867,2.1114,-2.397,1.1183,-5.5853,-2.476,-12.4761,
-12.8993,0.53892,-5.8211,-0.85307,59.6012,16.1179,14.8165,-1.6194,1.0208,-2.7351,0.56927,-4.7683,-1.8455,-11.2451,
-8.9921,-4.0732,-1.8564,0.88488,59.1586,17.3195,18.0249,-2.7275,0.2362,1.0444,-0.18779,2.9896,-1.0119,-0.20657,
-0.73978,-2.3823,2.5931,5.1703,62.3578,16.2806,20.7996,-0.15351,2.6324,3.3916,-1.1406,6.1845,-1.9153,4.1444,
2.6791,4.5093,-0.45431,3.4141,68.7395,12.8934,19.0699,2.2661,-1.3817,0.29631,-1.0724,0.029044,-1.3182,-2.853,
3,3.7566,2.4648,5.1372,64.6149,12.1196,18.8893,-0.7622,-5.1554,-1.168,-0.04397,0.027071,-0.75695,-2.2001,
1.1333,1.844,4.4865,12.3008,64.8358,15.9721,18.9613,0.48883,-4.6047,3.4819,-0.2823,7.0153,-2.3988,4.9223,
-2.3092,-0.19462,-0.12123,7.2246,70.1044,13.0859,20.2339,-0.022666,-0.47224,2.7908,-1.2295,1.292,0.63746,1.7346,
-2.8938,-2.3526,-5.1756,0.28322,67.103,12.5417,16.8508,-0.74421,-1.6492,-1.474,-1.3967,-10.1137,4.2146,-1.021,
-3.2021,-3.6574,-6.7931,0.26646,61.1489,13.2352,15.3575,-0.21785,-4.4425,-2.8321,0.61557,-11.9173,-0.3768,-1.9238,
-0.11789,0.41839,-1.5652,3.6245,64.7103,11.9592,20.2207,0.27715,-1.7659,-0.25155,4.4346,-4.4538,-4.2106,-1.3265,
-0.11082,2.3215,-2.4356,0.99687,69.5048,12.2055,14.6691,-1.1857,-2.6238,0.72741,-0.16983,0.15177,-4.9223,-1.7288,
-0.10394,-0.2277,-1.3249,-0.027038,65.8167,13.4016,11.3786,-1.5963,-1.5022,-0.28033,-2.0876,2.0711,-0.77031,-0.66099,
0.62519,-1.4193,-0.040613,5.0363,58.2523,11.3922,11.9012,-2.2234,-5.5095,-0.98641,0.20681,3.1521,-0.48313,-3.2724,
1.793,-0.12911,1.1673,6.4211,59.8186,9.5036,12.8741,-0.40302,-3.0095,-0.2041,2.3638,-3.0628,0.26899,-7.6556,
3.1314,-2.5319,2.0612,0.25124,60.5678,4.5946,12.5836,-3.7533,2.9552,-3.5663,-0.67056,-9.1455,0.25285,-8.643,
7.0411,1.2356,3.1426,5.7795,58.1388,9.8628,12.0698,-0.87677,-2.7655,-3.1116,-5.2098,-1.6072,-2.8956,0.31196,
7.5828,-0.76694,2.4718,6.8793,51.7586,12.1633,11.3454,1.5862,-11.2765,-7.7454,-9.2358,-1.9929,-8.0243,-2.1171,
6.8866,-1.926,1.6004,-2.4518,47.4476,10.2284,8.0133,2.2142,-10.8411,-10.8958,-11.333,-7.4167,-9.2303,-9.9441,
3.3399,1.3231,0.29955,-5.9201,45.3241,14.194,6.8096,3.2861,-8.5034,-6.6267,-8.4838,-4.3206,-6.9892,-6.2139,
5.5499,1.7258,2.2095,-2.6726,43.5687,17.6809,13.6316,0.67861,-4.1366,-1.8905,1.1845,-2.6153,-1.7494,-2.9488,
8.5911,3.0683,-0.33339,-0.10189,41.9187,18.0661,9.9215,1.1201,-2.4423,-1.7773,2.0775,-3.9045,-1.6442,-4.7003,
5.1836,3.8485,2.5791,-2.024,38.4397,16.9826,5.4702,0.57092,-5.1879,-3.1165,-4.3137,-4.1521,-5.4019,-6.346,
-5.0094,4.3405,2.6654,-6.9642,34.4456,16.6865,5.8649,-4.525,-11.3845,-4.6172,-7.6707,-5.5902,-10.1395,-7.6529,
-11.6987,8.6596,-3.038,-3.4126,33.1025,18.8186,8.6463,-1.6022,-6.1219,-3.1346,-1.6666,-4.0497,-5.9155,-3.5781,
-10.5148,7.1757,-1.4099,3.0586,23.4031,15.7613,9.5738,-3.4343,-1.8982,-3.9109,-0.12039,-3.8068,-4.1147,-3.8454,
-11.8121,5.2991,0.60314,6.7313,15.7322,14.3334,4.6608,-5.1566,-9.9793,-2.7121,-3.4878,-4.0605,-11.0985,-6.025,
-15.6829,5.7043,-1.6024,2.2303,15.5114,16.1248,4.6219,0.69662,-7.6935,-3.2725,-1.5916,-9.3603,-7.2993,-3.4946,
-18.8393,6.0852,-0.30123,-2.965,15.7858,16.3623,5.5501,0.89602,-2.17,-7.6557,-1.2549,-14.8244,-2.7638,-1.5974,
-18.1909,6.6842,-0.28292,-0.85913,12.4287,12.9707,2.8067,-5.4245,-4.4502,-6.7142,-0.69743,-11.0422,-2.5982,-3.9119,
-15.6532,5.8014,-3.1582,-2.2536,9.755,9.3002,1.1923,-5.0988,-2.2547,-6.3111,1.7548,-11.8257,-0.99579,-6.5695,
-15.1961,5.935,-5.861,-5.0107,18.8105,15.9728,0.6386,3.4016,-4.0479,-8.3428,-2.2067,-9.1882,-3.3464,1.5377,
-13.0793,6.3018,-2.3759,-3.0228,28.5281,21.5219,4.6976,0.064495,-5.4922,-4.7092,-3.2796,1.245,-0.97645,5.5428,
-14.7047,4.9596,-0.30537,-0.91349,23.4417,13.9643,4.416,-8.1343,-6.6087,-2.9802,-3.565,2.1344,-0.4357,-4.9129,
-16.7149,8.5184,-1.7333,2.0338,22.0352,18.4286,2.7048,0.54845,-6.2122,2.0189,-0.459,4.4165,-3.784,-4.6182,
-17.158,5.1153,-3.0751,-3.8728,15.4105,22.1436,2.0606,0.99748,-5.3575,-4.8507,-2.3592,1.2594,-4.5213,-0.0027571,
-7.9339,10.5927,2.8937,1.1801,13.0398,21.2967,4.8288,-0.99033,0.26634,-10.3444,-0.28968,-7.0111,5.3912,5.2998,
-5.0475,9.4754,1.2741,4.4835,10.3295,15.6808,3.5754,-2.8593,-0.23134,-13.098,3.5843,-17.6779,5.5499,-2.7307,
-9.8063,0.95271,-2.8997,2.5273,2.7198,15.9448,4.5657,0.44571,1.9517,-11.5892,7.4666,-13.9656,4.4935,-6.6642,
-17.6536,1.1365,-8.7517,-0.7574,-6.8434,12.337,0.19441,-0.30393,-0.33456,-4.8683,2.4389,-6.6202,4.9473,-1.6851,
-19.0045,0.58639,-5.816,-3.6045,-9.3248,5.8122,-2.2274,-7.9985,-2.7246,2.1727,-2.5277,-4.2944,3.2042,-4.476,
-8.7057,4.8898,0.79921,3.3605,-1.0528,12.6941,2.2444,-0.28795,2.2589,4.9346,2.9264,-4.0369,3.976,-6.6178,
-9.3884,5.8012,-4.7924,3.3998,-4.1231,10.7271,-1.0233,0.93416,4.2925,-4.2795,3.9561,-15.1229,3.9784,-5.9798,
-7.1379,8.5866,-1.3713,2.9549,-4.1167,8.3963,1.2072,-0.80912,4.7583,-3.7818,4.9235,-18.3133,3.9807,-6.8263,
-1.6479,13.615,2.8088,6.8749,4.084,14.4005,5.2321,2.8553,2.3037,1.9887,6.7978,-12.1529,3.0189,-7.1396,
-3.4772,7.4957,0.71181,2.1243,-2.9092,7.7521,1.544,-0.69023,0.23748,-1.9868,2.5333,-12.8697,2.3556,-0.4445,
-2.0635,4.3944,2.8383,3.2017,-6.3505,5.5993,-0.23587,-1.8546,-0.98252,-3.5548,-3.6443,-9.9284,1.9733,3.1976,
1.1935,9.6746,6.7656,11.4455,2.9488,11.2891,6.7679,3.3186,0.76388,-4.0646,0.67197,-10.5377,4.5063,-7.3584,
-3.2164,8.6122,4.4314,7.8667,-0.60259,6.7554,8.29,1.6732,3.1282,-11.0516,6.8982,-24.0055,8.0923,-14.1477,
-5.6747,7.3723,1.5142,2.8152,-9.4847,7.0732,1.7669,2.296,1.7354,-5.809,5.2792,-17.383,8.8118,-2.4528,
-7.7446,-0.30085,-2.433,-4.1026,-18.5566,4.2386,-4.1237,-2.1806,-2.2251,1.288,-3.7146,-2.24,-0.87594,-0.85938,
-5.1108,-0.52422,-0.11788,0.24089,-16.2379,0.85084,-3.6353,-4.2189,-1.3687,5.3085,-4.2151,3.7992,-3.4749,-0.56685,
-1.1885,2.159,-1.7978,6.7346,-7.3097,2.0053,-2.6936,-2.7602,-3.4555,0.89245,-3.7206,-1.9721,-2.0609,4.0467,
8.5236,6.3678,0.72019,9.2226,0.35928,7.1872,5.6627,1.7437,-0.3561,-3.0175,0.84053,-5.7102,1.9191,2.3576,
7.2895,6.2267,2.3642,9.8745,-8.5799,7.4793,3.1538,1.3981,-0.57524,-3.0774,1.0315,-7.0548,2.5273,-3.327,
0.58538,0.068738,0.77632,4.9435,-19.6345,0.76381,-3.3022,-2.06,-1.0229,-3.3749,0.0055398,-5.6674,2.3755,0.24685,
3.6835,-0.65875,-0.47555,2.4777,-6.6458,-1.9336,-4.3094,-1.6954,-2.6487,-1.0033,-0.23576,-0.26568,-0.90055,2.8831,
6.596,2.0326,-2.6159,4.0161,4.599,1.3162,-1.399,-0.87058,-5.1411,7.0114,-0.46281,6.258,-2.0516,-1.8694,
2.8258,-0.50021,-2.4592,-0.081514,-7.2464,1.237,2.0592,-1.7824,0.46974,3.216,0.52905,3.9541,-0.48245,-2.7213,
4.1023,2.4223,0.58039,2.3335,-7.2935,3.0909,-1.4393,3.1448,3.816,-4.2078,2.4255,-3.0321,-1.8998,7.5649,
8.6766,5.1693,2.9559,6.0501,2.7853,6.2797,0.57547,3.9202,0.69476,-5.8833,1.3159,-11.5266,1.107,4.2187,
9.602,6.3054,3.7424,3.277,-0.27435,9.2774,7.2898,1.7568,1.135,-4.5664,0.75499,-10.8354,6.8247,-3.7472,
-0.61482,3.0348,-2.2665,-4.1503,-12.3092,6.3104,0.58571,0.68727,0.10281,-1.8821,-1.7007,-3.4362,1.1128,1.2981,
-3.9522,-2.9321,-1.1664,-5.8297,-15.4268,-1.7808,-3.7875,-3.6921,-2.3133,1.6051,-5.4548,0.62662,-6.1846,1.7028,
3.7566,-3.9613,0.10867,-4.2748,-13.2961,-3.3609,-5.2477,-4.1937,-8.2002,3.1962,-6.3326,4.2042,-9.4287,-1.0506,
4.0129,-2.7595,-4.7183,-6.9106,-13.4629,-0.74939,-4.9331,-2.9784,-8.1908,1.5579,-1.6145,4.4337,-6.935,0.9399,
-1.0482,-0.1838,-4.4352,-8.4242,-15.0653,-6.0071,-3.1908,-4.7279,-3.8425,0.018212,0.41055,0.79319,-3.1445,-2.4905,
2.8711,5.1299,-1.2766,-2.6161,-12.2332,-4.6823,-3.9637,3.7509,-1.2019,4.3559,0.86785,1.228,-1.5095,-3.3054,
-1.3985,-3.1317,-2.4053,-5.5926,-18.4886,-9.945,-7.8233,2.8025,-4.7452,-0.96714,2.503,0.43095,-4.5525,-4.3119,
-11.1968,-7.0411,-5.3945,-9.3544,-26.2973,-15.8562,-8.5587,-5.8013,-8.0759,-1.632,2.5938,6.913,-5.9665,0.5261,
-11.0069,-4.2087,-7.4807,-9.2753,-26.6479,-17.3148,-6.5991,-6.8993,-2.7708,0.87627,0.028268,9.3905,-3.6801,0.49476,
-1.9106,-3.715,-3.4167,-7.5137,-24.3259,-16.0351,-5.4801,-3.8344,2.4569,-0.38183,-0.21462,7.622,-3.7005,-1.7043,
-1.073,-3.7331,-2.9707,-7.3039,-25.5175,-13.8677,-9.2491,-3.8453,-1.7879,0.36444,0.03922,10.7797,-7.0939,2.9772,
-1.7316,-6.1604,-3.5156,-6.6244,-27.1197,-14.2407,-7.0067,-7.7117,-0.47512,2.0296,2.6882,10.3741,-4.9808,0.62967,
3.1928,-6.2727,-4.7509,-4.2988,-22.6004,-10.9762,-4.6581,-3.875,2.9274,3.836,3.0088,8.3054,-4.2,1.5558,
4.6885,-5.1732,-4.7066,-5.7278,-18.5931,-8.6301,-4.1374,2.8652,-1.8278,3.847,2.1052,12.869,-4.6712,13.2728,
0.79152,-5.104,-2.7372,-10.928,-23.9852,-12.2104,-4.6127,-0.92239,-6.2976,0.48249,2.2201,10.4094,-6.0783,12.7171,
-1.6659,-1.9053,-7.8752,-9.7899,-29.2945,-12.9235,-9.6382,-6.1692,-5.4374,-0.51033,0.15866,4.9646,-8.6057,2.3136,
5.4235,-4.4425,-5.2339,-7.0338,-30.1884,-11.4252,-6.4088,-5.0762,2.3602,1.6895,1.8364,3.4614,-2.5457,0.48756,
9.9188,-5.1401,2.3112,-4.2015,-26.4487,-9.2932,0.72488,-1.8789,1.255,-1.3042,2.6903,-0.60244,2.4275,2.8687,
8.1186,1.1941,2.8956,0.14821,-24.1386,-10.4231,1.4041,-1.5254,-0.025396,-4.8411,3.7339,-5.6282,2.523,1.0091,
8.8363,2.3273,3.4448,2.3085,-29.6802,-13.4131,-0.84934,1.2172,8.8937,1.9568,8.5711,-1.6751,3.0945,1.6714,
6.6189,-0.46366,2.515,1.9288,-33.4432,-10.439,-5.3779,3.7955,7.155,5.937,10.2262,3.0049,2.6677,4.7044,
5.9808,-2.1228,4.5335,0.12605,-33.1236,-6.1974,-4.3321,-0.52934,-0.2639,-1.4093,4.5512,-0.79055,0.82062,1.7713,
12.6118,0.65609,6.4306,0.35946,-26.0745,-4.6203,-1.4206,0.22532,-2.4172,-1.5653,-1.7474,0.9441,-2.844,1.906,
13.7836,1.0984,5.5626,0.82005,-23.064,-4.8252,-3.2638,2.1402,-3.7187,-0.50773,-1.1604,-0.076638,-2.6736,1.3095,
15.8486,4.407,9.0852,4.1453,-23.6084,-3.0895,0.30648,0.08362,-1.085,-6.7438,1.8013,-6.8209,3.7538,0.74895,
21.1644,13.3018,8.0584,11.1272,-16.8895,5.2908,2.6984,5.381,-1.502,-7.3033,-4.0911,-9.304,1.6001,2.6324,
22.5457,11.2984,7.8154,8.7723,-16.1171,11.4809,5.1876,9.6374,-0.68902,-3.7316,-6.4972,-12.8431,-0.66505,1.7511,
20.7112,4.8357,12.6494,7.2819,-21.4168,12.7204,7.2867,6.1669,4.1728,0.83087,-0.80452,-10.6265,4.1953,4.0564,
16.0941,-2.6853,5.6234,3.9525,-19.1674,5.2083,2.0288,2.9048,-0.89781,2.2268,-3.6488,-6.1325,2.0154,2.3668,
15.3694,-5.1753,2.153,-2.7922,-9.0993,-5.4681,3.1124,2.4896,-5.4237,0.40644,-5.1171,-5.0412,-1.7209,-2.8369,
15.6523,-1.7315,1.3007,-3.8297,-11.2047,-1.0424,2.6844,1.1351,-6.3033,-1.7873,-2.6407,-4.9799,-3.3047,-3.3894,
18.8108,-0.42207,2.9101,1.9439,-14.63,9.8662,5.1752,4.6822,1.065,-2.8852,0.65104,-4.4399,1.4731,-4.3911,
18.164,-0.39675,4.6637,2.3092,-13.2698,4.454,4.8646,5.8475,2.4473,-2.2301,-1.7981,-7.0661,3.3129,-6.0558,
14.1819,1.0726,2.4555,0.72418,-18.7408,-2.5624,2.6439,3.0863,0.854,5.6162,-2.1724,-5.1961,3.5959,1.5377,
11.4026,-3.8122,2.3079,1.1629,-26.2932,-0.96264,4.8956,-0.47307,5.1413,7.6896,0.36828,-5.8484,3.8623,4.8201,
8.7905,-3.1013,2.6516,0.12902,-17.967,0.54161,0.26332,1.4833,2.9044,2.4078,-0.61791,-4.0515,1.7026,0.6743,
7.5397,1.1821,-0.1586,-1.084,-10.381,-3.5887,-1.4397,1.1533,0.56099,2.5043,2.0703,-0.67488,1.8414,0.39287,
10.462,2.0753,-0.14932,0.42752,-18.9174,-6.7476,3.4676,0.12002,2.4557,6.6926,6.2846,-4.9729,4.1413,2.2977,
10.3164,4.3611,-0.14013,3.2942,-20.6747,-2.9685,3.7413,3.487,2.3082,2.9168,5.9073,-8.0488,4.8569,1.1958,
7.5283,0.96643,0.59118,0.92735,-18.2289,-4.9596,0.8657,1.1087,1.9287,-3.2838,4.348,-5.8786,5.2884,-0.081275,
9.9686,-1.9841,-2.3364,1.8356,-20.5096,-10.4466,-2.0788,-1.368,-0.1152,1.7335,2.6409,-1.6695,4.4891,0.40554,
12.7447,-2.3472,-3.6427,3.6539,-20.7251,-12.7121,1.9026,1.1245,4.7122,2.1117,5.8566,-2.5335,5.6658,-1.0648,
17.5237,-1.0011,-0.29061,4.1575,-17.3124,-12.6722,6.8501,3.7081,9.4911,-4.0406,8.6387,-6.4788,7.977,1.1682,
20.8108,1.4694,-1.7192,10.1748,-10.0069,-9.5016,-0.30958,3.0034,3.6188,-0.90586,4.7462,-1.2696,3.1603,2.5442,
21.4906,4.7554,2.2401,14.8668,-4.586,-7.9674,-2.2194,-0.069066,3.4019,4.4509,3.9793,6.5196,0.078347,2.8737,
17.7908,3.0241,4.9984,10.6005,-5.2749,-10.3816,-2.086,-2.4748,-0.17644,0.32769,1.3301,4.2,-4.2649,4.1477,
18.1694,2.3605,2.7701,10.4467,-3.512,-9.7589,2.3777,-0.39837,-0.16608,-0.65606,2.2144,-1.8364,-2.0806,3.8986,
20.2127,5.8342,0.91668,12.4709,-6.9171,-8.4505,4.8861,-0.1335,5.3875,-3.7502,5.215,-7.7522,4.0693,-1.8789,
17.5537,6.9304,1.8255,13.6509,-7.466,-2.6408,-0.22777,2.767,5.0642,-4.9714,7.7942,-5.8408,2.8613,2.0902,
11.6802,-1.6801,3.6447,9.9398,-5.5717,-1.5181,-0.69603,1.1548,4.7604,-3.7088,8.2909,-4.526,2.6896,5.3393,
7.8457,-1.3385,1.2566,6.6921,-3.5504,-1.1862,-2.3413,-2.5297,4.2336,-7.1019,4.1782,-10.2802,2.7694,-1.0069,
12.9185,9.588,2.3865,11.8342,0.75994,4.4286,-2.9242,3.6476,3.7386,-5.4705,5.1324,-9.4225,-0.048271,-0.22309,
11.1796,3.2282,4.1715,7.7496,2.1606,0.78884,-7.569,3.9107,-2.2698,-4.178,-1.4421,-4.0364,-9.2039,4.1286,
3.5187,-1.545,0.78749,3.669,3.718,4.3567,-15.0688,2.471,-7.1956,-5.1328,-6.8994,-1.6253,-11.3035,7.0142,
5.477,6.0192,3.3916,5.1363,-0.60224,12.5312,-9.5851,4.0097,-3.1482,-4.1017,-1.4235,-3.2148,-0.74312,3.942,
6.1127,5.6581,4.1524,5.792,-10.6895,12.2613,-4.1898,3.2872,-1.0316,-2.4094,-0.85618,-4.9501,0.26579,1.2953,
-1.0032,3.3902,-0.91723,2.0703,-9.084,15.3822,-2.9743,2.6078,3.3689,0.62749,-0.80504,-2.7251,2.6597,7.9663,
-6.2455,3.187,-0.86242,-6.7308,-0.34402,14.459,-3.7599,-1.4048,5.0952,-2.3024,2.6175,-6.9001,4.9105,-0.70662,
-1.05,5.8883,1.1175,0.42149,4.4973,13.5915,-4.9801,1.5715,-0.51318,-4.5744,6.3168,-7.9319,2.6877,-7.4131,
-0.023148,1.6782,1.0505,3.7707,-0.59322,15.1861,-4.1994,0.51337,0.48148,-6.2282,5.9378,-7.9384,5.9009,-2.1476,
-4.3598,0.61383,-0.45859,-3.2043,-3.4499,15.7215,-7.8036,-4.3379,2.8629,-0.55205,2.2073,-2.6412,4.1008,4.7299,
-7.2317,-1.1102,-1.6364,-5.6631,2.7826,8.7526,-14.3253,-3.3547,-5.7445,5.5066,-2.9863,9.3274,-6.9915,10.9541,
-6.3161,-4.9002,0.39023,-4.8412,6.9542,4.8528,-7.6814,-2.1894,-8.7745,-2.5368,-4.7356,2.0191,-7.5361,4.512,
-1.8396,-0.99057,0.12562,-3.3456,13.0447,13.4799,2.6617,2.0396,-4.6324,-7.928,-1.3182,-10.3943,-0.094305,-6.1228,
1.8864,1.2378,1.8055,-3.868,16.3596,12.4299,3.707,2.6403,-2.1851,-10.1036,0.93029,-17.7246,2.5627,-9.853,
2.014,4.2968,7.7225,1.4255,10.7985,4.6945,-1.0949,1.7588,-3.2595,-13.1126,-2.2588,-23.6508,3.132,-9.0207,
-2.2042,9.5831,7.0182,5.9197,0.75057,7.0639,-2.2341,2.3762,-4.2687,-8.2285,-6.2206,-21.0265,3.6675,-7.2741,
-1.1076,3.7054,4.187,2.672,-0.74072,5.6762,1.7564,-0.17653,1.772,-1.4682,0.41914,-12.5345,4.4113,-6.3557,
-4.6568,-3.507,-1.1257,-4.9599,1.4731,-3.5822,-2.4466,-3.2992,0.46058,-3.5491,4.0096,-6.7205,1.9772,-5.2513,
-8.9567,1.2827,-0.81717,-3.9394,-7.5333,-2.6448,-3.0232,-0.93209,1.1558,1.2432,4.4915,0.67213,6.4379,3.0175,
-5.286,1.9289,-1.4913,-1.0517,-13.1071,2.5758,-3.0825,-0.63542,0.8453,1.8917,1.0888,4.7294,2.9184,4.5235,
1.78,0.36734,-3.33,1.9035,-0.75107,7.2419,-2.8976,5.1877,-0.65122,-1.5963,-1.8686,6.8557,-0.63074,4.2525,
0.22697,-2.0648,-0.72006,4.1998,-6.491,3.9149,-2.2418,4.876,-0.61215,1.392,-2.2384,3.07,-0.11096,8.3357,
-2.6789,0.46896,0.76917,7.3221,-18.6348,1.7516,-8.8559,-0.71896,-2.0219,6.129,-2.5863,3.3679,-3.4785,14.1019,
-1.7951,1.6463,-0.96398,5.1958,-12.9372,-0.52244,-10.0116,-0.91656,1.2331,3.1099,1.1841,3.889,0.34537,5.3022,
0.72276,-0.86303,-1.8705,0.54523,-4.9302,-0.4911,0.71202,2.0305,5.4975,-0.93305,4.0055,-1.647,9.9656,-7.5494,
1.1613,1.5989,-4.6503,0.99445,-5.5987,4.8406,2.5975,3.3549,3.7213,-1.3595,5.6934,-7.3328,6.9576,-4.2044,
2.2965,1.262,-3.1664,1.1758,-8.8782,-0.029163,-0.20991,1.4664,5.1853,-4.8933,6.0747,-4.2417,1.9604,4.0016,
5.7746,-0.5005,0.63942,2.7929,-7.6221,-1.7142,-2.366,1.1375,-0.18705,-7.2508,-0.31533,3.0027,1.1198,4.003,
10.4895,1.6989,4.6986,10.0969,0.30724,2.0039,-0.53706,-1.0997,-6.2016,-5.1283,-1.9834,1.6174,1.7758,0.62953,
8.6551,-0.090475,4.6575,10.6961,1.0115,-3.1778,-0.26364,-4.6494,-4.1425,-6.0257,-2.1056,-4.5054,0.46416,-2.5415,
5.9666,0.15592,-0.68367,8.3672,-4.1104,0.62827,-7.2377,3.5833,-1.2424,-2.0487,-2.7022,4.2011,-0.76898,3.1546,
1.993,-2.5048,-4.2578,-1.0527,-14.7103,2.7595,-10.901,3.1271,1.483,-1.685,-2.7812,10.4567,-0.48164,2.2422,
0.42762,-2.8364,-2.0742,-7.738,-12.8634,-1.7444,-7.3544,-2.3627,1.8764,4.2006,0.27817,14.65,-0.45275,-1.7487,
0.16099,-4.3534,-3.637,-8.9609,-2.6916,-3.8089,-7.6361,-5.8364,-4.7441,7.0821,-0.94382,11.1195,-4.5229,-6.2235,
4.7304,0.48728,3.089,-5.29,1.5675,3.4093,-1.1526,-1.3891,-1.3262,2.0776,4.6567,2.4983,-1.1183,2.1038,
0.83115,3.1091,2.1803,-7.6242,-6.4807,2.9638,-1.3244,2.3097,0.92253,-3.5906,5.1002,-8.4978,0.63602,8.4851,
-1.8698,-2.1386,0.84463,-7.8896,-9.7068,-0.82948,-5.3423,0.001969,2.5549,-4.58,1.6607,-15.9417,4.6952,-2.3879,
3.5448,0.39958,3.6862,-3.5596,-4.3039,7.4152,-8.396,0.96595,2.4013,-2.8592,2.0432,-11.6105,7.7877,-8.9933,
2.127,1.0987,-1.1145,-8.408,-5.7332,6.7291,-13.918,3.0774,-2.8042,-3.8932,-3.6233,-5.3705,0.33082,-0.50018,
8.7483,1.9971,3.2907,-2.1189,-0.56847,4.3972,-6.8164,8.1949,0.25612,-1.7314,-2.4415,0.73631,-1.6172,13.6298,
10.3926,1.1539,3.8162,3.0699,6.4551,6.7844,-4.2383,3.6059,-0.96454,-3.3147,-2.0541,-1.477,-3.2074,14.379,
10.2512,3.4951,5.0337,-0.97091,4.6217,7.3415,-1.0917,-0.94857,4.8781,-0.70549,3.3716,0.53956,1.3236,-0.58373,
7.4665,4.0083,3.5264,-5.4919,-2.1635,-1.0528,-4.1597,1.2775,3.8626,1.506,4.8565,3.1587,2.9314,-11.2745,
0.99296,1.5986,-1.2645,-3.9571,-7.5769,-3.1588,-8.4894,1.9238,0.015382,0.21081,1.4321,1.7639,2.5145,-10.839,
-0.27145,-2.1127,0.49862,-5.8889,-9.2914,3.0563,-6.2928,-5.6635,2.6656,0.92106,-1.3054,1.8991,2.6046,3.5501,
2.155,-0.057311,-1.4595,-5.0536,-1.5031,4.8011,-10.2535,-3.3955,-1.3508,4.2403,-5.0834,10.4622,-4.7825,11.0499,
3.4719,2.8382,-2.8182,-1.3759,-1.4129,2.5853,-11.0846,5.4854,-3.1975,8.8065,-5.2604,18.5116,-8.3519,1.2279,
3.2636,-0.70656,-0.7209,-6.596,-8.559,-0.94424,-8.0094,-0.14641,-4.9343,3.4574,-9.2831,7.7599,-6.8865,-8.4868,
10.0574,1.5052,3.4195,-4.9952,2.8006,4.1734,-2.9493,1.5494,-2.4688,-0.36565,-6.5572,-5.9623,1.4802,0.94028,
10.6591,1.1737,2.0092,-3.0085,4.3196,0.78974,-3.9774,4.5897,0.81257,-5.8871,-3.9943,-14.5229,0.18634,1.607,
8.8142,4.2368,1.1658,-0.17642,-2.4471,-1.9087,-4.9441,4.0733,0.52285,-3.3647,-2.5494,-9.0717,-0.54774,1.7515,
8.7675,1.0898,-0.35019,-4.5044,-0.3723,-2.7583,-3.6833,-1.4735,-2.8832,-3.1626,-2.8786,-4.1893,2.8593,-0.28197,
12.8212,-3.5544,-0.088208,-3.5112,10.4963,1.9869,-1.7746,0.30214,-6.8071,-8.0345,-6.8032,-2.2503,-4.3021,-7.2545,
10.1235,-3.8233,-1.5289,1.5204,9.3844,4.2781,-5.0428,4.6226,-11.2192,-6.5884,-10.7336,-1.1512,-12.2384,-4.4088,
8.0699,-2.1481,4.3474,-0.49948,1.5905,-6.102,-1.3658,0.97075,-0.90551,-0.40847,-2.3768,-1.0821,-0.8993,-0.77032,
6.3808,-3.7064,2.8812,-2.6387,-4.0486,-11.2795,-3.453,-4.6311,1.8004,-2.0712,-1.5113,-2.2225,2.2881,-3.8576,
9.8541,-0.10937,1.7443,2.3401,2.4611,0.002369,1.5746,-0.01469,-2.1643,-0.50089,-2.3847,0.80316,2.1506,5.0507,
13.6014,1.8252,3.0856,2.1999,7.1339,-0.47994,6.3006,-0.9779,-2.9985,-0.95254,0.16874,-3.1012,-0.38876,2.8197,
14.9547,2.4388,2.6598,4.2369,6.4651,-4.0663,-0.10317,-2.6067,0.79706,1.2735,3.2919,-3.6382,-2.0524,-7.2316,
11.4064,-1.3225,2.2592,2.7778,-1.3946,-5.0272,-3.23,0.6832,2.9184,1.4386,3.8177,4.5338,-0.724,-10.8951,
4.214,-6.3053,-4.8662,-6.3069,-11.6752,-10.7516,-6.1697,0.40124,-5.2109,-4.6738,-1.473,7.8772,-8.1528,-5.6621,
8.0586,-1.3472,-2.887,-3.2774,-8.8056,-3.599,-1.7022,0.1362,-0.31851,-2.2242,3.6766,4.2711,-5.0121,8.7776,
9.2623,-1.5074,0.90163,-0.91159,-10.4464,1.1967,-3.7692,-3.4874,1.8698,-4.2599,2.2511,-7.3134,-0.61402,5.7206,
6.5374,-0.69402,-2.286,2.7585,-11.5068,0.88393,-8.1228,1.7831,-4.7499,-3.7633,-1.9813,-4.7054,-1.7825,-6.4332,
8.7962,0.55291,-2.8717,2.3525,-10.575,-1.3383,-2.5737,0.95319,-1.3314,-1.8498,-0.6571,-0.80768,-1.916,-4.8419,
12.607,1.9658,-0.77144,-0.19946,-3.1923,-2.7045,0.95491,-0.0681,1.6403,-0.29282,-1.0998,0.20488,-0.35504,3.1616,
8.7173,-0.8035,-3.8584,-0.91016,-0.34897,-3.7473,-4.6458,3.5516,-4.0015,-1.9627,-4.1671,6.2184,-5.8776,2.2488,
7.7123,-6.0575,-3.6269,-0.37362,-2.2562,-1.5938,-4.849,0.44602,-3.279,0.56564,-1.507,8.7378,-6.0069,0.66758,
4.8393,-4.248,-5.3373,-4.2074,-4.5312,-1.0164,-3.5939,-1.0268,-0.67239,3.9059,0.029494,7.7313,-0.34357,2.5559,
1.1744,-4.9574,-7.9095,-8.7756,-10.5263,-10.5964,-3.8607,-1.4471,0.81422,1.7434,0.50966,6.7851,1.1228,-2.4181,
3.2731,-5.8653,-5.7477,-7.5262,-8.2075,-10.6835,-6.2801,-0.63737,-0.43993,2.3617,0.72004,4.6907,-3.5238,-5.8885,
3.5589,-3.103,-5.885,-4.6643,-0.002047,-3.2938,-6.8674,2.7751,-1.3776,3.1841,-0.28725,2.4813,-4.2765,-4.0891,
3.3451,-3.8809,-2.6396,-3.4203,-2.4123,-2.1321,-1.153,2.6088,3.0436,-0.86313,3.1047,-2.0061,0.31866,1.941,
6.7601,-2.4426,-1.7581,-2.9739,-9.2572,-1.2811,-2.2888,1.7292,2.6202,0.87565,3.6415,-2.1265,1.0227,5.4402,
9.2468,-1.8143,-6.4731,-4.7239,-8.702,-2.6507,-3.5975,2.1076,1.4985,3.7154,-0.91553,1.8573,1.443,-2.1173,
6.7635,-4.5977,-10.9052,-6.8508,-7.6977,-3.9377,-3.8639,2.9452,0.92639,1.0821,-3.7529,7.5307,-1.0539,-5.3644,
5.3936,-3.3578,-10.2511,-5.9576,-8.1999,-2.2554,-5.0781,3.7326,-0.57523,-1.3932,-2.0817,8.0429,-2.4367,2.188,
13.2647,1.182,-0.95897,-2.2257,-4.8159,-4.0483,1.4931,5.4364,3.3157,-3.2378,1.4177,-4.0093,1.5659,3.0206,
13.6741,0.87013,0.30386,-1.3692,1.981,-3.082,0.68066,2.4591,-0.49869,-9.069,0.12732,-16.0608,-0.69724,-3.1862,
13.5768,-0.86908,1.4907,-0.082029,9.3342,0.71811,4.255,-0.8217,-1.6738,-4.9093,2.771,-10.9996,-1.3785,-3.7181,
13.7263,-0.33477,2.3653,1.8513,8.292,-2.2173,4.9638,3.5661,-0.6093,1.1697,-2.2157,-0.21645,-2.2599,-2.5305,
10.0107,0.64918,-2.1149,2.2222,5.3843,0.32636,-2.5644,7.2086,1.3559,2.0638,-4.9749,6.545,-0.67807,8.7086,
5.3124,-6.3794,-4.6393,-2.4907,1.9276,0.065578,-5.0623,-0.21359,0.55096,-2.1576,-1.0612,4.4653,0.085747,8.9087,
9.091,-2.8632,-3.1561,2.2385,3.0172,-2.108,-1.1432,-1.4061,-5.0257,3.5155,-1.2385,6.8485,-4.0172,-1.9897,
7.5813,1.165,-3.4487,3.0681,0.42603,-6.3198,-3.0028,-2.768,-5.688,6.1971,-5.5029,5.4737,-8.1145,-5.2447,
8.3317,0.37176,1.3375,1.1968,3.5335,-3.2891,-3.5455,-1.3966,0.6788,3.1737,-0.59302,5.8682,-1.1197,3.0237,
10.2424,-0.61442,-0.67047,2.5712,4.7677,3.1748,-5.261,2.5436,-1.2901,-2.8013,1.3708,1.6597,-1.0525,2.3603,
10.8327,2.5559,0.57459,7.9606,-1.5439,3.2253,1.0802,0.22181,0.95644,-5.7663,3.4577,-8.8038,1.6617,-0.43238,
6.5673,4.0893,0.78108,9.6521,-2.1746,-0.58367,1.2564,-0.032462,3.0682,-3.2511,2.5273,-7.0707,3.2493,3.2085,
4.0043,-0.25314,-1.9166,8.3503,0.60767,-4.1638,-0.98792,0.69262,2.6434,-0.40474,0.20628,1.3075,1.8492,-2.5274,
6.4151,0.48495,0.84944,8.0898,-6.4187,-2.2268,-0.20575,-1.0362,1.7614,0.82437,0.9168,1.952,1.4973,-6.4731,
3.6201,3.3484,0.79848,7.6044,-9.408,-0.16499,-4.5317,-0.010131,-0.27246,5.5956,-1.5483,1.8348,0.44315,4.0382,
0.51061,-4.0831,2.1966,4.7382,-4.505,1.2909,-6.1882,0.95503,-0.25588,8.1522,-3.8653,2.2069,-1.0295,8.6164,
3.854,-1.428,4.9573,5.8997,2.0318,6.9981,-6.2989,-1.0309,-1.2049,3.8067,-4.1158,5.9309,-4.8241,10.0276,
6.9972,4.9242,2.2493,6.0281,10.1051,6.0963,-5.439,-0.96907,-1.1321,-3.1706,-0.97633,3.6468,-4.5346,2.6775,
3.2034,2.2186,1.1505,3.2563,14.319,2.838,0.18997,1.0177,1.8279,-3.9443,-0.43582,-5.731,2.004,-7.6061,
-2.5325,1.8445,-1.0877,3.3019,2.1317,7.7294,-2.9549,3.1258,-0.45095,6.6562,-1.1326,-0.8074,3.5709,6.9503,
-5.755,-1.6406,-4.3969,1.1756,-10.5297,5.3374,-9.0441,-1.8824,-1.3882,9.6313,-0.10075,5.5076,-1.4636,14.8483,
-0.10725,1.3501,-1.2408,8.3357,4.2021,6.4632,-1.7528,-1.7697,0.6235,3.2686,0.86939,1.8029,0.070276,-0.14264,
1.1043,5.8486,4.859,12.4151,18.05,7.7624,5.8244,-2.3867,1.3092,-5.8453,0.094098,-12.0438,3.1993,-11.3416,
-3.7825,0.19483,2.6395,3.4752,22.2694,1.9942,-1.7561,-9.956,0.26611,-12.7252,-1.3576,-19.5161,-2.7775,-0.056006,
-1.8683,2.8347,-2.5806,2.0614,21.1747,7.4182,-1.4098,-2.3688,4.8299,-2.0798,5.7138,-6.535,1.0046,7.9011,
-8.0227,-0.22791,-10.1385,-7.2213,20.868,6.9731,3.9774,-2.2267,5.022,-0.99065,6.3348,-9.035,5.7651,-6.673,
-7.5416,-0.6964,-5.1917,-8.2341,21.5444,7.5188,3.739,-3.0571,5.6848,-2.3777,5.9549,-10.9033,3.9731,-9.5266,
-4.9199,-1.3775,-1.7467,-1.2325,15.19,4.8985,-2.9933,-0.70456,2.6926,-4.4042,5.3567,-6.6336,-4.2195,3.3376,
-5.3476,-4.9103,-1.4009,-1.8815,9.6994,-1.4209,-2.5727,-0.90325,-1.0844,-6.3091,1.9018,-5.9947,-5.1711,-4.3345,
-6.955,-2.2055,-2.2812,-1.7686,15.8658,1.0744,-4.3465,2.5249,-3.9118,2.2641,-0.62245,1.5959,-3.897,-4.0744,
-10.635,0.57835,-4.3135,-4.3136,12.7447,1.2509,-5.291,-2.6882,-4.8819,5.7437,-0.82653,6.0794,-5.3504,5.0876,
-8.3099,2.2311,0.042921,-1.8854,8.8468,2.8633,1.5346,-4.6959,-3.384,3.7121,2.8387,-1.275,-2.3776,2.6134,
-9.7395,-2.7235,-2.3702,1.1198,12.1724,3.1735,-0.96806,0.88852,-5.1091,1.0788,-0.22413,-5.5368,-0.78914,-5.2561,
-9.3961,-3.2834,-2.9509,-2.5628,11.683,-0.15042,-1.6329,3.4863,2.1873,0.77355,2.4409,-3.0355,0.94543,-1.8073,
-7.1451,2.4572,-1.0866,-5.0601,5.4384,2.5102,2.5624,-0.82023,5.6715,1.932,5.4279,-9.8432,2.094,5.291,
-4.7882,-0.5823,-1.0214,-2.8283,5.5945,4.2877,5.7832,-8.0014,2.9211,-1.076,1.7278,-12.6266,2.9322,0.63479,
0.56074,-0.78833,1.2095,0.9568,14.1769,3.3076,2.3031,-5.8341,2.9868,-0.28855,0.90121,-2.469,4.4435,-8.8033,
1.25,1.9101,0.41353,-0.78784,15.013,5.2778,-0.96854,-1.3871,2.0842,0.93406,1.0876,-3.0442,2.9716,-6.1059,
-3.4043,-2.7838,0.62969,-9.1767,6.1585,0.38187,3.1869,-7.3295,1.7182,-6.5938,-0.18245,-16.118,2.5524,3.1785,
-1.2721,-4.0633,-0.85412,-4.2875,8.6813,-4.4615,1.5497,-5.9256,-2.2411,-13.4292,-0.65366,-20.4533,2.8814,-0.86838,
4.8298,-0.686,-2.0082,2.9596,15.1498,0.86739,-3.123,2.3837,-2.83,-14.7926,-1.3378,-20.9133,4.3957,-11.1806,
4.781,3.4525,1.2458,0.13045,12.5541,5.877,-3.6586,1.9997,3.8473,-9.3258,-1.4985,-15.5612,3.891,-5.4485,
5.6992,7.3429,-0.5164,-1.0824,25.9008,4.8013,-0.30579,0.19271,4.8215,-6.1149,-1.1674,-7.1559,0.52383,5.2425,
17.8912,4.9742,-0.0030208,2.357,38.4468,8.37,5.9795,2.5913,-2.2162,-8.6401,-3.5075,-11.0649,-1.9173,0.59005,
26.4584,9.4962,6.7458,5.1078,50.24,15.0984,4.6562,4.3642,-7.868,-8.6038,-11.01,-14.2576,-3.2487,-11.4971,
38.9709,22.665,17.6691,12.7553,61.3256,18.7721,7.5101,2.4149,-1.3702,-3.99,-7.2162,-10.2684,1.0438,-11.048,
50.7327,23.715,15.6448,12.9541,71.746,22.9482,10.4342,1.3059,-8.5186,-8.5711,-11.1213,-13.509,-8.1781,-8.4572,
57.8116,22.7745,5.0652,8.3205,81.5413,29.284,11.2539,7.4941,-22.1075,-17.2159,-24.554,-20.4112,-20.2204,-10.3599,
52.6559,23.095,8.8584,6.6157,90.7488,24.3937,18.5326,4.8755,-15.5993,-20.2805,-22.2374,-27.1405,-7.1973,-10.4614,
60.8248,28.2172,16.763,10.7985,99.4039,24.6173,20.0722,-1.4426,-0.92457,-13.0377,-7.1644,-24.3068,5.527,-4.2901,
54.042,25.3187,19.3729,9.4275,107.5396,28.6837,9.4677,1.7772,0.33597,-7.194,-3.1193,-15.8587,1.5802,-9.0942,
36.6995,12.7123,17.2462,5.4874,86.9873,14.9116,3.597,5.0451,-6.4331,-8.2086,-9.6811,-13.9429,-2.8534,-18.1895,
21.6026,7.6115,6.0883,2.7478,67.668,3.4118,1.4532,0.88574,-11.8315,-5.3057,-9.1,-5.3938,-4.1282,-4.5649,
12.8349,2.0934,4.5179,-2.4781,49.5079,1.5201,-4.6598,-4.2289,-7.024,-4.2642,-3.4925,2.8838,-5.0856,5.1093,
-0.46872,-4.7811,7.6213,-1.3655,32.4375,3.3566,-8.7185,0.3632,-4.6744,-6.419,-5.6931,-0.18171,-5.2624,0.94586,
-4.5379,-7.1454,-0.78973,-2.9708,20.0066,5.3249,-9.8826,2.0286,-4.1529,-2.9003,-4.6286,-8.1245,-0.84927,-0.79766,
-6.4351,-4.0658,-1.9479,-7.3721,4.7062,2.836,-11.941,-1.7087,4.5317,-1.5213,4.085,-11.2525,8.1195,1.9011,
-19.3056,-6.4732,-1.1079,-7.171,-9.6761,-3.36,-19.6604,-3.2932,4.9834,-5.0452,2.1529,-13.7106,10.2837,-0.38193,
-21.5215,-9.9409,0.4051,-1.9198,-23.1956,-7.0145,-16.5524,3.6535,7.5767,2.4881,2.0235,-10.9595,8.7026,-6.1438,
-21.6767,-11.7548,2.7907,-0.84093,-35.9038,-8.5221,-20.3802,3.916,10.0139,11.0157,4.7944,-3.0716,4.3238,-3.3648,
-29.0527,-12.9777,6.962,-2.2363,-47.8496,-9.9389,-33.2574,-2.5855,9.8955,9.8728,7.3992,-0.47671,8.4031,6.478,
-25.6223,-17.2607,6.3033,-4.2713,-59.0786,-10.0655,-35.2386,-2.1894,11.9528,4.2188,7.6782,-4.0635,15.8527,2.4739,
-20.4698,-20.8046,-4.439,-6.1844,-43.724,-6.3283,-42.5243,0.59332,7.6205,-0.13191,3.1199,-1.6506,7.9119,-2.254,
-17.5541,-21.2433,-2.0037,-2.1981,-42.7876,-3.7792,-42.6241,-1.6117,8.3683,1.5635,6.0664,5.4384,4.7859,4.3889,
-13.1267,-19.9685,7.2758,3.7186,-41.6663,-5.4809,-34.764,0.41345,7.384,9.6646,6.6665,13.307,5.9447,10.3923,
-14.9904,-22.868,1.7773,4.7005,-29.7666,-10.2135,-45.9348,4.4858,-2.9412,16.5563,-1.6874,19.0158,-1.4016,12.4201,
-14.5729,-20.5316,2.635,2.0084,-42.0806,-3.8161,-47.0351,3.2528,-0.35411,16.0453,-0.6223,24.6238,0.61069,21.7978,
-13.9395,-14.7204,7.0562,-3.1738,-53.6558,2.9203,-45.4181,2.8166,3.7645,10.0209,4.4767,21.4591,2.2613,15.9106,
-13.3441,-16.0063,4.9461,-3.7063,-64.5364,-11.3549,-48.2366,3.3705,7.154,6.7686,6.8597,9.8077,2.8485,1.2177,
-13.5078,-17.4565,4.1669,1.8183,-74.7642,-24.7736,-41.0038,-0.68809,10.5812,9.2545,6.4476,9.2192,8.4622,5.4829,
-19.9279,-15.927,0.060281,-3.1113,-84.3784,-21.8411,-29.3848,-3.0572,10.9104,10.1453,5.0967,9.1478,10.8467,6.1176,
-20.1783,-15.4531,-1.3889,-12.0834,-67.6258,-15.7097,-27.6215,0.98288,14.1124,6.6443,8.6475,-1.524,12.1243,-2.4439,
-18.7268,-12.357,-3.475,-8.7071,-49.4683,-14.044,-40.0642,2.6109,10.1319,1.6661,7.4055,-7.9402,9.7094,-1.5742,
-18.3261,-8.482,-1.0973,1.6973,-52.8874,-10.0683,-35.6117,2.2133,8.8011,3.2533,5.274,1.9364,8.404,-1.2387,
-20.1191,-9.4194,0.89673,2.0774,-63.6937,-13.8026,-30.1008,0.63423,10.6832,5.9507,4.9575,10.9788,4.5253,-5.0208,
-23.2505,-11.7465,-4.46,-2.8678,-58.426,-19.7231,-42.3947,-0.84986,9.56,8.4855,5.1422,8.874,3.2897,2.5111,
-20.4094,-12.9701,-2.7459,-4.6237,-43.8332,-16.6117,-39.2486,-1.763,9.4686,7.4946,5.3154,4.003,7.4308,12.0016,
-16.7743,-7.3712,-0.17099,-3.3824,-27.7059,-12.2406,-29.1809,0.27101,5.0441,5.1168,1.6225,8.1012,4.5744,7.907,
-14.3216,-5.4827,3.2137,1.1593,-28.9356,-9.578,-28.8759,3.6292,2.8132,5.2917,-0.40306,15.8103,2.3722,4.0582,
-9.1237,-10.9385,10.2515,7.3565,-39.7327,-9.9674,-31.964,5.3394,1.6804,6.4202,-3.2712,17.272,-2.1087,9.5995,
-2.7919,-9.3181,4.334,9.325,-23.2487,-9.851,-31.0103,5.5012,-4.6872,8.9273,-4.5209,18.1637,-7.767,19.6286,
-7.4447,-10.2048,-7.9771,-2.3212,-7.7538,-11.1882,-31.0779,2.2791,-5.3698,7.9097,-0.87568,17.5562,-7.7829,10.2562,
-15.4341,-7.4239,-6.7756,-5.7978,-1.0221,-11.2402,-26.5621,7.2036,2.9061,10.0862,4.7205,21.0821,-3.2186,-1.2055,
-17.4004,-7.9425,-1.0666,-4.0035,-15.0608,-15.8682,-22.558,8.6998,4.6597,5.6249,4.4375,19.817,-2.5433,2.723,
-8.1616,-9.3942,1.4075,-2.7994,-28.2571,-16.8448,-26.5072,4.3209,3.8982,3.3592,1.2787,9.9513,1.9476,4.4878,
-4.7794,-8.83,-4.943,0.26108,-31.141,-9.5671,-26.8445,6.4727,1.2542,7.4964,-3.6183,6.4622,0.38497,0.84456,
-9.0719,-9.9875,-3.9235,-1.4418,-29.9956,-7.3059,-15.834,5.361,1.4199,9.2154,-2.1963,11.1357,-0.84342,8.2657,
-8.5276,-6.9781,0.65019,-0.87337,-38.319,-10.242,-15.3659,-4.1197,-1.0754,3.8422,-0.6183,8.5393,0.65345,10.6618,
-3.4367,-0.53387,-0.11172,3.7588,-34.3327,-10.8323,-17.0953,-1.221,1.6406,1.9244,2.5523,3.9296,4.2297,-0.34176,
-5.3996,-5.0811,-1.7922,0.8817,-37.3344,-11.3877,-13.4185,1.9853,4.6752,3.9781,3.122,4.8991,3.2525,-3.4547,
-9.6554,-7.9097,-2.89,-0.85843,-47.8688,-9.9815,-14.3006,2.5891,-0.66697,6.8729,0.76557,10.6307,0.40628,10.8525,
-8.5937,-4.5431,-0.78841,-0.32499,-41.1403,-9.8645,-14.4067,2.4338,-1.1089,3.568,3.1298,10.4748,0.86383,16.5886,
-5.6679,0.068271,0.70515,1.6227,-25.6564,-6.8625,-14.0242,4.6979,-0.078486,0.46188,2.46,6.9538,-0.63426,12.2188,
-3.1585,0.7873,2.3498,8.0335,-33.0349,-5.2457,-7.6391,7.0673,-3.207,4.0494,-1.3028,6.2959,-1.3193,8.8344,
2.5744,-1.9113,9.6809,11.6486,-42.8631,-6.618,4.6293,4.9563,0.11865,1.637,-0.98385,3.7487,-0.99897,3.7248,
1.4559,-2.7607,6.6897,5.1649,-28.7222,-4.7749,-0.95084,2.7305,0.59369,-6.1738,-0.44266,-3.7068,-0.45687,-4.2117,
-0.80066,-3.8003,0.26275,-3.5807,-18.0808,-6.1756,-3.5451,-1.0483,1.2814,-7.4906,1.2711,-6.136,3.186,1.5851,
1.6575,-1.1617,1.6932,-2.4015,-31.0959,-7.7328,6.3088,-3.8779,2.1684,-0.77415,5.5332,4.3556,2.9948,15.4693,
-2.5393,-0.36912,0.86829,-1.5345,-43.3302,-7.5103,-0.57744,-0.029837,-0.13086,2.4053,3.514,13.9762,1.1279,6.5874,
-5.5202,-4.9265,-1.3532,-6.022,-30.8482,-9.711,-12.8353,1.659,0.60013,1.5379,-0.31206,13.8607,0.33708,-7.5464,
-5.9121,-2.9439,-1.0308,-5.9018,-14.8973,-8.8871,-9.4139,-0.12758,1.2872,10.3634,-1.0165,16.1623,-1.8525,5.1987,
-9.655,-1.5617,1.2004,-0.48582,-28.1035,-13.4153,-4.7515,-5.1814,2.4151,16.7317,-1.6786,20.2545,-0.053923,18.1434,
-4.9779,-0.74514,0.88744,0.26623,-40.5173,-20.0822,-8.564,-1.737,0.58295,13.5587,-1.8189,22.1723,5.4929,10.0649,
1.8281,-1.4236,-7.6017,-3.8473,-32.6631,-12.852,-8.7732,3.9106,-0.17516,5.2731,-0.9866,18.6725,3.4759,3.9171,
-1.1737,-6.6408,-9.0738,-5.5447,-30.7033,-10.1527,-0.53385,-1.6267,3.6917,0.61841,-0.44547,8.3931,-0.10711,8.0209,
-8.0934,-1.6628,-4.9142,-1.5964,-39.7074,-15.0869,-4.1175,-2.7341,0.33697,6.1247,-0.65994,13.4334,-0.34142,11.6368,
-8.8128,3.0165,-3.4143,-2.7056,-41.9045,-14.9048,-6.5215,-2.3289,-0.88831,10.3367,2.031,18.6532,4.2586,5.8771,
-4.6686,2.5945,-1.0403,-5.1948,-32.8825,-11.3594,-0.10468,-5.3227,1.3342,7.065,2.6325,7.6516,5.6898,1.4271,
0.4322,4.849,2.3966,-2.4726,-16.8095,-7.3034,1.3479,0.29935,-1.156,4.2309,-0.89992,2.3722,-0.43568,1.8234,
2.5754,8.6554,5.3863,-2.0833,-10.86,-6.1418,4.8824,5.825,-1.81,-0.6022,-2.0512,5.8453,-2.0968,-2.8653,
-0.23042,9.3416,1.9299,-1.7175,-17.198,-6.9784,7.7227,4.2704,-0.013966,-4.6637,-1.205,1.397,0.68036,0.43992,
-2.3858,7.5758,0.60878,-4.7475,-23.1558,-4.8725,6.5365,-0.56553,5.0486,-2.6966,1.5188,-4.7123,5.2188,4.5109,
-6.099,3.7468,-1.3559,-15.5501,-29.4795,-6.0268,-4.4612,-2.9417,2.817,-3.0167,-1.4648,-1.0556,2.4951,-8.7752,
-10.0714,4.0039,-3.6847,-12.6889,-30.603,-6.1472,-6.1215,1.5731,-0.24409,3.4308,-1.3769,12.9875,-0.06472,-0.53591,
-14.5288,2.0765,-6.1152,-10.2403,-31.9001,-3.1268,3.6458,-2.6186,1.4578,0.57383,-0.089015,11.9673,0.66252,13.5962,
-11.7289,6.2906,-7.6765,-10.59,-22.7552,7.6661,1.4988,-3.4254,2.3342,-4.2813,-1.048,6.4285,3.0329,10.0087,
-9.0969,6.3951,-8.1797,-10.4365,-21.8721,7.6881,-5.3398,-2.256,1.2303,-2.5782,-3.8772,3.6327,1.8871,-0.23283,
-8.069,2.1553,-2.3865,-8.8463,-26.8263,-0.4862,5.5857,-2.6028,0.67428,-1.4594,-2.1985,5.3431,-0.63652,5.084,
-10.2361,3.713,-1.5202,-5.6644,-25.94,-1.1802,8.3838,-1.7235,-2.0175,-0.16676,1.0666,6.7095,-0.35759,1.1633,
-14.9246,-0.36621,-4.8035,-7.2525,-34.9885,-7.8578,-1.7602,-2.102,3.4062,2.7358,5.3414,-1.4058,6.8947,-9.0294,
-15.9573,-2.7548,-5.9615,-8.7458,-38.192,-10.2788,0.27359,0.43422,7.5401,3.5355,5.5029,-3.7316,8.4092,-3.1854,
-8.7332,3.6772,-7.5318,-7.2567,-30.5976,-2.431,10.3803,-0.073538,1.3034,0.91346,0.35222,5.6511,3.0842,3.2729,
-0.73758,7.0722,-2.5004,-6.0984,-29.4849,2.2943,9.5165,-3.2028,-3.8363,0.61746,-1.3564,9.8916,1.2121,1.871,
-2.8625,5.4426,2.7109,-2.1168,-21.2083,4.3258,1.9557,1.0867,-4.8114,3.2315,-1.9979,10.021,-0.54783,3.446,
-4.8597,4.3929,4.2357,-0.30283,-10.0537,-0.51323,8.8282,2.7089,0.056817,5.207,-3.565,8.2147,-1.72,-0.85791,
-4.3274,4.3705,1.3302,-0.043464,-21.2606,-4.58,12.878,-2.997,-0.18779,4.1715,-6.0024,5.5528,-2.8219,-11.6529,
-4.5499,3.6261,-1.1599,1.4052,-24.8057,0.9972,10.6588,2.0029,-2.1049,1.5108,-0.33987,11.004,-0.24267,-3.7231,
-4.2769,-0.44782,-0.60842,0.35654,-9.82,-0.50889,10.9834,7.1853,-1.4963,0.93823,2.0906,16.1284,-2.6382,6.6236,
-3.0559,4.3998,-1.5358,3.2277,-2.964,-0.96029,11.2887,8.6824,-3.3347,7.1484,-0.92685,16.125,-3.9262,2.8517,
-9.1393,4.1356,-2.4077,2.5518,-16.8862,0.54381,10.1295,3.8234,-1.6886,3.8273,-0.38908,7.9269,1.1303,-3.5856,
-11.2423,-0.21017,-0.57627,-0.73453,-29.973,-2.6225,5.9063,-0.021679,1.0641,-5.3202,3.2495,-0.50271,2.2676,-3.6117,
-5.0239,2.9362,-2.2287,-2.3777,-24.5592,-7.0447,7.2389,0.70275,0.2771,-2.8316,6.6697,-7.9446,1.8903,-7.9745,
-1.3485,5.6521,-2.095,-0.78899,-8.9857,-8.0683,12.5892,-3.1958,-0.22146,-1.6979,2.4131,-11.3243,2.2588,-15.6912,
-2.9548,4.1076,-1.7283,4.802,-0.61326,-5.897,9.1825,-0.35296,0.032795,-3.2832,-3.2753,-0.7629,-1.4921,-7.2779,
-9.285,-1.2,-0.9017,5.7191,-11.4225,-10.6044,6.4624,2.3198,-0.69207,-1.8809,2.4648,4.8265,-3.0898,0.14861,
-8.2457,0.31799,3.4909,7.3044,-13.1473,-10.4503,13.7876,-1.676,-2.579,1.6062,9.548,4.5371,-0.97601,-3.2345,
1.1668,2.4683,3.5227,9.0351,-12.5996,-5.7257,14.6476,-4.2268,-5.0756,0.78666,2.9494,3.5418,-1.6406,-6.1737,
10.738,1.3561,7.1675,10.9033,-9.9155,-3.9361,17.6249,2.2936,-1.8787,-2.1528,-0.11989,-4.3837,-1.5424,-5.8035,
9.3706,5.3719,7.4606,10.4899,4.7795,-6.3512,20.665,6.7355,-3.453,-4.675,5.9126,-10.146,-1.6906,-3.2859,
4.4698,6.0136,1.2281,8.8964,18.5927,-6.9343,13.6403,1.0285,-3.728,-3.9123,6.522,-2.7891,-2.5532,-4.0529,
9.2633,3.0017,2.8417,13.9062,7.113,2.8818,5.8322,4.5822,-0.37082,5.2405,1.5514,7.7426,-4.0873,0.28767,
7.7434,1.8575,2.1895,13.0721,-3.9186,8.9756,7.4107,8.1643,-3.7228,8.3007,-2.8798,4.3862,-5.2881,10.8755,
-1.398,-1.1462,1.094,0.23642,-9.9504,-1.2041,15.1608,-1.0029,-3.4997,3.9461,-0.29713,0.26644,0.81357,11.187,
-5.6529,-1.0774,0.54642,-0.74163,-17.5481,-9.3266,10.3947,-2.8709,-2.3254,6.6014,0.68503,6.517,2.693,6.6594,
-0.73425,2.1205,2.2006,10.6308,-14.808,-2.7412,7.12,5.2553,-1.9451,10.7848,2.3309,10.7055,-3.012,7.9473,
4.3717,3.1983,6.1662,14.0906,-8.8581,5.3772,9.3439,7.5913,-1.5872,7.0045,3.8781,9.34,-6.4465,8.1932,
3.3863,2.7657,4.1088,11.5577,-8.5678,7.7055,4.6859,5.4484,-4.1433,7.3073,-0.93414,14.323,-3.8908,9.389,
4.3879,1.3944,1.6931,10.1413,-2.5101,3.6277,6.5739,3.4343,-3.6537,9.52,-1.601,19.9715,-1.9701,9.0666,
5.3297,2.9978,1.3503,10.7379,-2.6005,4.6156,8.3486,7.3258,-1.2651,9.19,4.0385,16.1219,-3.5389,8.2814,
0.91236,1.1309,1.0285,5.996,-12.3266,7.9538,5.1964,7.6094,0.97973,5.9873,3.5554,5.7544,-1.6395,8.9896,
3.2682,-0.86514,3.8589,0.33409,-1.9458,0.7277,8.7412,-0.078026,-0.52485,-2.5667,-1.4786,-4.2318,0.38702,3.63,
7.8926,2.561,4.5914,3.6878,12.2709,-1.2444,8.6984,-5.3762,-5.3143,-6.2693,1.5024,-13.1367,-2.5285,-4.3008,
9.3472,2.8893,8.1723,8.7692,17.6805,1.2409,11.0688,-5.5356,-3.0673,-7.8213,4.3043,-20.0613,0.51528,-10.7917,
8.5454,2.4754,7.4415,10.8946,9.1483,-1.0027,15.9485,-0.14177,-2.1599,-9.0393,-2.9434,-14.7603,-0.23854,-7.9745,
6.5867,1.3623,3.6203,9.7588,-1.0418,-3.3529,17.402,5.6515,0.86202,-0.30199,1.0898,0.22534,-3.1165,6.6039,
-0.075268,-4.5038,-0.93545,-0.46751,-5.7998,-7.9722,10.573,3.866,2.7383,6.4648,4.8806,7.322,-1.0011,9.9434,
-1.758,-3.5106,-3.0485,-4.0549,7.8046,-2.4322,7.2873,5.3212,-0.077125,9.2104,-0.95584,17.7289,2.192,3.8031,
4.1319,-3.2998,2.4368,-0.9193,11.6747,1.0879,15.5272,3.074,0.40967,9.6219,-1.8626,23.8958,1.0964,6.4673,
4.8483,-3.5842,3.7369,-1.3465,9.5279,-0.90554,17.0057,-4.3413,0.86702,7.5983,3.0694,14.7492,0.54866,11.3819,
1.9063,-0.71758,-3.4767,-10.1833,19.3208,-2.5384,11.4061,-5.768,-0.3903,0.63492,1.6804,1.5722,2.6849,-2.075,
6.3712,0.048377,-1.099,-15.116,26.1153,-3.109,12.8909,-7.5911,0.83842,-6.875,0.8567,-11.7785,1.8009,-12.7968,
11.0504,4.1431,5.4742,-4.3273,25.2713,2.6209,15.2507,-4.9667,-0.41695,-6.7037,4.9024,-18.0619,-2.4047,-0.2191,
8.2184,4.1357,4.905,-0.93395,17.2475,3.6692,14.5768,-0.088734,-3.0433,-7.9885,5.8138,-15.2907,-1.5373,-4.785,
6.0379,-1.1744,0.51315,-6.4218,5.3664,3.6898,9.1227,3.0498,-6.4763,-3.412,-2.0071,-3.0448,-2.6501,-14.3801,
9.7734,-0.86249,-0.24054,-1.9386,6.7316,9.012,9.2987,8.4105,-4.8824,10.8927,-6.9479,10.3942,-2.2502,0.58273,
6.2942,-3.703,-2.1545,-8.0891,4.8815,3.1688,12.5969,-0.2891,-2.6611,4.575,-2.1929,3.0219,-3.5612,9.8273,
4.4706,-2.0348,-3.4713,-14.8346,5.5529,-2.3237,11.8413,-5.0922,-0.091051,-3.8939,6.616,0.91216,-1.9015,-4.8624,
5.6484,-3.3592,-1.817,-10.57,7.6299,-3.6308,8.72,-1.8944,-2.014,-5.1068,1.3981,-0.5886,-2.7515,-11.6812,
13.7454,1.4219,11.0667,1.3921,6.9311,4.541,13.2588,5.6908,-1.652,-2.631,-4.7111,-3.6865,-2.3452,-3.5083,
16.0541,3.5057,13.0538,2.9958,5.31,6.4377,14.15,5.5903,-2.7581,-6.0886,-5.1518,-11.4195,-1.4816,0.79956,
19.9114,1.8493,10.3426,0.88812,13.6685,3.6411,12.3374,6.219,2.2278,-6.6873,-0.022205,-17.483,2.9458,-3.587,
16.7887,4.1487,2.0091,-1.5755,14.7765,1.4947,3.4022,4.8822,-2.2444,-4.8401,-2.9132,-14.0237,-3.0157,-13.4949,
9.0327,3.4176,-2.932,-4.3733,7.1413,2.851,7.0542,0.25076,-4.5196,-6.96,-2.7381,-5.9517,-3.7989,-6.4184,
6.8031,-0.88477,-2.0332,-3.8699,2.1331,5.813,15.549,2.8868,-0.63349,-5.3371,0.55917,-0.050962,0.044487,8.0667,
3.2619,-4.929,-6.4905,-5.3249,-3.5385,4.7413,6.6623,5.3647,-2.7646,1.4906,-1.1616,4.5318,-5.5018,3.1236,
5.2353,-5.8386,-2.968,-6.2107,-4.0494,1.8058,4.093,2.3917,0.53472,5.4985,0.11338,13.1775,-3.9664,7.9979,
9.7417,-0.66779,0.58477,-1.9815,6.317,1.2152,7.2221,0.32025,-2.3896,3.2406,-1.8214,17.2078,-3.2462,20.0513,
8.1931,1.7826,-2.825,-2.8267,17.5071,1.1426,5.3427,-0.18113,-8.513,4.0103,-4.1225,6.0522,-5.9438,4.7482,
4.5682,-0.97565,-3.3782,-7.2366,17.1798,-1.5773,7.6735,-0.89339,-3.4227,-0.32791,-1.2238,-7.5675,-3.4182,-9.6367,
3.0886,1.7342,-1.4885,-1.741,12.0514,-1.2419,12.2741,1.8111,1.3622,-6.8159,1.5005,-7.3547,0.88447,-7.3715,
3.1447,0.42533,-0.19388,1.9789,5.785,0.5198,12.261,0.49758,-0.40679,-5.2017,-1.2406,-5.2262,1.0724,-3.7957,
3.197,1.1227,-3.7977,1.6192,9.5352,3.6221,6.946,0.70869,-2.5515,2.1003,-3.3353,-1.2972,-2.6074,-4.7728,
0.35363,1.7782,-7.1852,-1.1295,10.1682,1.2356,6.7702,1.3895,0.25264,4.1434,0.96213,4.3243,-3.1739,-2.7997,
1.2967,-0.73858,-4.344,-2.9899,3.2913,-2.213,10.2204,-1.1044,-0.72684,1.4842,-0.059921,4.0648,-2.5015,-7.4519,
5.3167,2.4392,-6.2525,0.80536,14.4223,5.3916,8.4019,1.6134,-3.3339,2.1185,-3.1894,0.6879,-1.628,-0.014954,
1.1411,1.8107,-9.7335,-5.9916,19.8237,-0.23431,7.4161,1.9987,-0.72394,1.5093,-0.58764,-0.7994,0.87954,10.1091,
-0.85576,0.73797,-7.2215,-9.4888,10.4391,-9.3795,8.4167,1.3967,0.28359,3.8291,1.3756,1.1765,1.7909,-1.103,
3.2929,1.4166,-5.101,-3.8582,13.4282,-6.6476,11.0452,-1.3387,-0.45632,1.4302,-1.358,-3.9557,-1.4501,-11.4007,
4.3009,3.501,-3.108,2.8815,23.9507,-3.5974,14.48,-5.8374,-2.5983,-3.2352,-4.4098,-2.5133,-5.9421,-0.35254,
3.5609,7.6297,-1.4752,8.9751,26.3703,2.4035,15.0575,2.7075,-5.8164,5.636,-5.5915,11.7375,-6.0675,1.1149,
7.6853,2.8329,-0.42262,4.098,18.5213,3.7053,13.6719,7.3656,-4.9857,6.7439,-5.7382,11.8771,-5.2218,-11.9677,
7.2242,2.181,-0.39726,0.47769,17.8919,2.0367,14.2978,2.5853,-2.2765,-3.7841,-4.4295,-2.8153,-3.9441,2.8504,
3.1756,6.1477,-2.5428,0.20829,27.6647,2.6377,18.9833,1.2251,-1.4167,-10.0643,-3.4406,-9.636,-1.5386,16.7794,
8.0463,5.0555,-2.1493,-1.9738,34.4407,1.2741,20.0135,0.91019,2.7656,-8.2556,-3.4752,-6.8887,-3.1335,1.6726,
11.6611,3.0652,-3.7073,3.2065,33.5796,-1.9356,13.2693,-0.34903,1.877,0.19371,-3.9898,-4.306,-4.1501,-12.5278,
10.7204,2.6403,-4.2078,7.5934,31.3236,-0.61417,13.1961,0.39482,-1.3691,1.8693,-3.9914,-5.7349,-0.76804,2.3239,
14.4155,6.3383,-3.4734,3.2814,36.675,5.2068,11.9224,2.2989,-7.0715,-4.0274,-9.5369,-2.9806,-5.5427,9.777,
15.961,8.8503,-2.7828,1.6385,36.8844,9.2329,8.3147,4.5713,-10.5039,-5.2323,-11.857,1.0548,-10.9945,-4.9096,
9.2187,2.5347,-2.6158,-1.3523,22.6203,4.8226,12.6366,0.92256,-6.4992,-7.8104,-9.6993,-11.542,-7.4427,-11.7254,
10.5936,6.2387,-2.4591,-2.2353,17.4067,4.5335,15.7345,3.7595,3.0496,-6.8601,-1.8868,-11.3316,2.1626,3.0781,
10.6813,6.1054,-3.0345,-4.2703,12.7468,-0.3183,10.2112,1.3648,4.0719,-7.1714,1.3599,-2.2156,3.2382,-0.36054,
8.8349,-1.2506,-1.6473,-4.7372,15.1153,-3.9144,12.7317,-3.2966,1.1763,-4.5717,0.07328,-2.8058,0.87449,-9.7387,
10.4742,-2.3806,-2.7536,-6.14,28.3084,1.3819,15.1011,-0.44752,0.38255,2.6923,-2.1005,-0.46804,-2.7932,4.9456,
5.5074,-1.2734,-4.5165,-11.5562,27.2125,3.2272,8.4105,-3.7947,-3.9787,5.9052,-6.3128,7.7547,-8.8921,15.8566,
2.0435,1.9364,-4.9689,-8.6936,19.0723,6.649,3.8085,-4.7723,-7.8374,8.202,-4.7287,12.8331,-7.6357,4.059,
2.6442,-4.2057,-9.732,-11.7875,24.9178,5.5271,7.1954,-6.1732,-2.3054,3.1305,-4.686,4.5913,-5.4903,-1.7282,
2.2444,-5.1585,-5.5329,-13.2496,28.4842,6.4006,13.7533,-4.5977,5.3045,0.77333,-2.7178,-2.1919,-3.9558,-3.3115,
-4.1568,1.8999,-4.719,-7.152,15.6877,9.391,13.8924,-2.3937,1.1298,-4.5757,-3.5186,-12.1833,-1.3079,-13.7181,
2.6003,5.8831,-1.3021,-0.69708,8.7209,10.9965,15.7102,1.8475,2.749,-7.9164,2.7178,-17.4781,5.7602,-8.3155,
5.5776,-0.97762,-3.3934,-4.2709,11.813,6.7215,7.7775,-1.3966,-2.4774,-5.272,-2.0248,-8.9578,-5.4314,2.5475,
1.8685,-3.3291,-4.1541,-9.7992,14.4785,4.8719,6.3465,-8.5436,-6.6675,-0.61735,-8.1698,-1.1895,-11.8544,-0.97977,
-0.89474,0.96801,-3.1815,-10.4161,11.9226,5.303,11.9917,-7.79,-3.6159,-4.1957,-2.136,-6.6617,-3.1894,-6.4646,
-7.349,0.66896,-8.5342,-9.0682,8.5559,3.7795,8.6207,-4.6715,-2.1937,-6.1131,0.16132,-4.5748,-4.2034,-5.3538,
-4.7384,-3.4685,-1.0323,-4.9087,15.5146,1.8655,12.2012,-5.5961,3.4816,2.2074,-0.089323,7.5103,-4.6741,-3.8273,
-3.7315,-5.4298,4.573,-4.373,15.3068,0.54852,8.3359,-6.4654,-4.6813,-2.5046,-4.6635,-1.3763,-6.5625,-5.7666,
-3.7488,-1.0064,4.5394,-1.9417,5.4701,8.4691,9.0404,2.358,-3.6773,-6.9338,-0.28655,-10.6939,-1.5897,-0.84154,
-4.7287,-3.5971,3.0622,-2.5481,3.9371,11.0945,13.5596,3.9042,5.9434,-7.2407,0.454,-7.4012,2.1211,4.7526,
-3.7221,-2.1765,0.70929,-0.22605,12.1365,11.6341,11.0588,4.8748,4.8634,-3.6732,-1.2605,-3.8236,1.7528,9.0472,
-4.4624,-5.4201,0.6665,-1.6585,8.0341,6.5975,8.4673,0.72614,-1.6947,-2.0063,0.26165,-2.1477,-0.28029,-4.0289,
-7.5691,-7.9874,-0.33736,-3.9696,4.66,0.41706,7.4774,-6.0663,-6.4137,-0.92209,-1.6827,4.7296,-7.0124,-12.4643,
-9.2843,-3.4106,-1.0402,-3.0083,17.1546,3.5253,10.6439,-3.051,-1.4494,-0.14364,0.58765,-1.098,-4.9046,-2.7986,
-9.6914,-2.2419,1.9145,-5.7201,26.7304,4.2779,16.272,-1.4219,6.3506,-3.9912,5.3729,-14.0473,6.4771,-5.523,
-11.2793,-0.90229,1.5584,-4.6537,18.1369,2.8161,15.5364,-0.61349,6.6922,-3.9929,5.2917,-13.9276,8.7398,-14.1094,
-12.5307,1.5624,0.98296,0.92813,7.8897,3.6115,15.5686,2.3158,6.7731,-3.7533,5.4561,-11.6457,6.7691,-4.1038,
-7.4403,1.4685,-0.52205,5.6929,15.1289,8.2153,11.2602,3.6229,2.992,-7.3847,2.7184,-9.9829,2.9888,10.2424,
-2.8961,1.6213,-2.178,9.9311,25.5498,13.7479,6.0053,4.1289,-4.1769,-9.5928,-2.5059,-2.876,0.64029,2.9999,
-4.4098,1.7652,-0.84221,10.0579,21.365,11.2356,5.8857,0.26552,-8.5058,-11.6685,-5.9712,-4.3909,-2.5318,-11.2801,
-6.0736,1.1772,-1.7558,7.0441,22.0115,7.6692,9.8707,-2.6427,-7.5138,-6.1479,-6.0951,-1.2351,-4.7903,-7.35,
-6.9143,-0.58047,-0.44537,0.11417,20.4496,5.522,18.1967,-2.2434,0.89103,1.2106,1.7426,5.8286,2.9692,5.8657,
-10.1148,-1.269,-1.1415,-3.99,13.6795,5.9141,13.9715,2.4709,2.0429,0.41506,7.6636,-0.064695,7.8527,-1.4761,
-8.3026,0.49437,-3.7241,-2.0634,25.6332,5.8002,8.0719,3.046,2.1613,-0.33274,8.4091,-3.6758,3.2842,-7.4131,
-4.4303,-2.4276,-3.9829,-3.868,35.6641,-4.189,9.0337,-7.2603,3.4776,-4.6513,1.1559,-3.4555,-5.1078,-9.8606,
-3.6823,-2.2817,-4.7084,-0.26172,30.632,-1.5273,6.5632,-5.8606,-6.3718,-6.3007,-7.5908,-0.83777,-12.0324,-10.715,
-2.9794,-1.1809,-3.9435,5.5386,24.9377,10.1335,6.6518,4.6144,-10.3283,-1.5838,-9.0635,5.9609,-10.3461,-0.91354,
-1.3544,-2.0739,-2.2611,4.7243,23.4414,6.151,4.3245,3.3732,-4.8879,1.4032,-9.0017,10.9059,-5.3871,13.2413,
-1.9965,-3.6372,-2.3664,0.82544,20.3477,2.6485,1.4135,-3.3367,-0.97916,3.0063,-5.8105,12.4207,-3.3766,13.5314,
-3.8047,-6.7927,-0.29602,-1.634,17.6808,8.7568,10.006,-2.1724,2.9362,5.2363,0.32342,8.7837,-1.2456,-1.3805,
-5.9867,-4.9391,-2.2067,-2.5005,19.5123,4.8567,10.3693,0.36834,2.7598,5.4042,0.78572,1.5075,-0.68915,-13.7105,
-2.735,-3.6789,-5.4483,-4.2787,24.608,-4.1114,2.9987,-5.4383,-0.78024,0.25927,-3.1178,-6.2957,-2.0936,1.2122,
5.6238,0.39821,1.1451,-1.6118,31.3263,4.8119,7.1571,-6.5583,-1.6977,-2.6488,-2.9307,-4.9541,-3.4142,1.5011,
-0.25724,0.13335,-2.0571,-4.1662,29.6877,9.1025,6.4867,-3.0318,-6.1752,-4.659,-6.8527,-5.3798,-8.753,-12.6889,
0.48132,-1.0797,-1.6924,-7.5319,27.6657,3.9769,7.3026,1.2477,-0.74321,-0.76384,-4.7541,-4.3338,-3.1664,-5.5406,
0.21147,-1.2559,-5.2063,-13.5874,19.4982,5.9079,3.7314,-1.9602,-0.45719,-0.95898,-3.7455,-3.8328,0.63903,3.7104,
-3.8986,-0.45765,-8.0274,-15.9055,16.1587,11.0965,4.2304,-2.5659,3.1852,-4.5169,2.5048,-3.3619,2.2879,-4.9484,
-1.0133,-0.18899,-2.4839,-14.7099,17.3586,6.3336,11.9305,0.72129,10.9481,-3.5227,8.8622,-9.1855,5.7663,-15.4975,
0.011567,0.78644,-2.817,-12.3813,18.245,5.4714,12.1783,-0.28609,9.3271,-1.3834,5.4382,-14.4192,7.8302,-14.5679,
-4.0869,0.49829,-1.9251,-10.9155,23.1763,8.7586,7.3503,-2.92,4.6701,-1.0594,4.3885,-9.9386,6.6375,0.40617,
-4.5646,0.70936,-3.0149,-9.5375,27.8113,8.956,2.8119,-0.093722,-1.6357,2.1376,1.4741,2.9498,-1.2326,14.4818,
-5.737,-5.1178,-8.6181,-12.3394,20.84,6.4904,0.23308,0.87623,-4.43,3.4556,-2.9526,7.1116,-4.5331,-0.48711,
-2.2591,-5.5338,-3.522,-10.8762,24.651,9.2347,4.7986,-0.38141,3.3078,3.489,2.286,3.5516,2.2466,-14.5579,
-2.8469,-0.14059,-3.0697,-9.5007,36.4284,7.9573,2.3411,-0.11802,0.45778,1.1105,1.4255,-3.6514,-2.4679,-2.1155,
-2.4349,1.0734,-2.6443,-9.1714,30.1455,3.8646,6.2982,1.0946,1.6354,0.8027,1.5811,-3.6735,-1.5967,12.1114,
-2.048,-0.1961,-1.7625,-7.898,15.0802,4.8378,7.1258,-1.1405,2.7428,-0.45052,1.7275,0.64451,2.5967,-1.2685,
1.6905,1.0207,0.99457,-5.2549,13.9342,6.7165,4.0469,-2.759,1.8551,-2.5924,2.3465,-0.59923,2.6821,-12.0389,
8.5789,0.23613,3.1041,-5.1806,21.0523,0.28795,7.9015,-1.3887,3.9129,-4.606,4.3753,-11.8915,1.7978,-3.8448,
11.6794,1.9094,2.6766,1.6377,30.6352,0.9938,12.9708,1.346,2.955,-6.4991,2.4253,-17.2038,-0.479,0.0015787,
9.7736,2.9999,2.7572,5.1551,27.1101,6.9599,13.88,-0.90372,-0.83746,-10.6886,0.59282,-20.2691,1.2367,-5.06,
5.0898,2.579,-2.4699,-1.6622,14.6372,8.7115,6.5393,-0.12659,-1.5106,-10.7702,1.2801,-24.5966,3.8136,-8.8542,
-0.51847,0.49579,-9.0704,-6.8648,17.1332,10.5992,3.7365,1.8094,1.4724,-4.3397,3.1318,-18.7822,2.6207,-8.8051,
1.923,1.4301,-5.1515,-2.1144,25.264,8.9991,9.2972,-2.6377,-0.54395,-1.187,1.9798,-3.5553,-2.357,-3.4558,
4.9409,0.6212,-0.74526,4.5202,19.6511,4.3616,4.6417,-5.6127,-7.9834,-2.3208,-3.6829,5.4554,-7.277,8.5614,
4.6444,-0.37994,2.6739,7.623,18.472,1.6898,5.3276,-3.8301,-3.648,1.1929,-2.0156,2.7179,-2.984,9.494,
2.9195,0.12479,1.5491,7.1656,27.0047,0.62406,5.9718,-4.5642,-2.9472,3.5314,-1.8947,3.5192,-4.2513,-2.6448,
2.0214,-0.12366,-3.605,5.5308,25.1434,1.7919,1.9981,-3.5674,-5.4214,0.66845,-3.4682,2.1027,-3.7548,-7.5478,
7.2028,1.812,1.9139,7.1272,17.8502,6.987,8.6271,0.98539,3.581,2.0741,2.0425,-4.7723,2.737,-3.2386,
7.4937,0.49817,2.5222,5.9764,17.9843,5.3628,6.4225,0.20314,3.1249,3.6371,3.125,-9.0651,-1.0424,-0.39246,
9.454,1.9143,3.3345,4.1718,21.2438,1.6663,5.0726,-0.29121,1.9733,-1.884,1.4915,-9.4857,0.4662,3.4872,
8.887,2.2816,5.0629,-0.41708,22.8614,-1.3255,5.7328,-5.0942,-2.9656,-10.4473,-7.7568,-10.8445,-3.4184,-0.096213,
10.5232,3.3498,5.9642,3.7051,35.5897,-1.4872,5.6295,-5.9936,-6.8852,-4.2771,-9.4608,-1.758,-7.3109,-1.7779,
10.8559,0.2565,8.0167,3.483,35.0209,-2.8444,10.1122,-4.188,-3.5798,-1.1282,-5.5189,-0.68838,-1.0874,-0.70713,
5.6248,-0.48179,4.4022,1.1049,24.9659,0.45973,9.7465,-0.32129,0.2504,-5.6398,-5.4288,-10.0471,5.0034,-1.8695,
4.5644,2.1982,1.487,0.31567,27.5653,0.19118,6.5106,-0.54297,1.4407,-5.5424,-1.4876,-13.0597,2.534,-7.301,
8.3879,3.2716,3.085,-0.42663,34.3475,-0.5432,6.8429,-1.7157,0.63133,-2.5587,2.2171,-10.1069,0.21282,-9.5145,
9.3309,2.111,0.97168,-1.3649,31.3223,2.8634,7.3966,-0.16649,-1.3352,-3.8515,-0.80848,-8.5362,1.1639,-6.5335,
8.771,1.5024,1.3953,-2.7293,23.6584,0.76385,9.8453,-1.1204,3.0837,-4.5842,0.20436,-7.5421,4.469,-2.7666,
8.9679,4.0636,0.58846,-0.39612,26.8184,-1.9338,7.0852,-1.2943,-0.71698,-5.0323,-0.049099,-7.3308,0.58521,-0.43163,
9.8761,2.8559,0.55315,0.10958,34.8503,0.11092,7.624,-0.73475,-4.5299,-3.7665,-0.046153,-7.3728,-2.8244,-6.1903,
10.0062,1.479,1.725,-3.5126,30.5899,-2.5475,9.3359,-0.44947,3.2135,1.039,4.5361,-4.2792,-0.0035725,-8.4702,
-1.4402,0.66715,-9.2245,-11.7376,16.9446,-8.9019,1.7861,-1.6276,3.2619,4.5923,2.577,-2.3349,-0.72649,3.8484,
-5.6921,-1.3011,-7.7067,-11.0333,11.5891,-3.5476,2.6428,-1.048,4.03,6.7269,0.97609,2.1435,3.1735,7.4738,
-2.2173,-1.9461,-0.25466,-1.9352,14.5094,0.76289,-0.16707,-1.7082,1.1369,6.0821,-2.2157,7.0763,1.2961,-5.7488,
-2.8072,-1.5879,-2.8909,-5.9169,16.7719,-5.7908,-4.7363,-2.3286,-3.993,5.9581,-4.2519,6.4108,-2.3971,-3.2347,
-4.085,-3.9028,-7.5377,-12.3103,20.5863,-8.8174,-2.042,-2.6708,-6.6455,5.1187,-3.5149,6.5081,-5.6277,6.6003,
0.016229,2.5977,-5.1575,-4.823,31.8844,-2.022,0.49086,-3.9571,-8.6571,1.9193,-4.2681,7.0817,-7.7004,-1.9906,
10.6205,9.1907,6.7216,4.1435,39.6123,1.9561,4.3178,-2.2734,-0.4249,-2.5342,1.2906,-4.9124,-0.007557,-8.6201,
7.091,4.3007,5.8361,-1.89,32.8974,-2.0179,0.6845,-2.6192,-1.3635,-10.0951,-1.1972,-18.7176,-0.9712,-7.6207,
2.8092,4.0427,3.5577,0.63357,31.8875,0.51334,4.9818,0.43051,-0.7993,-8.0432,-0.16101,-22.2944,1.0153,-6.6816,
7.2199,3.5591,8.8879,8.0674,36.4817,-0.24036,8.7802,-1.7649,-0.51084,-9.2478,1.0535,-21.1981,2.6416,-7.4855,
4.1354,1.1762,2.8108,7.8245,27.3032,-5.2878,-1.1464,-1.8998,-10.8443,-11.8262,-7.9276,-21.1313,-6.4348,-4.8674,
2.4415,1.1056,0.23201,8.8013,16.024,-5.9344,0.36866,3.0349,-10.6751,-6.7783,-9.862,-13.5965,-7.0125,6.5123,
1.0897,1.7622,1.9053,5.6217,12.4115,-5.3374,2.0333,-1.245,-8.8298,-7.0945,-11.9219,-13.986,-6.8332,7.3264,
0.30118,4.7902,2.9961,5.5256,13.3538,1.4905,0.22431,-2.3754,-5.6487,-5.9457,-9.0372,-15.7981,-4.7358,-1.0672,
-0.43979,2.8155,0.64713,7.8451,3.6345,-2.6962,4.3082,0.41872,0.71581,-4.8661,-1.0231,-17.5013,1.092,-4.6185,
3.9251,4.5746,-3.2483,7.3747,0.042188,-6.873,8.3883,2.8035,1.155,-4.0919,1.9306,-18.8618,4.4007,2.8896,
10.4381,6.2283,0.32104,4.0397,9.6806,-0.19412,6.9206,0.22516,-0.36053,-2.8826,-0.59587,-16.2841,5.1005,-2.1045,
10.053,6.0958,3.435,6.9305,12.233,4.8794,2.8902,0.93478,-1.062,1.8699,-4.6572,-5.9068,5.0357,-7.0396,
4.1472,5.73,-2.0737,7.4786,2.822,2.1761,0.78861,0.87869,-1.4802,5.6141,-2.932,1.196,1.841,6.3977,
3.8986,6.8323,0.46107,3.6561,-1.2035,0.11755,4.1155,-0.13813,0.054601,3.8312,2.0649,1.1245,3.659,9.8705,
6.3157,9.0739,2.6026,7.0517,0.55592,4.6898,2.1814,2.5213,-2.1178,0.46787,1.2176,-4.9685,6.0905,-4.8218,
8.8291,9.9755,4.3748,10.4852,0.52234,7.3007,3.9789,4.7803,3.794,-1.0062,1.1448,-16.2398,8.1355,-14.7759,
5.1661,8.1719,1.943,6.2404,-3.1242,2.2831,1.5708,-0.56793,3.3252,-6.4892,-2.0572,-27.5577,2.104,-5.4534,
6.7841,9.6095,-0.10159,9.2407,0.43748,3.1102,-4.3078,-0.53409,-4.5873,-6.1001,-3.3802,-18.1915,-1.8789,7.889,
9.7515,3.7308,0.38644,4.8299,-1.5165,2.9241,-3.5674,-0.98398,-3.8297,-3.3235,-5.1051,-6.4944,0.64442,-0.29712,
10.1305,5.9168,1.8093,4.0579,-1.9077,9.4973,2.9134,3.4136,3.1488,3.6246,0.98552,1.1258,6.3901,-5.5817,
-1.5648,3.6334,-6.4942,3.8142,-12.3987,5.0709,-1.118,0.31651,-0.41483,0.51434,4.3006,-1.8345,4.5602,-1.8726,
-2.6757,1.7286,-5.3812,4.7906,-18.1623,2.5974,-3.2201,-0.90778,0.81535,-2.6495,5.2479,-8.2314,3.0818,4.2658,
-2.0333,4.517,-0.72001,3.0569,-15.1444,6.298,-2.545,2.5211,1.7308,-1.5267,1.0766,-12.0763,0.96867,-2.2571,
0.7403,9.3076,5.3487,6.489,-7.7278,8.5712,4.1157,4.539,4.7599,3.1446,4.1455,-5.8081,5.4903,-8.1473,
-0.75038,6.339,2.6177,9.9565,-7.746,4.6829,-2.8797,-0.55356,1.5823,0.54584,3.8968,1.7712,0.34016,-5.2483,
-9.3825,-0.7902,0.53244,8.8767,-17.4046,2.9557,-10.4202,-1.4847,-0.44085,-0.45124,2.6986,6.9676,-5.4648,7.1177,
-12.9166,-0.50159,1.2236,2.3183,-19.4941,-0.83729,-6.6617,-2.1187,-0.65559,3.673,2.7775,7.2722,0.40645,7.4138,
-9.0086,6.036,-4.8753,-3.8463,-4.2244,-2.9562,-2.6466,-0.30437,1.071,3.2121,3.3342,5.1491,9.7821,-7.1311,
-7.2626,4.9507,-3.3778,-8.677,10.129,-5.9121,-1.2827,-1.0092,5.5862,-3.9708,3.8572,-3.5958,10.8826,-14.7774,
-3.9348,8.0281,5.0196,-2.3718,23.6213,-5.5574,2.1687,-3.3588,4.2867,-3.2506,2.1796,-4.8263,7.3371,-8.1062,
-2.0114,8.7517,2.5493,0.42205,36.304,-4.0186,9.0284,-3.8802,0.8965,-1.8502,1.8078,-1.8856,8.5841,-4.0044,
-0.44473,4.37,1.4322,-3.9418,48.2258,-4.7416,12.3429,-1.7194,0.36054,-1.7395,3.1454,0.15596,8.0688,-6.1745,
-1.1412,3.8671,3.9976,0.39181,57.2633,-3.734,7.9871,-0.89312,-2.3124,-0.91151,1.7516,3.7618,2.0413,-5.0809,
-1.5546,8.4553,2.7934,3.7428,47.0786,-2.5461,7.5079,-4.214,1.6827,-1.8211,5.0209,2.0898,5.7752,-4.2941,
-9.4156,7.2246,-5.3279,-4.9179,35.3358,-5.5268,2.9596,-4.2021,4.2328,-1.9533,6.8888,-0.20472,8.5617,-4.7594,
-15.3579,-0.19851,-7.1776,-10.6482,22.852,-11.7029,-1.797,-2.7449,7.1126,3.2258,7.6806,2.4589,9.2536,-10.4996,
-10.339,-0.9095,-1.2029,-8.8042,15.4549,-16.062,-1.9302,-3.3031,11.7471,7.1296,8.425,8.8193,8.9393,-13.485,
-8.2727,2.5193,-2.0953,-6.3478,14.0454,-8.832,-5.189,-2.1408,5.7398,9.1122,4.5449,11.6644,3.5825,-4.481,
-9.4635,-0.28296,-1.7281,-7.6541,7.6596,-2.7584,-2.2261,-2.7357,3.7082,5.9144,4.5136,3.9746,6.0186,-2.5249,
-10.8239,-3.6404,-4.035,-12.0154,-6.2978,-9.3414,-3.5388,-4.0179,6.8602,0.73879,5.2066,-8.3152,8.55,-9.6042,
-11.6205,-1.976,-7.6496,-14.6689,-17.9713,-13.1194,-7.6651,-3.2946,9.3408,5.9969,7.7865,-3.4779,5.1447,-15.7767,
-11.8874,-1.8572,-5.7441,-11.8606,-22.6773,-12.8144,-3.8309,-4.543,8.7802,7.5655,6.3552,9.7464,4.8358,-15.7942,
-8.764,-1.2638,-2.9893,-4.4003,-17.4603,-11.0812,-5.5293,-3.3065,4.397,8.0754,2.1175,18.8026,4.5457,-0.74651,
-7.9972,-4.8034,-3.5329,-4.8592,-14.2435,-14.0318,-9.7768,-5.2773,2.4459,10.2425,-0.6606,20.8079,0.17557,6.6494,
-6.553,-3.5509,-2.3566,-3.6035,-16.281,-11.7436,-8.2259,-3.5144,3.2635,9.146,0.82529,18.1132,1.6113,4.3227,
-5.9189,-3.5793,-1.4923,-3.1463,-18.9196,-10.798,-7.4918,-2.5806,3.7906,7.3919,1.4987,14.8572,2.2375,1.4118,
-4.5994,-2.4002,-0.43886,-1.9935,-20.6769,-8.7039,-6.078,-0.97954,4.5275,5.9841,2.855,13.0015,3.0676,-0.60114,
-4.3237,-2.2559,0.55156,-1.3917,-22.3286,-7.2176,-4.7492,0.043326,4.738,4.6609,3.6478,10.2934,3.8476,-2.9754,
-4.0643,-2.603,0.036538,-1.7903,-25.3272,-6.7845,-4.9462,0.040727,3.9713,2.4531,3.4289,6.7833,3.6168,-6.1714,
-4.5436,-3.1695,0.27554,-1.9239,-27.9051,-6.6186,-4.8906,0.27948,3.9742,0.61891,3.9463,4.2074,3.641,-8.9343,
-4.9936,-1.7742,-3.8386,-4.9417,-19.7231,-7.4266,-8.6943,0.98584,0.60252,3.2331,3.9503,13.3547,2.2174,-4.3007,
-5.8995,-6.2473,-9.1521,-12.5992,-14.4421,-9.6323,-10.824,-3.6528,4.1816,2.7979,2.0263,11.8303,3.7714,3.9113,
-10.8482,-5.3905,-10.0488,-14.2536,-22.2527,-5.6799,-11.1388,-1.9874,5.8589,6.0045,1.4223,11.6024,4.509,1.2661,
-7.546,-1.4519,-6.7945,-5.4444,-22.1226,-4.616,-5.891,0.30078,4.3023,6.8493,3.5064,10.1836,4.9616,-0.97884,
-1.3086,-3.293,-1.0842,1.6309,-15.4926,-6.7496,-3.1274,-2.1274,2.5979,5.4745,1.3678,8.1263,3.7,1.0081,
-4.8453,-3.8185,-0.77842,1.2921,-18.6606,-6.1034,-8.9651,-2.7229,-1.6551,9.2431,-3.2938,15.5922,-1.1015,2.6346,
-2.8676,-2.3844,-1.9368,-2.4008,-18.2641,-7.4247,-6.2582,-3.2826,-2.2789,5.5553,-0.92678,12.9697,0.65158,-4.0312,
6.9457,1.6153,0.10739,0.63551,-3.0683,-3.1226,0.38399,-0.67532,3.1602,1.8477,4.9132,3.9966,6.3973,-4.7534,
6.5287,-0.89196,-1.827,0.11521,7.1185,-2.4531,-3.0133,-1.5989,3.9347,-0.19155,2.6904,2.7927,4.085,-4.4684,
5.1733,3.9825,2.6212,1.0726,3.3171,-3.7519,-2.3503,-1.5027,1.2883,0.3021,1.083,9.3738,2.3939,0.13868,
1.2475,3.0202,-1.6335,2.2133,0.46701,-2.8039,-4.8608,-2.1359,-2.404,0.52495,-1.1512,10.0167,0.081109,2.7815,
-1.4791,-3.6687,-3.2229,3.7675,-4.6229,-4.3231,-4.8104,-1.2846,3.7656,2.6628,2.0507,6.2824,6.1016,-0.51869,
-1.3901,-2.0026,1.309,6.4338,-9.648,-5.9917,-3.5577,1.2028,4.5037,1.0566,3.3741,0.60259,8.1458,1.9223,
-3.2347,0.52794,-1.1799,4.1198,-9.0693,-5.15,-1.4158,-0.31541,3.2694,-2.863,1.2433,-3.2897,2.3547,3.2535,
-3.5228,-1.9141,-3.5195,-0.94789,-8.043,-8.2157,0.59758,-2.7068,6.9299,-1.2452,3.0971,-4.0564,1.7312,-8.5111,
-6.4449,-6.8605,-6.4413,-4.0245,-7.8014,-11.8201,-4.5,-3.2678,3.8625,1.4811,4.1161,-4.054,3.7965,-11.1339,
-7.0221,-7.4132,-3.1628,-4.7471,-9.2615,-11.5929,-1.8198,-8.3744,7.4871,5.7306,4.8335,1.9738,6.4612,-4.1989,
-6.3598,-6.727,-4.1778,-6.6312,-12.3212,-15.4766,-4.3617,-13.4151,2.9406,4.1819,-1.0002,4.9889,0.048009,-13.347,
1.7343,-0.53898,0.89331,1.4792,-2.4231,-8.7636,-2.654,-2.0051,-0.6101,4.8946,-2.3862,8.5457,-1.8833,-8.2081,
8.1385,0.69842,10.7219,5.9702,0.37403,-4.6222,3.0491,-0.19733,2.0778,1.9501,-2.0018,6.8279,-2.9754,3.6133,
8.614,4.031,12.4887,6.0937,-1.5771,-3.8629,2.3837,-3.5604,2.4351,-4.9158,0.046033,0.15124,-2.7968,-2.8705,
2.3126,-0.067279,6.9187,2.836,-6.3027,-8.4518,-1.6157,-7.2032,1.8071,-14.7438,1.9719,-13.8371,2.1917,-11.3754,
-0.95965,-0.30467,4.3344,4.8348,-10.9862,-7.7038,-2.2416,-7.0119,3.8678,-13.1363,3.0584,-13.7298,3.747,-2.7391,
2.4724,3.0881,4.0743,6.4729,-9.8451,-3.3851,-0.66133,-2.7348,5.0815,-7.0459,0.46481,-5.1932,-1.2981,-3.5386,
11.4831,0.49266,4.3118,3.1924,-1.0592,-3.664,0.34268,-2.5707,5.259,-3.7306,-0.045013,0.90294,-1.7022,-12.0034,
9.83,0.46333,-0.28501,1.0727,1.4147,-2.4796,-4.9803,-1.9343,3.0155,2.76,-0.52448,7.5974,0.81032,-4.0521,
-2.0882,-0.28806,-1.9554,-2.1251,-12.7702,-4.5007,-5.4046,-3.5057,1.1471,3.7994,-1.2161,7.3823,-1.4081,2.2163,
1.8937,-1.2344,0.090382,1.377,-20.8013,-7.6044,-1.2237,-0.40264,3.0067,2.1254,-0.17907,6.4577,0.60522,4.9761,
4.19,-1.6425,-3.2897,1.294,-14.7332,-7.1488,-3.0787,2.0314,4.2719,2.962,-1.1324,6.07,5.3889,5.6412,
-2.8099,-1.544,-2.128,-0.22948,-20.5977,-1.4168,-6.268,-0.98253,0.64159,2.7843,-2.0283,9.0807,2.1735,2.4106,
-0.95407,-0.72797,2.097,8.2204,-23.4592,2.2837,-8.5435,-1.6465,-2.048,8.6428,0.74445,21.7923,-5.9106,4.4352,
5.3699,-2.1308,-0.43916,10.1371,-13.8567,-5.5664,-9.9593,-3.4761,0.0028441,9.5707,-0.26432,21.4484,-7.0025,0.79482,
12.2783,3.7819,5.372,9.0467,0.47183,0.070034,-4.0588,1.071,-0.96142,4.1755,-2.1769,11.4846,-2.2438,1.2293,
10.8187,2.8321,8.1832,10.6735,2.6127,8.9839,-1.1642,1.2477,-7.4112,-1.6182,-2.2872,4.288,-5.2422,3.3247,
10.6518,2.6619,8.1739,10.9972,-5.7386,5.0706,2.7622,0.20875,0.26406,-2.0033,-0.22158,1.6204,-2.5177,3.125,
11.6997,8.5275,3.5859,10.5781,-11.42,1.1508,-0.055269,3.3295,4.3453,-0.67799,-1.8957,2.7282,1.7309,5.1069,
11.9616,5.6057,2.8888,9.9434,-17.0018,1.5636,-0.051953,3.6116,0.71063,0.80849,-0.33573,8.3491,5.001,4.3181,
7.1465,-1.2385,1.5102,7.1777,-26.8279,-1.6632,-2.6999,1.2258,0.90896,1.4833,-0.55656,9.053,2.5318,0.44357,
-0.27193,-1.405,-4.1234,5.5419,-24.9766,-3.2504,-9.5276,-0.052824,0.13129,2.5994,-6.0665,10.6797,-4.1273,5.4789,
3.36,-2.5257,-0.74271,1.1118,-13.1144,-3.2966,-2.4482,-1.2547,1.3285,1.2384,-0.6411,4.977,-2.1927,4.427,
4.6045,-1.892,0.26549,-4.2575,-16.1837,-4.0629,2.5192,-1.6616,3.6591,-1.7282,10.4844,-6.891,3.2413,-1.6234,
-5.3132,1.1136,-6.4989,-9.3045,-29.3127,-6.7116,-2.4527,-1.08,5.3678,-3.0708,10.3372,-7.4414,4.975,1.3665,
-12.707,-6.6663,-8.0374,-14.531,-33.7004,-10.6475,-6.6441,-1.9793,3.1173,-0.47618,-0.88807,0.7176,-1.5902,4.1768,
-8.0882,-6.2658,-5.145,-9.3206,-17.6986,-9.5262,-2.871,1.9959,1.4844,7.2652,-2.763,10.316,-3.905,2.4799,
-7.3619,-5.6489,-4.5949,-10.9305,-19.2883,-12.0882,0.43476,-3.6675,0.67202,0.32131,-0.90997,9.456,-2.4654,-2.7305,
1.275,-0.48972,0.98346,-8.3465,-11.864,-0.75757,-0.073261,-3.9294,0.14976,-1.6257,-2.3016,12.2631,-2.3174,5.6285,
6.2597,1.7093,3.5755,-6.1585,-3.1984,6.2778,-0.30983,2.3324,-0.58212,0.15907,-2.8864,4.0555,-1.4555,6.496,
1.5458,-0.80341,2.8791,-8.1991,-9.273,0.11651,3.0832,3.1563,1.8629,-1.7787,1.1431,-7.757,2.4887,-2.5708,
-0.71612,0.93157,1.501,-3.1279,-10.8858,2.2782,3.1392,3.2079,1.0283,0.014819,2.7618,-7.051,2.5799,-5.0681,
