"AF3","AF4","F3","F4","F7","F8","FC5","FC6","O1","O2","P7","P8","T7","T8",
-12.2923,-25.3077,6.5077,-18.5588,48.928,-1291.1745,-3.6152,-8.9178,4.0976,3.6152,-8.9178,18.0769,6.5077,8.9178,
-15.1702,-25.9586,2.0199,-22.025,43.3412,-1227.804,-2.1934,-11.5163,2.1645,6.5318,-5.2497,15.787,7.3221,5.2493,
-14.0188,-27.0522,0.69364,-23.3548,54.8407,-1168.2357,6.856,-13.9585,7.0961,9.2731,-0.35524,8.8144,9.0521,-2.5373,
-10.2851,-24.4648,3.5445,-23.8815,65.6503,-1084.0416,11.7477,-12.1567,10.5267,-0.92424,4.0049,-2.8017,12.8478,-4.3132,
-14.7297,-23.2378,-1.73,-22.6896,60.0245,-1004.8991,6.4634,-9.7403,3.8698,-5.4478,5.452,-1.4285,11.8357,1.4894,
-15.0512,-24.9773,-6.2058,-24.4617,57.6276,-930.5052,3.4238,-12.7715,-1.4243,0.90435,0.06299,8.5394,4.1359,3.569,
-4.5074,-16.73,-2.4592,-17.6916,66.2213,-860.5749,3.7005,-8.1486,0.58957,12.9014,-2.3511,22.127,0.51311,12.996,
-4.7191,-19.1006,-1.8295,-15.1838,49.7148,-794.8404,0.58619,-11.5163,1.5178,11.6452,-6.5486,24.5351,-1.4456,15.1086,
-9.497,-21.5698,-0.99658,-13.5497,32.6319,-733.0499,-0.65404,-11.0661,5.5243,9.7414,-2.0581,17.5196,1.7744,12.5151,
-15.1941,-19.7934,-4.7934,-16.5931,22.8405,-674.9669,-4.9533,-7.0279,6.6394,5.7827,4.3321,7.3091,4.5602,2.6049,
-14.0413,-16.9186,-0.89014,-18.7307,21.7112,-620.3689,0.4053,-6.365,12.2663,-0.59006,8.6517,-5.9036,13.2044,-6.9512,
-7.4142,-10.1189,3.9837,-13.2686,22.8189,-569.0468,8.094,-3.0908,14.905,-3.4469,12.4711,-17.6005,21.5714,-2.6779,
-3.595,-8.0658,7.601,-8.134,30.6087,-520.804,12.9109,-1.9414,12.5644,-6.1325,18.9536,-19.919,20.7589,0.37514,
-6.9946,-9.7507,5.94,-11.7432,30.9417,-475.4557,8.5212,-2.0658,6.7492,-3.5953,11.7907,-9.8057,8.6675,-1.8166,
-12.3595,-9.1659,-4.0574,-13.9309,20.89,-432.8284,-2.5954,-1.4599,4.8979,2.8874,-2.8965,-1.0227,5.2549,1.1849,
-8.0028,-9.821,-3.091,-12.8541,20.3595,-392.7587,-0.27053,-9.3263,10.6296,1.9908,-0.55352,-3.6124,13.8577,-2.984,
0.67256,-6.8216,4.8072,-6.2983,31.6714,-355.0932,3.1202,-8.2845,6.1355,-1.985,5.2647,-4.36,8.6879,-5.2151,
3.5243,-5.448,6.4474,1.3107,30.2535,-319.6876,4.8611,1.8535,3.3572,-5.2404,1.5744,-6.5085,2.3821,0.40044,
1.1437,-6.3264,5.8191,0.026524,18.074,-286.4063,6.7386,4.8758,8.217,-8.5414,0.75657,-11.1797,8.2647,2.5456,
-4.4686,-8.5982,0.89048,-7.4469,7.5893,-255.1219,-0.65533,3.3782,6.037,-8.2696,2.8806,-4.4831,7.0457,1.6697,
-7.3335,-15.0719,-3.7425,-11.5793,1.5906,-225.7146,-4.2317,-1.404,4.4697,-0.78383,1.5027,9.0425,0.59715,4.2208,
-2.7964,-11.0343,-3.2767,-8.2335,12.8231,-198.0718,-1.8084,-3.0072,2.5141,11.0731,-4.6133,19.8279,-1.1257,12.4035,
-3.3515,-8.685,-0.91096,-7.0164,4.1,-172.0874,-3.3871,-2.5858,0.67644,13.5422,-5.5418,19.8435,-0.81717,9.4901,
-11.5865,-16.1179,-2.5435,-6.8366,-10.246,-147.6622,-10.6557,-6.0461,-0.56944,10.0781,-0.62951,13.1088,-3.9016,-1.4436,
-9.686,-11.5354,-3.1138,-1.8466,4.4688,-124.7025,-5.919,-7.8525,-3.1868,9.7149,2.0594,2.9223,-2.4622,-1.598,
4.9951,-1.2023,3.8215,-4.6284,18.3006,-103.1203,8.5362,-8.8276,2.789,-3.8835,1.4539,-11.353,4.4339,-3.9122,
13.9747,2.0033,5.2794,-2.6634,31.3026,-82.8331,9.591,-5.6464,6.7194,-13.5324,-0.3206,-24.7719,4.8913,-5.8466,
9.0389,-2.2145,0.86528,3.5219,27.2553,-63.7631,2.9895,-2.1741,5.111,-5.731,0.42154,-9.5468,4.8388,-0.43461,
-0.66272,-10.2766,-0.15073,-6.3306,17.907,-45.8373,2.328,-9.7567,0.94771,-3.4587,-3.9423,-1.7433,0.20988,-0.40831,
-7.3716,-10.6241,-1.1058,-11.7351,15.8684,-28.9871,-1.1859,-8.6891,-1.0371,-1.8052,-8.0439,2.2179,-3.1769,-3.2761,
-11.5086,-6.8531,-1.2804,-6.4515,6.9626,-13.1479,3.465,-3.1063,9.3894,-0.0096484,-0.08942,-2.9769,8.3419,-4.7668,
-9.613,-4.7549,-1.9267,-3.8952,6.786,1.741,8.8005,-0.26885,15.3333,-1.2141,9.3157,-13.1624,13.8667,-0.86556,
-7.1081,-7.8441,-0.84701,-6.554,6.3786,15.7365,6.344,-1.2168,9.1109,-2.1054,7.7927,-13.337,5.8041,-2.2597,
-8.6098,-11.7118,3.0604,-6.1606,1.1754,28.8924,3.5535,-6.9284,7.1182,0.4313,-1.8337,-2.4134,0.63534,-10.319,
-10.0212,-9.0806,1.4305,-0.97022,2.0692,41.2588,0.4482,-6.0305,3.7991,11.0107,-5.0981,11.7112,1.5615,-5.3611,
-12.3124,-11.9103,-1.5476,-1.8763,-0.46527,52.8833,0.90301,-7.5969,1.6427,14.6882,-1.8999,11.4902,2.9139,-5.5216,
-11.8146,-11.9188,0.71443,-2.9688,-4.5347,63.8103,-1.8023,-8.8283,1.7851,9.2276,-3.9551,8.1497,2.4981,-6.3956,
-9.1773,-6.3829,-1.2566,-0.38033,-0.40624,74.0817,-4.5866,-3.4779,3.1243,11.0841,-4.1997,11.0352,3.3125,6.5216,
-12.4833,-12.7489,-9.3762,-6.6243,-5.6847,83.7368,-3.3474,-8.5721,1.9727,7.5267,-2.9837,4.1063,-0.74284,2.2737,
-8.3599,-6.6813,-5.9211,-2.8523,-3.415,92.8126,2.1561,-3.7192,6.6746,6.1113,2.0156,2.8956,3.1581,-5.0931,
-3.5199,-0.97799,1.1826,0.21109,3.5383,101.3438,3.955,0.84249,9.6486,1.4058,3.8229,-5.4728,9.7171,-5.7518,
-2.3444,-2.8473,1.5938,-1.7298,10.5571,109.3632,0.82537,-2.5823,2.321,-2.5347,-2.1908,-9.0006,5.2779,-0.58624,
-0.034823,-2.4357,-3.0813,-0.90308,15.4671,116.9014,1.0166,-5.0789,-1.4339,1.2326,-6.157,1.9031,2.7918,2.1003,
6.9574,-0.11994,1.6831,3.2487,13.334,123.9873,7.4638,-3.0867,5.1603,4.7743,-3.1362,6.8508,5.2756,-2.6053,
4.1291,-2.0414,-0.82825,3.5357,10.6055,130.6481,-1.6614,-2.4198,-2.3804,-1.297,-9.2148,2.5831,-5.164,-0.038597,
2.4356,-2.4008,0.6677,3.3236,3.2207,136.9092,-2.5256,-0.34642,0.65494,-6.5218,-6.7337,-3.3564,0.9304,8.1584,
1.5663,-1.5337,4.725,-0.49105,-9.265,142.7946,6.0621,-0.56637,9.0513,-8.2997,2.5884,-9.6625,11.7208,1.6434,
-6.2405,-2.8879,1.067,-1.9078,-14.0118,148.327,5.6979,-3.4249,3.2056,-5.8735,0.9868,-3.7806,3.3048,-0.86536,
-5.1431,-4.4016,1.2442,-2.9987,-4.2532,153.5273,6.0792,-3.9423,-1.0839,-7.2086,-2.2057,3.4359,-2.4373,7.1401,
3.6016,-0.52211,-0.035731,-5.9518,10.102,158.4157,5.9558,-2.0186,-5.1162,-5.0884,-0.86803,3.4712,-0.6034,10.3276,
4.8315,-2.4192,-2.9259,-8.0053,23.5959,163.0108,7.5265,-4.79,-4.3275,-1.4088,-3.2263,2.2983,-1.5317,2.9588,
1.8905,-5.4071,-1.0631,-3.4274,17.1191,167.3301,10.2083,-3.7794,-0.45245,-3.0115,-8.0944,4.812,-5.0548,1.0945,
-4.2487,-3.8776,-2.2044,2.3219,4.7635,171.3903,4.5344,0.54492,-6.9326,-1.6258,-10.2596,11.031,-7.8848,8.9823,
-10.9836,-6.7784,-4.2415,-2.8791,0.38014,175.2069,3.5387,-3.1034,-7.7221,0.64116,-6.5112,9.646,-5.7247,9.1665,
-13.2169,-8.2999,-5.433,-4.1524,-6.3913,175.6612,2.8447,-4.8452,-2.9202,0.12053,-2.2639,3.7648,-5.8634,4.7599,
-14.1109,-8.0429,-3.9018,-0.76998,-12.0334,178.3779,3.3969,-7.2058,0.87039,-3.0202,1.0054,-2.4866,-2.8605,-0.58692,
-11.818,-6.596,-2.2216,-3.1337,-12.7574,176.3524,8.9779,-9.6655,3.2285,-1.3925,2.3911,-6.194,4.0603,0.41239,
-7.9756,-2.585,-6.6676,-4.151,-4.0382,176.6172,8.6802,-1.614,1.3476,0.37783,0.5604,-4.1352,4.0576,7.3775,
-1.7125,-0.9839,-4.8218,-1.0096,7.2913,179.5176,11.5339,2.8212,6.087,-3.5012,3.4193,-4.369,3.3318,7.4168,
1.7647,1.0036,-3.5681,0.015069,14.5666,178.3877,11.3238,0.72393,3.794,-2.3268,0.32162,-1.2148,0.72175,3.5973,
2.6227,5.7636,-2.8723,4.3525,20.4413,175.397,11.126,5.0186,-0.29023,1.187,-3.0719,6.0887,-0.76758,5.7919,
2.4655,3.4896,0.19252,7.4658,19.2148,166.8016,9.9765,3.2717,-0.27281,-1.2943,-3.37,8.6159,-1.6859,4.962,
-3.2262,2.5573,-2.9523,4.3665,8.1797,162.819,3.8346,3.7985,-0.49764,1.4346,-2.9266,8.3401,0.10275,0.085181,
-10.7454,-0.97058,-6.1496,-3.1261,-6.4111,153.5321,5.5327,2.1243,4.8349,4.723,1.1054,0.12696,6.845,-5.2226,
-19.0185,-7.4201,-11.324,-7.518,-18.198,144.0792,0.62121,-6.439,-2.4449,0.34205,-1.6123,-2.532,-1.0372,-0.81164,
-22.216,-2.6363,-9.6807,-1.7645,-6.0193,149.5344,-0.86232,-2.6785,-2.7806,-0.1604,-1.5155,1.4763,-0.97501,6.4674,
-23.0522,2.1014,-4.5201,0.028563,-1.0784,154.6621,6.1793,1.0977,5.8224,-1.3561,-0.21929,-3.6739,6.5553,1.0182,
-25.0437,3.9033,-5.6954,-0.45531,0.43232,149.7207,7.7365,3.9239,5.4728,0.65326,0.75796,-4.4176,8.0899,1.4388,
-25.9512,2.2228,-4.3893,-1.3921,-2.0037,140.7375,6.3084,2.7243,5.6264,1.5784,2.6407,-6.0807,9.5327,3.2807,
-20.7787,0.40245,-0.028862,0.86059,0.28541,139.2831,3.7605,-2.5006,0.70975,-0.20377,-0.16909,-3.0646,4.8632,2.8431,
-18.8089,-0.82676,-5.5703,1.0502,-0.93655,140.3263,-0.56244,-5.4838,-5.8408,0.04988,-1.8462,6.0374,-1.4541,1.9491,
-21.5365,-3.1873,-7.6462,-2.3871,-14.8596,130.9427,-2.9388,-5.1545,-3.0797,0.52882,-2.2173,5.1932,-0.8845,-0.57794,
-21.2086,-1.0679,-4.2954,0.16627,-14.4505,130.7989,-4.2088,0.45714,-4.3412,2.9072,-4.4944,8.7375,-0.83143,5.2413,
-24.7568,-3.4141,-6.9302,-2.2541,-14.5473,131.6276,-2.51,-2.4628,-4.5631,2.2509,-3.7428,9.1776,-1.2639,5.4088,
-33.1534,-9.717,-12.0577,-9.1085,-27.7745,121.5608,-8.3851,-7.8584,-1.1556,0.4288,-1.8313,2.6012,-0.46497,-2.8693,
-31.6459,-7.2056,-7.9598,-2.2952,-34.9056,116.6777,-10.2922,-2.0843,-0.60436,5.2238,-0.27512,8.7121,0.52725,-2.2152,
-26.3729,-8.7016,-6.036,-0.2293,-31.365,116.4257,-7.2645,-3.8874,-3.9426,4.428,-2.6687,12.0457,-6.2533,0.32786,
-22.1394,-4.0822,-4.9511,5.3278,-23.4578,122.6963,-9.48,-0.03897,-2.9829,7.7775,0.14271,13.4919,-6.6012,9.226,
-21.7752,-2.8732,-1.7616,8.8646,-27.8349,113.8885,-10.8394,-0.51856,-0.39377,7.3108,2.0623,11.7185,-0.9025,2.8879,
-19.2636,-3.9061,-0.93296,7.6098,-31.2265,111.1526,-8.9837,-6.5132,-0.12918,6.6312,0.73331,10.774,-2.0536,-1.8647,
-15.9384,2.8362,-1.5999,13.1787,-27.1833,118.5834,-10.6138,-0.096657,0.60193,12.7413,2.8585,15.6716,-4.0996,12.3472,
-19.8026,-0.70839,-1.9861,9.9777,-38.5675,118.8197,-9.0129,1.3552,2.4938,8.1202,1.7229,12.321,-0.47893,9.3167,
-16.9272,-2.3529,-0.66182,4.3176,-39.8691,111.9315,-4.375,0.55096,4.5135,9.8024,1.8607,13.2687,4.1293,-0.6425,
-15.6706,-1.4886,-3.7551,0.92524,-29.0408,108.8313,-7.2455,-0.20523,2.5555,9.4552,0.54375,12.714,1.23,2.5295,
-14.7303,1.9752,-3.0477,4.7261,-21.514,110.9783,-7.293,3.1818,0.95614,3.1035,0.99329,10.5047,-0.28982,4.7881,
-13.3646,4.7487,-1.4192,8.2987,-22.6335,116.8526,-5.8913,4.4364,1.8629,4.3629,-0.030403,4.5715,1.6555,4.0187,
-13.5268,-3.7311,-3.744,0.57017,-27.0598,106.9494,-4.5737,-3.5423,4.1615,3.6194,-0.99268,-8.7179,1.0745,1.3672,
-9.8229,-5.4355,-6.4119,-1.8742,-18.2054,102.4606,-4.2993,-1.8837,0.05538,4.8485,-0.93312,2.8924,-2.8464,5.6235,
-7.3051,-2.2168,-9.4014,-1.7617,-11.3287,110.413,-3.5592,0.63988,-1.8764,8.4138,-1.3593,16.8188,-3.6397,7.6964,
-6.3849,-3.5301,-9.8012,-2.1382,-13.5411,115.2369,-4.7919,-2.291,2.0926,10.3195,0.16853,17.1355,-3.4213,4.8245,
-7.6888,-1.1489,-10.4184,0.64167,-10.0773,113.3843,-7.1557,0.49776,0.76198,14.7618,2.8097,22.1331,-3.4572,8.1507,
-12.7713,-2.2852,-11.4805,-4.4585,-12.1242,111.6427,-5.5211,-2.6656,1.4392,12.6708,1.4359,24.4205,-2.5269,9.8308,
-8.1486,-0.70185,-8.8635,-3.7091,-9.4683,115.0673,-4.2257,-0.095305,1.353,10.4645,0.38561,23.9194,-4.3032,12.1333,
-1.393,0.78629,-7.8497,-0.1123,-6.972,112.5016,-4.9365,5.2131,-0.1744,8.8723,1.3268,17.1816,-4.045,10.4409,
-3.7195,0.73934,-5.9325,-2.5155,-12.8202,103.3414,-3.676,2.0082,3.6925,3.5197,0.28287,2.0507,0.53599,4.9942,
-2.7734,6.7205,-3.4074,1.2507,-1.205,109.9151,-0.32216,5.5029,2.2658,3.0673,-2.8674,2.771,1.227,11.2023,
2.2134,1.4966,-1.2747,4.5498,5.1336,115.8535,0.66127,4.2082,-2.6906,4.3293,-3.6594,5.979,1.1531,8.6017,
4.732,-0.76237,1.9352,5.9641,-2.1638,113.4818,-1.5476,1.3046,-0.36,7.2031,-1.2707,4.8974,3.2531,3.0239,
1.3148,5.3091,1.5781,3.9192,-4.6856,105.4678,-0.73181,1.4675,2.7951,3.6374,-1.9173,-0.45816,3.2993,0.19141,
0.030835,3.3034,0.27816,-2.8236,-3.6811,96.9706,2.9275,-3.2,1.4221,-6.9447,-4.9358,-12.7227,0.44981,-6.328,
4.1263,3.3461,0.020275,-0.0031158,-0.80887,103.4446,1.0649,-0.83889,-2.2784,-2.9128,-3.4346,-10.2724,0.18209,-2.3327,
6.0479,3.8685,2.1887,4.0947,-9.6784,102.7816,-1.1682,1.8628,0.99131,1.8417,-1.0593,-6.0406,2.3403,-2.4337,
8.0954,4.1183,4.4675,1.9208,-9.0977,96.6147,0.34771,0.30474,3.8243,-2.1252,-2.4416,-8.5702,1.718,-6.1441,
7.6094,2.9071,0.34305,0.35927,1.0891,99.4944,1.7731,1.2506,2.1486,0.41242,-3.7414,-6.1283,0.65056,-2.4014,
3.0558,-0.88249,-3.7749,-2.7953,-8.8579,96.6585,2.3898,2.3808,0.81465,-2.2636,-4.24,-6.4833,0.37079,-3.4619,
3.1134,5.196,-0.8973,-0.45843,-19.1729,98.8127,1.0414,8.2637,0.52503,-2.851,-1.3343,-3.9249,2.0355,-0.60336,
0.034055,1.0276,-2.2897,-2.8415,-18.0226,95.776,-0.94928,1.0188,-0.95319,-4.1262,-0.77229,-3.6898,0.94908,-5.3879,
0.99634,-0.48006,-1.1882,-1.2248,-6.8181,90.5116,-0.41016,-4.3448,-0.41383,-6.2885,-1.2081,-4.4325,-0.071958,-7.4745,
5.9982,6.0567,2.0168,7.2849,-0.38322,92.5529,1.3014,3.8701,-3.0399,-6.1524,-2.8226,-6.8175,-0.79031,1.4099,
9.9767,1.8369,4.7878,8.294,-1.3241,93.7484,3.1516,4.6018,-3.8218,-3.855,-5.0634,-3.5163,-4.5993,3.2535,
12.5111,3.4134,5.2237,9.9653,1.4062,98.4874,1.7574,4.5664,-3.8337,4.3298,-3.0726,8.505,-2.6363,4.2633,
11.2785,7.5472,2.0177,10.8137,-0.12441,97.3986,0.20569,3.8105,-2.6393,1.6599,-1.442,6.5484,1.3782,2.5613,
11.8071,5.8893,4.5482,8.9595,7.8368,94.6882,1.8806,0.44884,-2.24,-0.12696,-3.0427,3.022,-3.2842,2.6486,
10.1343,6.0179,4.7573,5.0475,10.2591,89.9708,1.7677,2.3496,-5.4801,2.7732,-3.8245,3.805,-5.4973,5.3822,
4.7058,5.1749,3.0256,3.7808,-4.4564,83.6087,1.1797,0.76286,-5.1513,-1.7315,-2.1487,-1.7259,1.0991,2.1667,
9.003,7.9976,4.0491,13.918,-13.4686,92.6922,-1.0604,5.2966,-3.6371,2.4695,-3.2249,2.9572,0.31,10.4726,
13.0423,6.3127,5.0114,15.2521,-10.9732,101.2306,-3.166,7.6299,-1.2497,5.9367,-6.6468,8.8053,-4.7698,16.8341,
16.1164,5.9339,13.8698,13.8551,-23.3303,109.2568,-2.4941,9.1003,4.1279,10.4012,-1.9092,18.8823,1.3009,21.6087,
16.3545,6.301,12.7966,13.7467,-21.6895,111.7399,-2.1035,10.2415,3.6393,9.0543,-1.5537,17.9903,0.98193,20.5531,
15.6142,6.1639,11.7879,13.1628,-20.6291,110.097,-2.2182,11.3142,2.2161,7.7877,-1.2195,16.6699,0.20011,19.079,
15.4002,6.0351,10.3575,12.1319,-19.6325,108.0705,-1.8439,11.8405,1.3595,6.1153,-1.3875,15.9104,-0.53549,17.693,
14.7172,5.4318,9.0129,11.1632,-19.1777,105.6836,-2.4564,11.8532,-0.40906,4.5433,-2.0274,14.2327,-1.7084,15.9083,
14.3163,5.1061,7.5078,10.4934,-18.509,103.6813,-2.791,12.1063,-1.3484,2.8245,-2.3877,12.8968,-2.0878,14.4719,
13.2163,5.0407,5.8523,10.1046,-18.6035,102.5219,-2.8647,12.585,-2.9549,0.96756,-2.0037,11.8823,-3.6496,13.3624,
7.6031,6.1845,6.4652,7.5703,-19.4153,99.2631,1.1638,9.9015,8.3098,1.8741,6.7939,5.3845,4.2824,9.6688,
11.4852,8.7057,8.0055,5.6698,-15.8402,101.502,-1.7986,6.4153,7.3288,5.1356,4.458,2.1694,2.0968,5.7142,
16.5807,5.2911,5.5972,6.2942,-5.2486,97.8223,-4.5829,9.4046,-5.1618,4.8277,-1.5943,5.4134,-6.7054,5.3716,
17.7553,2.3225,4.0561,4.2293,3.0201,89.3016,-0.69254,4.743,-8.9494,4.779,-4.6316,7.2578,-10.8828,10.5929,
18.3769,9.6548,2.6077,6.6264,5.9721,89.9688,-1.3741,3.7353,-4.3153,15.3383,-0.739,18.6322,-6.6147,17.4285,
13.8999,8.1114,-0.44109,1.8908,-4.0274,82.1608,-3.702,4.9572,1.246,18.7566,5.5725,24.2634,-0.91492,9.1521,
16.4403,9.0707,-0.89679,-1.5974,-6.6781,81.0875,-3.4797,6.1058,1.6534,15.7032,5.238,19.4334,-0.86025,6.1931,
20.2746,14.3115,1.0852,0.42712,0.47153,87.3095,-2.789,6.7038,1.5542,9.4584,0.10343,9.1084,-0.80864,12.088,
16.6476,8.1497,2.9483,-4.4192,-3.4131,78.2143,-1.1754,2.9271,0.49664,-4.1246,0.096762,-1.5615,-1.2421,5.5782,
11.0692,4.0456,0.602,-6.3235,-4.8958,78.101,-2.3099,5.8847,-4.5946,-5.0822,-0.14978,-2.1909,-4.7832,1.1459,
6.0667,5.731,0.08395,-3.5339,-6.0479,79.1995,-2.1713,5.5316,-1.4264,1.4893,-3.9972,-3.0234,-2.0856,1.5591,
10.2825,11.8951,5.1406,3.668,-3.9978,62.6374,-3.2463,5.9231,0.82833,2.6052,-2.5521,2.7017,1.1726,3.1528,
14.0038,6.8426,3.3859,2.966,-5.6861,44.7792,-7.3899,7.4959,-7.4161,1.0027,-2.8813,5.914,-4.2,4.8918,
15.0913,3.5395,4.629,-0.58644,-10.1656,37.8741,-1.1624,5.5999,-0.7046,1.9064,-1.7446,-4.0823,-0.092053,4.1164,
12.2584,10.0763,4.8334,4.7516,-8.1097,47.1713,1.3182,3.3359,4.6406,-0.13599,-0.67535,-10.1036,3.2882,-1.915,
8.3891,5.3741,6.7124,8.0817,-11.2383,43.6179,-0.44834,1.9303,1.7103,-6.6355,1.0522,-14.0769,4.2959,-9.2721,
10.0552,-2.9021,9.4433,6.3917,-10.3228,39.7957,-1.6265,3.9838,0.40311,-5.9962,0.26637,-16.8475,3.7974,-7.5103,
7.0413,1.1282,3.0919,3.5979,-5.3653,46.5668,-2.493,2.7807,-1.0676,0.62985,0.73209,-10.0523,1.6412,-2.7216,
2.5217,6.1222,3.6295,4.1051,-8.6586,52.6909,2.2361,-2.9295,1.6478,0.83325,5.2677,-6.7978,2.7478,-1.8351,
5.2624,7.2011,8.232,6.269,-8.6215,53.3858,0.17373,1.5846,-4.7176,-1.1449,2.0591,-7.8362,-0.79156,4.5415,
8.5623,2.6717,7.0152,6.6157,-5.4526,52.8337,-1.5239,2.2124,-9.4962,-5.6555,-4.09,-11.9453,-6.7696,0.65358,
5.3973,-4.4782,2.0148,1.6397,-4.4024,60.9921,-0.22743,-8.2844,-9.1676,-10.86,-6.9778,-14.3619,-10.943,-13.4856,
1.458,0.36998,0.68882,0.81821,-2.9331,71.4326,0.99128,-5.618,-5.4838,-4.1827,-0.5334,-2.1722,-3.7787,-4.843,
1.8525,2.2757,3.54,2.2149,-10.9519,78.3544,6.7164,3.3957,0.62977,1.3709,2.8731,3.7427,3.6789,7.0167,
0.77723,-1.7174,1.8811,2.5642,-12.2232,78.4734,6.7956,4.6385,-3.2646,-3.5323,-5.4943,-3.7124,-2.3266,-0.15295,
0.24866,-2.0963,0.80415,4.8207,-1.8486,80.5139,8.3163,2.4317,-0.6584,-8.1403,-7.093,-11.6846,-2.1868,-10.2669,
-1.4535,-1.2474,-0.93109,2.3621,-0.050676,75.4421,9.9862,-0.84742,2.9963,-8.8574,-4.0161,-11.2248,0.59571,-5.5533,
-3.7766,-0.20822,-5.6959,0.77408,-2.4578,83.9307,6.495,4.988,-3.9319,-3.0233,-5.7034,-1.3922,-3.2964,8.2772,
-6.2014,-3.8114,-6.0773,-0.95936,-3.0334,85.4026,7.7923,5.4119,-6.3473,0.7737,-7.0481,1.8246,-4.3042,4.165,
-5.1061,-1.4135,-7.3999,-2.589,3.1741,74.2529,10.4582,-0.9384,-4.7617,5.7885,-7.3486,6.2948,-2.3587,0.3001,
0.50287,-0.3644,-8.8836,-3.3976,11.6608,71.7261,10.7951,-2.3284,-3.5116,7.3698,-5.4614,7.8453,-1.7348,4.6204,
4.0881,-3.9582,-3.7716,-3.9168,11.2019,71.0378,9.9062,-1.9475,-2.0959,-2.4726,-2.9644,0.38451,-3.3181,-0.23633,
2.3968,-0.34601,-5.9556,1.1387,9.0837,66.2933,6.9014,1.5436,-6.7906,-5.6989,-7.1251,-2.5309,-5.047,-3.5964,
2.7347,0.63839,-8.0086,-0.37615,9.0209,59.9054,10.8254,2.4151,-7.3473,-4.8748,-8.144,-7.1995,-0.88803,-4.8271,
3.2937,-2.5332,-4.8768,-5.415,10.6485,58.4804,9.9352,1.5471,-6.1833,-5.7874,-6.9323,-11.347,-1.0759,-2.85,
0.44503,-2.6219,-6.2707,-4.3665,7.8407,59.5514,7.6521,0.24917,-4.6072,-0.86017,-8.2029,-7.0506,-3.1803,-0.027675,
-1.5099,-3.4287,-5.4128,-4.1052,4.9599,53.0855,10.0848,-2.6581,-0.95658,-1.2912,-11.5678,-6.6278,-2.0254,-8.2209,
1.4728,-2.2591,-3.1598,-4.8228,14.7852,50.3826,7.0696,-0.57039,-3.3093,-7.9622,-13.2838,-12.0147,-2.8682,-15.9229,
4.7591,-1.1595,-0.55988,-5.4975,14.3803,52.6623,10.0201,-1.9827,-1.1828,-8.9309,-9.1121,-12.2579,-2.6959,-7.7364,
4.4736,-0.60751,-0.52629,-0.82889,8.2153,54.8052,11.829,-0.89937,0.81683,-0.19989,-6.1553,1.493,-3.0161,1.8868,
1.5538,0.15207,-2.1817,1.3898,15.1939,49.8296,6.0578,1.324,-3.3298,2.4634,-10.3655,2.6089,-5.0045,-2.324,
2.9066,-1.3035,1.3234,-2.0678,6.0873,45.8758,5.6941,-3.5759,-3.6121,-3.4692,-13.1178,-8.635,-3.7401,-4.5949,
8.758,1.426,1.9671,3.1177,3.0708,54.9333,9.45,-0.22813,-4.1185,-0.60972,-10.1618,-3.0555,-3.2745,2.6704,
17.6325,5.9197,1.6077,4.1359,16.9865,57.181,14.4267,1.9547,-4.1124,-8.5269,-11.2393,-8.8977,-4.7653,-7.8537,
30.6746,14.2421,10.6707,5.334,30.0673,58.0889,20.31,0.39163,-4.3476,-17.1743,-13.9389,-22.4638,-3.0331,-16.5415,
42.9341,19.6536,16.297,10.7981,42.3633,65.6903,22.9473,0.36768,-7.4612,-16.1438,-14.5491,-26.7803,-6.2256,-16.0309,
54.458,20.4028,15.3189,11.1143,53.9215,67.0518,28.3196,0.34585,-8.4595,-18.0675,-16.0863,-31.4403,-6.8161,-18.9257,
61.4342,26.4097,14.4,9.9658,64.7862,62.5465,28.0664,1.7711,-13.7368,-18.9114,-19.4594,-36.7845,-6.4074,-20.2,
64.9785,29.6454,19.3206,14.6705,74.999,61.2038,27.8287,3.5931,-10.5024,-15.3666,-17.328,-34.5774,-5.0586,-22.8449,
61.5622,27.3847,15.2693,13.3083,84.5991,64.2805,25.1951,3.3775,-8.908,-14.9265,-19.1804,-33.4666,-8.6115,-29.6684,
56.1812,28.3928,6.399,6.4838,93.6232,66.9312,21.0319,2.4519,-11.507,-16.2006,-21.163,-28.3256,-7.8538,-24.2734,
49.6769,23.0738,10.1124,3.4437,102.1058,62.1924,22.9034,-0.82868,-7.2011,-17.8796,-14.3496,-23.4926,-3.2853,-24.5042,
45.9734,20.9664,12.6391,5.8881,110.0794,67.8608,23.2165,2.3545,-8.4558,-15.6016,-13.2475,-21.842,-6.7036,-22.3106,
40.5636,18.0215,3.9268,1.9197,117.5747,69.3326,20.136,0.5258,-13.0104,-16.3529,-18.9603,-28.485,-5.5782,-10.1259,
31.8633,9.7093,1.2811,-3.0162,124.6202,58.9061,15.0715,-9.1467,-11.2655,-15.8537,-18.787,-27.2583,-4.7616,-8.5545,
24.8898,10.3316,6.7478,2.7084,104.1278,64.2898,14.4081,-2.5724,-5.0459,-7.9126,-9.7058,-11.5228,-2.7887,-11.1743,
16.648,7.3016,7.3073,3.9921,84.3828,64.7712,17.8824,0.95689,-0.88677,-8.8841,-6.7131,-12.157,1.2355,-16.7703,
12.5152,4.6943,3.7349,5.4398,67.5092,57.751,13.1936,-0.30628,-2.0389,-9.5563,-9.4438,-11.6686,0.43801,-12.6311,
7.9081,3.4486,2.0648,2.2211,49.3586,54.7681,6.1357,0.67665,-0.95243,-5.6083,-8.8772,-6.6299,1.8578,-7.5347,
3.336,2.0366,5.5565,-2.9736,32.2971,51.7232,7.4546,-0.087074,1.2741,-3.1028,-8.1036,-8.8834,5.3615,-9.252,
-3.1306,1.9144,0.40243,1.0612,17.8258,47.1735,5.561,1.8463,-2.6587,-1.9523,-13.8839,-9.7967,2.1477,-6.7687,
-9.6915,-3.021,-2.9959,1.4797,2.6563,43.379,3.2994,-0.67479,-2.017,-2.3174,-13.5328,-5.8342,-0.39148,-1.542,
-13.9305,-7.6602,-4.7442,-3.4296,-6.059,42.7047,-2.6829,-4.4905,-3.8244,-0.2499,-10.3105,2.2284,-1.814,2.4071,
-15.7457,-7.9239,-7.593,-2.5009,-13.6497,39.4191,-5.6554,-3.4981,-4.3179,5.3082,-9.4511,9.5665,-0.98228,1.5398,
-16.4882,-11.0639,-8.8246,-5.9662,-23.1946,34.8848,-4.5932,-6.9037,-0.92577,3.7849,-9.6069,10.1978,-2.1282,-2.65,
-12.6069,-6.0618,-3.4749,-3.6801,-16.0183,43.8789,-2.8713,-2.1511,0.094099,4.0398,-3.2462,10.0679,-2.9648,2.8112,
-12.8143,-7.6262,-2.3021,-2.4954,-22.77,39.7999,-1.2533,-1.5401,-0.39394,-0.54095,-2.0873,1.2686,-3.2689,-1.6958,
-15.6609,-9.3378,-5.2974,-2.1043,-35.5038,31.8683,-4.3111,-2.6526,-0.12888,2.1426,-1.2389,0.95155,1.0246,1.0571,
-26.7726,-11.1875,-11.2459,-6.7985,-46.5095,26.582,-12.2474,-8.2782,-0.12137,3.9425,-3.0926,0.89469,1.4453,0.51193,
-28.0585,-8.5882,-5.2687,-3.9807,-48.5394,25.4692,-5.2458,-4.8892,10.009,3.7057,-1.461,-0.12309,5.6971,-6.7499,
-28.062,-8.3137,-4.7114,-2.0544,-48.7603,23.6999,-6.1361,-0.49829,3.3832,3.7245,-6.4348,-0.83883,0.7758,-5.6217,
-24.4503,-6.3688,-0.57255,2.4074,-46.7988,26.6164,-5.7682,-1.9144,-0.1945,8.3216,-4.6027,-0.78828,1.6933,2.4286,
-25.3936,-6.4689,-1.5023,0.33456,-51.2219,26.9474,-7.8324,-8.0668,0.78127,3.4837,-4.8087,-3.1518,-0.81861,-3.5019,
-24.5931,-4.3935,-4.5456,1.0374,-50.3178,37.6231,-6.1572,-3.003,7.2419,2.0694,0.059377,-0.31113,2.8459,-5.461,
-23.5993,-7.9861,-3.7907,0.49344,-54.5293,40.1862,-2.8955,2.48,12.1102,5.8018,4.8765,-3.6667,7.0137,-2.241,
-21.4606,-6.3023,-5.7327,-0.25976,-55.3551,33.6774,-5.855,4.0182,9.6962,10.0333,5.3068,-3.6879,4.4235,0.54474,
-20.173,-3.996,-6.3526,-3.1362,-54.4439,26.3541,-6.468,-0.56163,9.1144,5.0925,4.0243,0.38978,4.1581,-5.2725,
-19.4443,-7.1302,-3.0789,-0.055537,-50.6954,28.1473,-8.972,-2.4557,1.3372,1.4129,-1.5195,3.2589,0.53416,-6.4024,
-17.3138,-5.7385,-3.8585,3.8042,-43.3153,33.2074,-12.7725,2.5119,-5.9739,1.3282,-5.285,2.099,-2.39,1.6945,
-14.3468,-1.0554,-2.1807,0.20148,-42.6446,28.8048,-7.1854,1.8793,2.0973,-1.1617,-0.62934,-2.8471,4.02,5.4492,
-18.065,-4.1254,-6.6294,-6.3183,-43.2192,25.8715,-11.8157,-2.813,0.28446,-4.2252,-4.2068,0.45694,0.16357,1.5071,
-19.3915,-10.6265,-8.642,-7.3853,-35.3232,29.1397,-14.481,-3.6083,-3.5892,-0.59748,-5.4006,8.1425,-3.7029,-0.51178,
-15.3359,-10.4713,-4.2671,-5.0139,-27.9016,30.2834,-11.202,-4.3557,-4.3382,0.88463,-1.2202,9.0998,-2.5164,1.4471,
-10.5594,-3.5765,-2.5648,-0.85672,-24.7812,30.8765,-7.6378,-1.2023,-5.5237,1.7954,-0.66506,10.9644,-0.91958,6.181,
-11.3719,-6.2542,-3.8574,-3.2157,-28.5972,18.9008,-4.7692,-3.0586,0.11013,-4.579,-1.5892,-1.2629,0.58163,-2.8672,
-7.3153,0.86971,-1.2156,2.2797,-23.0248,23.0696,2.7476,4.356,10.7086,0.034244,9.1112,-8.9001,9.706,-2.6949,
-12.42,2.9869,-7.6504,0.45591,-26.7047,30.6033,1.3776,0.9614,6.9328,2.2016,10.7339,-7.643,9.3648,3.0106,
-15.2902,-3.6998,-10.3244,-7.0433,-33.0562,26.116,-5.6944,-7.5324,0.97323,-1.5459,3.5821,2.2156,0.84874,6.4454,
-10.9981,-6.3703,-11.1512,-5.1744,-29.1446,22.6208,-10.1735,-3.2241,-2.4596,3.8495,2.4031,13.6523,-3.0581,5.0943,
-10.0973,-8.6392,-12.1693,-4.141,-28.6012,22.4684,-6.4296,-1.3434,0.33906,7.2335,4.91,12.1098,1.7047,-5.0932,
-10.4555,-5.2285,-9.0288,-2.4465,-29.7775,24.4945,-5.0797,-1.745,1.7652,5.3534,3.1694,11.383,2.0841,-1.4134,
-11.7566,-5.3972,-2.2206,-0.85349,-26.5446,21.579,-5.7393,-3.5685,0.21303,3.586,1.533,10.7,-1.415,3.0097,
-13.4616,-8.9295,1.2869,-2.2483,-23.9878,16.9096,-5.3947,-7.2105,-0.76385,2.8891,0.95906,6.2018,-1.8122,-3.4376,
-10.9667,-2.3682,-0.47756,0.53768,-22.7895,23.8492,-5.7944,-1.7167,-0.47705,5.3668,4.5169,12.3372,0.46567,5.2048,
-8.3802,-4.6363,-2.3771,-1.9047,-20.9402,24.8284,-3.5185,-5.952,0.51544,-4.5961,8.5842,7.7406,-1.4905,6.3387,
-1.1288,-3.8759,0.17634,1.5843,-5.5838,29.6055,1.0312,-8.9691,0.48474,-8.6589,10.4795,-1.8826,-1.4008,-0.79027,
-0.5791,3.5875,0.64769,6.7914,6.1999,30.2393,2.4156,-5.0565,3.3482,-4.7649,8.405,-6.108,0.61144,-0.26092,
-10.1855,-1.9307,-1.8015,3.9736,-8.2721,18.7837,-2.5499,-5.2353,2.6651,-3.5149,-0.29472,-5.7418,-3.2819,-0.24549,
-8.8513,-3.0199,-3.3809,5.9045,-16.0912,20.7904,-6.0125,-1.306,-4.0025,5.6138,-1.964,7.377,-4.29,1.9386,
-0.12481,-0.42833,-1.7315,3.6223,-14.6435,24.8454,-4.6872,0.21889,-4.7264,10.0979,1.0463,18.0218,-1.1403,1.3406,
0.12342,-1.6082,-2.8332,-2.1389,-14.97,23.1135,-7.5397,-2.446,-3.2378,7.3222,1.2245,23.9301,-2.277,5.3573,
-11.4534,-7.7782,-9.4116,-11.6515,-8.7691,20.7628,-9.4974,-6.1552,-3.5255,-0.82992,1.151,12.8534,-3.5866,4.072,
-12.4532,-7.0703,-6.6775,-15.5319,-8.9661,20.7221,-1.4556,-7.4733,3.1938,-6.3235,8.0716,-2.0178,1.2081,-0.75185,
-0.85995,4.2,0.23082,-3.2716,-7.2231,26.9508,-1.1275,-0.034835,6.1354,-3.7747,9.2746,-9.4893,4.7513,4.3547,
6.9046,8.7687,5.0372,4.637,-6.3078,25.3333,0.86835,5.2694,7.2135,-3.0663,5.3436,-9.4019,8.8045,3.611,
11.0697,8.9655,6.4222,3.1535,-11.9548,25.5005,2.9854,7.6044,5.093,-2.6413,3.3356,-11.9712,7.0709,-1.1849,
11.8515,10.8379,6.519,5.857,-11.7197,34.5756,-0.56794,10.0409,1.8956,2.8196,4.0997,-5.9501,4.2363,-1.596,
1.9816,1.5107,3.7175,2.6133,-9.0881,27.681,-1.0156,-1.6486,3.7103,3.6149,2.8899,-6.0752,3.5004,-6.8026,
-8.7423,-2.9185,-6.1462,-7.1842,-10.9532,18.7891,-3.8469,-6.8526,2.0412,1.4696,0.30614,-4.7466,0.88007,-4.948,
-7.0127,-0.092253,-8.429,-8.9228,-18.2497,21.2771,-3.8575,-1.3797,4.5698,2.1043,3.903,5.4201,3.9603,2.8202,
-0.08404,4.4933,-1.4156,-1.8797,-17.3959,24.0981,-2.9029,1.3544,5.0192,5.5937,5.3565,14.0132,1.5537,13.9794,
3.536,5.9104,1.3205,1.3666,-9.8442,29.1597,-5.8623,2.9599,-2.7542,3.0885,0.45511,12.449,-5.0474,20.1301,
7.1802,2.6637,3.6518,2.2484,-9.2536,28.8564,-4.5462,0.37217,-2.5889,-3.8453,-1.9821,6.3994,-3.7803,7.8355,
2.1703,2.7447,3.1915,4.7649,-12.796,31.2226,-4.5146,1.5554,0.70011,0.96496,-0.65834,6.2567,-2.8303,-0.10665,
-7.6011,4.0262,3,1.105,-18.2947,43.4492,-4.2437,1.462,4.9964,11.0304,4.6838,8.2919,-2.1786,5.6848,
-10.7607,1.1331,2.5791,-5.9517,-21.2948,54.9423,-6.1583,-6.5799,3.0094,7.717,5.1259,8.0349,-1.8069,0.7635,
-4.5712,4.1988,3.6294,0.91361,-13.0271,63.938,-2.6555,-4.0157,1.6238,7.0128,6.5054,3.4556,3.8454,-7.2358,
3.8978,7.3209,10.1601,6.6429,-4.0507,55.281,6.1804,1.0455,6.3466,-0.15685,8.5252,-10.8517,7.4706,-8.7299,
11.8589,14.5947,13.889,6.2446,10.1718,61.6049,5.8098,1.4649,2.1097,-11.2344,5.1214,-24.3006,1.238,-7.7239,
8.9779,12.9958,11.8506,6.1111,5.4639,56.2216,2.8099,-0.30996,0.29562,-10.8011,4.5733,-19.4686,-0.52328,-7.5017,
-0.71932,1.6113,7.7651,1.888,-8.9639,45.6175,1.1955,0.19057,1.2422,-3.8865,3.3346,-7.6952,0.95392,-2.7133,
-1.1583,0.55003,1.9968,-1.5999,-12.6439,56.9804,-5.1429,6.9278,-3.6528,0.20282,-0.72162,1.9254,-2.9595,5.1625,
4.2136,4.856,0.91288,-2.9495,-8.993,67.6616,-6.7623,7.4762,-2.4695,-2.2192,-3.5706,3.2563,-3.2641,3.8887,
6.3711,7.4565,1.8222,-2.7732,-14.7201,77.3405,-4.4286,5.5816,-3.2855,1.2881,-4.3207,6.9171,-2.5861,5.5833,
8.158,11.1065,1.4719,-1.4015,-8.2933,78.2436,-0.065551,6.9335,-2.8474,4.3439,-0.44627,8.1893,-2.6723,5.0074,
11.043,11.4044,0.41927,-3.2456,2.3272,70.6565,-0.54401,4.5893,-1.2307,-5.0758,3.4369,-5.7994,-3.4758,-9.2724,
13.0317,16.7459,2.5635,-0.39958,3.875,65.212,0.69415,8.4115,0.53057,-6.9402,7.8107,-12.4411,4.2047,-8.4748,
8.3935,15.7412,5.3022,-2.7857,-8.409,57.4429,5.9551,5.9786,1.945,-10.8621,6.8596,-17.4792,8.7727,-5.0743,
6.6843,16.4837,4.7429,0.032738,-8.6276,53.7556,1.5003,6.3431,-0.82302,-11.8978,1.8685,-17.636,4.6312,-6.4568,
5.3194,13.5665,1.0839,1.959,-6.1813,53.4223,-5.8206,9.3369,-3.1838,-7.3271,-2.5819,-11.7571,0.4969,-2.6949,
7.6518,10.1014,4.1523,1.6005,-8.9439,52.8686,-2.8198,4.6794,-1.3055,-5.6826,-4.5961,-5.5081,-0.25582,3.0104,
12.977,14.3158,8.7237,7.2888,-3.1049,55.4808,-3.1328,4.8808,-5.5657,-5.8238,-5.2845,-1.321,-2.6508,4.7577,
13.1625,12.4927,9.1643,5.8878,0.93803,52.1522,-2.4627,4.5877,-7.1598,-3.0641,-3.5211,-6.0622,-2.492,-1.7945,
5.1419,6.9225,-0.062627,-5.5531,-1.5284,44.6847,-4.2431,-0.99023,-4.32,2.9044,-0.89952,0.56806,-3.3064,1.2057,
0.49485,5.543,-6.8075,-8.5942,-4.329,38.147,-6.3989,-6.7152,-3.0967,5.1405,0.60048,13.5492,-5.0364,0.65118,
6.7321,6.1748,0.83175,-3.7402,-1.1772,33.93,0.25159,-4.8665,1.9093,-0.95255,2.4926,4.5415,-0.39589,-9.5108,
8.9793,9.9016,2.951,0.099633,4.919,31.1709,0.47746,0.48721,-1.3387,-13.6698,-1.7545,-9.831,0.35122,-8.6992,
10.369,11.7179,4.2204,2.9864,3.1778,24.4806,2.8592,0.94014,-0.29385,-20.5622,-0.6849,-23.3411,2.7405,-8.6594,
13.3622,11.2558,10.9566,6.4222,-0.14632,22.7703,6.785,4.9811,7.1956,-9.9285,5.3817,-29.4125,7.1554,-10.7909,
5.8114,5.278,4.9968,2.1807,-3.0298,25.2607,-3.7453,6.6106,0.49711,-1.1383,-0.72597,-25.7195,0.94123,-12.0719,
7.6323,5.2023,3.9736,2.2908,0.76738,33.627,-4.2434,3.5625,-3.1481,3.5098,-4.2978,-10.0764,-1.7663,-7.2502,
7.1741,5.8543,-1.5672,-4.5953,3.1317,34.5017,-6.8811,-0.50745,-12.1181,1.8531,-7.4142,4.6282,-10.3372,-2.9586,
9.395,9.1182,-0.75004,-7.9352,8.4872,32.1908,-6.2271,2.1743,-8.2577,-0.42743,-1.9079,9.8941,-7.0657,5.6548,
14.8573,5.92,0.98219,-7.2177,15.4502,29.0541,-6.5768,-2.5359,-8.4856,-9.3199,-3.9626,-1.0634,-6.4008,5.0746,
18.0632,8.2159,3.0924,2.6154,22.9589,34.3007,-4.9769,-1.6604,-13.5201,-16.7144,-12.1607,-8.9538,-8.1859,0.67274,
13.3638,7.4822,8.4507,8.0018,19.412,30.5552,-0.58116,-1.32,-12.9496,-28.0038,-15.0465,-22.5165,-4.5615,-8.2859,
12.8034,7.2743,8.1846,7.7627,18.0063,28.4809,-1.2692,-0.99939,-13.3779,-29.939,-11.9743,-35.2655,-4.5287,-13.8143,
15.6504,9.0072,3.114,5.6099,20.5415,35.2084,-0.46991,5.0859,-7.0314,-18.2605,-4.266,-27.3648,-3.052,-10.8161,
12.3008,7.0205,-2.3754,-0.029317,14.0064,32.1316,-5.7444,6.7089,-7.0919,-8.9702,-5.9385,-11.6229,-3.3508,-3.4186,
11.563,6.1171,-3.6789,2.8647,15.5764,34.5418,-10.2202,7.7524,-13.4151,0.72684,-7.0284,3.1745,-7.0063,10.2841,
12.3154,2.3756,-2.9763,-1.1635,22.8365,36.3261,-7.1964,1.0208,-15.0203,2.6119,-9.0168,10.9377,-13.8163,10.6313,
12.0584,3.6793,-3.2796,-5.432,27.7328,31.2541,-10.6214,-3.8612,-17.9755,-0.91929,-13.7785,10.7634,-17.3261,4.6908,
14.7092,7.3147,2.2196,1.6426,26.551,26.4865,-6.6095,-0.73723,-10.1483,0.5819,-6.685,4.8152,-5.1996,2.4809,
11.8984,5.912,3.5326,2.9903,11.9425,23.4511,-2.3565,-3.1031,-1.3447,1.9932,-0.01694,-2.7046,-1.5131,-3.9344,
7.5691,8.6903,-0.29473,2.5694,7.1286,28.0696,-6.3129,-4.6042,-3.9151,4.5247,-1.2214,5.4114,-6.966,-2.0116,
11.4537,1.9028,-1.7233,-0.95874,10.0754,30.7242,-8.8262,-4.3275,-8.5004,-2.4952,-4.04,7.9793,-4.6194,-0.92612,
19.9253,3.7166,-0.65581,-0.41951,15.7371,39.9677,-9.2608,5.5729,-10.4012,-5.7202,-4.7621,4.1258,-1.9323,-0.38885,
18.0067,9.037,-2.3035,-3.0457,12.142,44.0774,-8.9463,8.8537,-12.9104,-8.0283,-6.6456,-1.1832,-6.8778,-1.0886,
17.1672,7.2895,0.48584,-2.622,9.2439,40.2274,-5.758,3.7432,-10.9305,-18.3928,-6.0059,-9.5478,-6.2242,-2.2286,
19.2704,8.5396,-0.74837,3.0792,16.1613,43.3576,-8.0638,4.7237,-9.0696,-23.3146,-3.4764,-17.4109,-2.2355,-2.3356,
19.0788,11.8838,1.7069,4.3409,18.5663,43.6485,-6.6159,3.4762,-3.7045,-18.541,0.58883,-22.1506,-2.5831,-2.6777,
17.6926,10.4474,6.6657,5.7673,12.3902,40.3062,-7.9062,1.5804,-7.0981,-15.2599,-3.0621,-18.6528,-5.0797,-0.34784,
14.9443,8.1334,2.6508,8.5547,1.2829,39.0931,-15.3855,3.6547,-12.6977,-17.4773,-11.796,-12.472,-4.0515,-2.9781,
14.2884,11.7429,2.7325,8.7645,-0.48106,40.8451,-13.2573,3.1947,-6.8744,-10.8853,-7.4731,-7.1442,-2.1214,-2.5586,
11.7438,13.2075,1.8456,6.5514,13.6478,47.3125,-15.1135,2.2797,-11.0413,-1.796,-6.3016,2.2026,-10.9122,8.4411,
13.2084,9.2816,0.5296,2.5429,23.3131,50.0169,-14.9295,0.93759,-14.9585,0.96283,-7.1288,16.1704,-11.9447,12.032,
15.7903,6.3146,2.426,-0.98409,17.094,47.9802,-12.1056,-0.56447,-13.5791,3.7971,-0.91645,24.9619,-7.3716,9.8643,
8.094,6.4176,2.2805,-2.8532,8.8375,42.2089,-13.3074,-0.5306,-10.8361,5.4975,2.9949,15.269,-5.4831,9.7544,
1.824,6.5147,1.1795,-1.7179,-3.7436,34.3739,-15.8832,2.3935,-2.9549,5.1679,3.2974,9.5324,-1.7794,9.6513,
-0.45482,5.8831,-3.4708,0.55452,-15.8113,36.891,-20.956,4.9012,1.8019,9.4373,8.1615,21.7351,0.49627,13.1693,
-3.0789,1.9145,-2.5394,-3.0944,-27.6373,37.8108,-17.5292,2.9197,5.309,13.9325,13.6971,19.7079,4.0821,15.0305,
-4.3402,1.3174,-1.4229,-3.8728,-27.9075,28.7935,-16.9597,2.7448,2.5801,12.1325,4.6803,11.2943,1.9088,12.6826,
-0.94626,8.7107,-3.9886,-0.024583,-12.133,30.6813,-19.5575,4.7492,-1.1897,7.3072,0.30238,12.7863,-0.85683,8.3062,
5.1363,9.875,-0.13413,-2.1925,2.695,40.1688,-13.8045,1.331,2.9793,-0.1209,7.2741,6.9572,1.364,2.7464,
13.0224,8.8001,-0.60802,-2.5433,16.6333,43.5428,-12.9763,6.0714,2.3181,-1.5599,7.8015,0.75519,2.7279,3.0636,
20.9184,14.0569,-2.9819,0.50155,29.7353,35.1459,-12.1979,8.1175,-0.23131,-10.1432,2.031,-9.8952,4.9746,-4.3509,
33.7633,23.5778,8.5252,6.0151,42.0512,42.9191,-6.4044,5.4613,-0.94033,-19.4165,-5.5626,-16.7733,-0.38554,-9.6334,
43.6681,19.5118,10.665,5.8954,53.6281,54.4439,-11.5635,1.5184,-14.9839,-20.9029,-19.3289,-21.3103,-14.4624,-8.8147,
49.2429,19.3052,13.8817,11.8084,64.5104,53.2262,-7.0131,1.4271,-18.0615,-11.9357,-13.4692,-18.5856,-19.4995,-8.2856,
43.1553,27.065,13.2898,15.1972,74.7398,51.7199,-8.7619,-0.34578,-19.1474,-4.2301,-11.9381,-3.7322,-17.1247,-6.1012,
29.9607,17.7279,5.2616,5.6083,76.2814,62.7167,-18.3591,-5.6277,-24.7475,-4.9406,-23.7553,5.1689,-27.6664,-2.3611,
28.6448,11.3618,5.91,3.3438,68.8122,73.0537,-16.2934,-2.8797,-20.3704,-1.2695,-18.4734,6.7867,-23.596,2.1191,
20.1776,12.1263,0.73512,3.6251,51.6681,82.7704,-19.1722,-1.2606,-20.5939,-2.1572,-12.5443,5.8976,-17.3596,-0.41819,
13.4231,7.7831,-1.9608,0.27438,34.468,91.9042,-15.371,-3.3544,-15.2612,-5.1615,-11.5509,8.677,-16.0772,3.2221,
12.1358,7.798,2.4957,1.7037,18.2999,100.49,-10.11,2.1495,-7.1147,-4.8518,-5.0732,5.7462,-11.2562,10.7415,
2.4898,8.5357,2.5871,1.3608,4.4275,94.3401,-8.2983,2.7437,-0.17962,-9.1402,2.2213,-8.6986,1.7114,-4.003,
-2.721,7.7823,5.0832,2.0022,-6.6842,76.8693,-1.2927,1.8559,7.3027,-8.8325,11.4878,-20.1075,12.4552,-12.3187,
-7.3782,2.9768,0.43921,2.3643,-12.5499,70.8111,-6.5176,1.2624,1.5617,-5.8927,11.2802,-7.3316,2.0667,2.5204,
-8.623,2.0751,4.9924,2.4631,-13.4839,62.9468,-4.9214,0.94594,6.5299,0.96858,11.3265,0.57983,0.73766,5.382,
-6.177,4.3612,8.0673,0.38717,-17.9775,50.4934,-3.6618,2.8174,6.62,6.6955,10.165,6.3296,4.0679,-5.0639,
-10.8683,-2.4082,-2.7808,-4.6975,-30.6374,34.2071,-10.9142,0.47894,-2.695,4.1244,7.3862,8.1192,0.69007,-1.1448,
-11.9032,-4.4331,-0.44461,-2.7287,-37.2351,30.4677,-10.0186,1.1733,5.4202,2.1895,12.0044,6.909,7.6383,11.2161,
-12.6352,-0.79265,3.9204,0.32757,-40.7856,33.4599,-9.8994,4.9593,7.5056,1.0942,13.6943,5.0482,8.1443,10.5432,
-12.1183,-0.98629,6.3365,2.9592,-42.436,23.4983,-5.2078,5.8668,5.8497,5.1257,15.524,5.4684,5.9682,7.7412,
-13.8016,-4.7837,3.064,1.8176,-47.6028,10.5195,-8.752,2.1406,5.499,11.5668,10.254,6.1044,6.0923,6.7946,
-20.4453,-7.6297,0.22862,-3.3531,-49.326,8.2011,-17.1449,-1.6033,2.0355,15.4526,3.6132,17.5483,-0.29879,4.6997,
-19.9415,-9.3411,3.8308,-4.8392,-47.5712,6.0218,-16.8391,-3.6762,0.22665,17.177,8.4581,30.5954,-5.8245,7.5512,
-18.2628,-7.8165,1.1906,-2.1385,-48.0912,0.84003,-17.7568,-4.4197,-0.26911,18.5567,13.253,31.7726,-2.5823,10.4728,
-18.3721,-7.5887,1.3599,-3.6972,-49.7857,-2.3436,-14.04,-4.3958,7.7005,16.2378,19.4475,23.3586,6.0081,7.1926,
-16.0649,-3.9999,5.3761,-5.6445,-50.414,-0.03385,-10.0646,-1.9629,14.7103,12.6124,23.3423,18.8236,5.8886,8.4483,
-17.9931,-1.8317,5.0535,-3.86,-53.6556,2.8607,-11.3889,0.083111,14.792,9.9275,20.9774,10.4638,6.9815,12.7621,
-18.8419,-2.204,8.6065,0.71013,-52.3645,0.76064,-7.8133,2.4885,11.9761,7.4034,17.3084,-2.2154,13.3113,8.6222,
-17.229,-2.0718,5.198,1.6318,-36.2074,-2.1771,-9.7546,1.3753,1.6165,7.4411,9.0396,-0.15426,6.7281,5.6943,
-16.6775,-3.8754,1.0295,-1.8407,-34.9991,-0.60041,-9.6515,1.2926,7.3044,8.4412,11.8714,8.5319,6.3246,9.2092,
-23.1484,-10.1506,-3.6118,-9.6838,-46.9991,-5.1439,-11.7235,0.0099395,11.4456,7.6935,16.2206,6.8149,7.6321,6.0053,
-21.0366,-8.3367,-4.118,-6.9336,-48.879,-10.3789,-12.2254,1.2146,7.1435,13.7394,18.8628,9.539,5.9689,6.3679,
-13.5079,-6.8722,0.94938,-4.1075,-44.5002,-14.0945,-7.6355,-4.6428,7.1968,12.4331,20.6235,8.4847,6.5751,7.4321,
-12.6972,-10.3165,-1.0355,-5.789,-41.8302,-11.3208,-8.6234,-4.3645,3.8727,6.8666,18.422,5.0834,6.1804,7.9503,
-11.2124,-12.3491,-3.625,-5.6831,-40.0435,-13.2931,-8.3472,-3.3797,4.8452,7.1775,16.1114,5.9832,5.0866,3.3759,
-4.9961,-6.5464,1.1723,-1.7267,-32.0971,-17.5568,-7.6054,-9.6844,4.3135,9.3984,12.4932,13.096,-0.76217,3.8962,
-4.9375,-5.4305,-1.5494,0.064381,-26.0741,-15.2983,-11.2462,-10.3084,-7.2733,10.0396,5.2363,18.8184,-5.7779,7.2781,
-5.8463,-8.2379,-4.1077,-4.0371,-38.6097,-13.6573,-5.028,-8.0029,-1.293,10.6423,7.0911,16.0019,1.5584,4.672,
-11.5211,-6.5384,-5.5485,-8.8565,-50.3931,-15.9713,-4.0034,-5.8355,9.6303,10.2447,12.2092,9.4981,7.0085,4.6327,
-15.6503,-5.182,-2.8052,-8.3249,-43.2717,-19.3511,-3.2808,-3.557,9.5347,7.2201,15.3333,0.25138,7.5521,2.4268,
-8.2036,-3.1836,3.8708,-4.6921,-27.9012,-21.3233,1.4958,-4.5486,5.3474,1.2431,14.6545,-7.2353,6.3759,-5.1904,
-0.72173,4.9609,6.2899,1.6152,-27.9145,-14.9829,2.1287,3.6778,7.1955,-0.51852,14.9798,-7.5243,8.1627,-2.2281,
0.044479,2.0117,5.1891,0.79489,-25.0344,-18.1813,2.2419,-0.6402,9.8973,-4.5852,12.3938,-6.3499,6.9496,-2.3354,
3.8984,-0.51888,5.3599,5.0857,-11.4812,-18.0545,0.66138,-3.4941,5.4468,2.921,9.7222,8.1311,0.26586,7.9278,
-4.5302,-4.3441,-0.26432,3.3343,-24.8923,-22.7558,-5.1629,-1.3562,0.78167,11.4228,9.1389,18.6099,-4.0884,14.2011,
-7.1507,-1.6731,3.1262,3.1345,-35.8114,-25.2466,-2.4428,-0.7927,6.5196,12.6654,12.9291,18.4574,2.9056,4.1898,
-5.0346,0.11425,1.7331,1.259,-19.5627,-20.1167,-0.12726,-3.8784,1.5489,2.5052,7.5738,4.0934,1.0442,-4.4975,
1.534,1.0713,3.5573,0.70151,-4.2889,-10.7149,10.9676,2.1384,5.3119,-3.4297,12.904,-10.1315,7.73,3.4851,
-3.8603,-2.367,-1.4764,-3.6789,-3.0675,-17.3024,5.9712,2.4925,4.0298,-3.2234,14.0579,-11.4518,10.1588,3.2764,
-12.5467,-2.9483,-8.3777,-5.6273,-16.9834,-30.3643,-2.823,-2.2363,3.0646,-0.37891,11.5272,-7.6312,7.3801,-5.3563,
-13.4811,-5.4225,-8.116,-7.9412,-30.0644,-31.7966,-1.9307,-2.8255,4.0856,0.36672,10.5946,-6.9324,6.6963,-9.1327,
-6.8875,-8.9533,-5.7006,-7.9465,-16.9321,-22.6578,-3.2606,-2.6557,-1.462,3.7194,8.9949,7.5836,1.956,2.0208,
0.03304,-10.1036,-2.7077,-7.2289,-1.8162,-26.8421,-1.8599,-7.5578,1.2771,0.36252,7.732,8.6951,0.15161,3.1046,
-0.45065,-4.195,-0.61679,-5.3487,-3.5152,-29.5697,-0.78424,-4.2121,5.539,-2.5511,8.2322,-5.9266,4.963,-2.866,
-3.7981,-1.5327,-3.4718,-5.5102,-3.7862,-23.9391,-1.2193,0.37896,3.7604,-0.9522,11.1127,-9.7889,7.0753,-2.6941,
-4.5343,-5.7793,-5.192,-10.9639,-6.9335,-26.8413,1.2639,-1.5722,8.3553,-2.823,13.8202,-11.13,6.6506,-7.3534,
-4.2624,-1.094,-6.3265,-8.8601,-10.3739,-27.1593,-1.222,2.3787,9.7824,-1.6896,10.0987,-13.8364,7.2161,-6.43,
0.57305,-0.78736,-4.7421,-4.2311,-4.69,-24.8064,-5.2461,-1.3794,-0.68652,2.0272,1.539,-7.9445,2.6853,2.3919,
4.3953,-6.5249,-1.0828,-1.5669,-0.55196,-28.1385,-8.3057,-8.0453,-9.3222,3.8336,-1.4456,1.6909,-4.7064,9.961,
-0.68915,-8.0616,-4.8743,-3.883,-12.5702,-30.7885,-9.7354,-6.5983,-3.4607,-0.25283,6.3539,-4.677,-1.5315,6.4712,
-2.8172,-9.7473,-6.7512,-8.7119,-22.6622,-28.2185,-4.09,-1.6233,10.847,-1.4427,16.8187,-15.7248,9.4064,-0.90714,
-4.5764,-9.6444,-8.2743,-9.1533,-21.7846,-23.1509,-4.8087,2.3305,11.7629,0.57203,16.2915,-13.3351,11.7341,0.11162,
-2.6145,-6.8966,-4.1624,-7.3986,-18.7903,-23.4491,-3.7971,-1.4248,5.9954,-2.5958,13.6273,-13.7403,9.8252,0.34589,
6.9426,-2.8671,4.0413,0.51691,-4.4063,-24.6935,-0.43575,-3.5082,2.0205,-6.0552,11.1222,-19.4231,1.7637,-3.2901,
11.3465,0.19718,6.2087,8.6808,9.3552,-17.9095,-0.89177,6.343,-2.4393,0.092445,8.5269,-15.8478,-2.1983,-1.1647,
0.30137,-7.7689,-0.18937,0.20624,0.35798,-16.5935,-2.0436,1.3831,-5.4264,-0.15407,2.4716,-12.2454,-0.37964,1.0744,
0.76545,-6.3382,-5.4804,-4.6266,0.81867,-12.7056,-3.367,-4.0023,-7.9931,1.3017,2.3231,1.9865,-3.7311,12.5793,
3.6118,-4.5118,-3.2236,-4.8312,0.76955,-17.2456,-6.0572,-2.798,-7.5133,0.7414,1.2196,4.76,-5.4352,16.645,
5.3231,-1.8312,6.1286,0.27871,-2.6511,-19.5856,0.5727,5.5643,2.0963,0.21475,1.6286,-9.5056,5.0136,9.3796,
5.9676,1.1712,3.3507,2.6726,-2.492,-16.4823,1.9844,8.123,1.0062,-3.1726,-0.39729,-20.9863,3.7489,-5.163,
12.8408,3.511,7.0061,5.4047,11.7575,-10.1907,5.7219,4.2612,2.3926,-3.9461,3.001,-17.7989,3.042,1.8957,
16.8906,5.2285,12.8527,7.0082,25.1521,-3.7947,7.7887,5.9337,-0.64351,-1.7811,0.89274,-16.731,5.7516,15.7617,
8.6466,1.0582,7.7425,3.6954,11.3504,-12.7262,3.465,6.0598,-3.0153,-0.22824,-1.5712,-21.9941,5.4063,6.1387,
-2.7187,-5.5125,-0.67554,-2.0697,-3.4306,-26.0627,-6.6248,-2.7397,-2.1112,1.4725,1.6564,-11.7564,-3.3536,0.70892,
-3.2783,-3.4948,-3.7683,-1.7043,10.8752,-27.2703,-6.4683,-0.4059,-3.6715,5.4817,2.762,3.049,-6.7675,11.9948,
-1.1538,-4.7314,-1.614,-2.0845,24.3227,-26.1164,3.0786,-1.8278,-3.4517,-6.4164,-1.742,-7.6188,0.38696,-0.77643,
0.36211,-3.9651,-3.4453,-2.4413,36.9633,-37.5644,2.412,-8.949,-3.7265,-12.2979,-1.6375,-16.3202,0.84568,-12.2985,
1.5454,-3.004,-6.8538,-7.3563,48.8455,-44.2288,3.4723,-12.9916,-0.85162,-2.6422,3.5222,-11.2434,-1.8564,-3.6071,
1.9344,-8.6086,-4.9965,-14.1455,60.0148,-43.0211,10.0126,-12.6942,1.6098,-0.073304,4.275,-9.1228,1.1473,-5.3187,
2.0596,-7.369,-5.4199,-13.0561,69.4293,-44.0555,8.6888,-9.7632,1.272,0.65376,3.2953,-1.5858,3.7298,-15.3641,
-0.47438,-7.8909,-6.0588,-16.611,63.3356,-50.571,8.1677,-14.4798,2.1598,2.543,5.508,-1.4909,3.0238,-15.8883,
-2.8558,-9.8278,-5.2131,-19.4707,63.3921,-50.429,8.1598,-16.5033,-0.37967,1.9082,7.1059,-9.114,0.91443,-9.6321,
-2.4437,-5.1406,-5.1415,-14.2051,56.9373,-42.3418,6.947,-12.3799,2.294,-3.2677,7.4022,-18.4493,4.4748,-13.1518,
-0.85107,-3.3861,-1.9407,-12.3887,44.8437,-40.7654,6.0481,-10.673,5.531,-15.123,3.1019,-31.4423,5.1704,-22.0039,
-2.9689,-4.8699,-1.1012,-8.5119,37.0916,-40.0065,2.0698,-7.3813,-0.34468,-17.3489,-1.1818,-41.7274,1.7269,-14.1759,
-4.2373,-7.47,-1.0353,-7.5193,34.8663,-39.5345,5.32,-9.3487,2.5683,-10.0412,1.7814,-31.029,2.5874,-11.3969,
-4.2238,-3.8886,-4.5884,-11.6476,35.4257,-35.4755,7.6521,-11.9213,8.44,-1.0033,2.8796,-18.3212,2.6733,-16.7389,
-7.586,-3.8965,-6.9644,-10.7078,24.3819,-31.6595,5.5056,-11.4472,6.7285,8.4572,0.53745,-4.9297,1.7898,-13.0832,
-9.3,-11.6164,-0.52099,-5.4858,14.4833,-35.7855,6.3805,-10.5192,5.6019,15.9035,-0.21769,5.2485,1.9234,-11.093,
-7.5365,-4.8936,3.1259,-2.5051,27.3528,-31.9513,6.7208,-5.7905,2.6145,15.6724,0.5185,5.6567,2.5311,-6.3302,
-10.2178,1.9075,-0.19512,-4.5242,22.5782,-32.2034,8.4867,-5.2021,3.6624,1.4757,1.2107,-8.7827,7.9229,-11.0117,
-7.4358,1.5523,-0.42415,-2.5655,7.9673,-34.8507,9.665,-6.5772,8.9865,-5.1206,6.6815,-22.3557,10.0988,-15.8948,
-3.6152,-3.3616,-2.8093,-3.3757,16.1659,-34.6879,7.6388,-9.5568,5.0729,-2.8852,8.2088,-26.5582,2.744,-13.0129,
-3.8802,-3.1599,-1.6764,-4.1375,20.0167,-31.6423,11.0369,-7.0554,5.2504,-1.2658,8.6801,-18.2161,4.5075,-11.7502,
-6.0575,1.8504,-2.5401,1.4134,10.6205,-23.9592,7.4822,4.4554,3.9715,0.73835,4.7853,-9.4101,6.6477,-6.2245,
-2.3196,-3.0813,0.98671,5.1852,13.3577,-21.5577,3.1768,5.6343,0.3588,-0.75175,-2.7326,2.7237,0.46422,8.1287,
8.4244,-0.96825,9.6046,10.6587,26.0541,-19.7819,9.2532,2.8857,-2.5548,0.25722,-6.4251,11.2374,-1.9742,14.8714,
5.7498,5.5973,4.9305,10.7421,24.7318,-19.3183,7.9746,4.3998,-7.4632,-1.9274,-8.6911,2.6089,-2.0967,-0.12089,
3.2356,2.1285,2.9479,5.0363,21.0787,-23.2204,8.2195,0.52036,-2.918,-7.3553,-3.5899,-2.6088,-2.2119,-7.2238,
5.4518,-0.89154,2.2889,3.7701,28.4909,-22.7913,4.3517,-5.2952,-2.7427,-5.9499,-0.48221,4.7783,-6.8997,6.2253,
6.0888,3.5005,-0.2588,4.9899,30.6376,-19.4959,2.1626,-4.4953,-2.0965,-0.77245,-1.4174,1.5993,-5.5216,4.4053,
11.2669,5.9413,4.3362,4.9312,23.2555,-18.0854,4.2018,-0.12849,-0.28367,-1.4492,-2.0555,-2.5942,-4.4672,-3.3311,
13.4832,4.1388,10.8247,9.9382,19.9322,-12.6617,5.3957,7.1098,-4.1228,-0.88012,-0.96804,6.2383,-5.1632,7.9563,
2.551,1.9625,7.283,4.5214,19.2184,-15.7582,7.0004,0.89889,-7.2497,-9.0222,-4.2842,-8.1151,-1.4792,4.5866,
2.3982,8.1115,4.918,-2.4985,27.2241,-15.7768,10.437,-0.60108,-2.4761,-13.3014,-4.5093,-18.7154,5.3582,-6.2937,
2.0129,-0.8113,-0.43919,-7.4105,23.4215,-21.3381,6.6773,-1.2884,1.2874,-16.1187,-0.62332,-16.8698,1.9032,-9.5315,
-0.75875,-4.3778,-2.5818,-4.7963,15.0266,-23.673,4.1072,-2.4161,2.4157,-9.6082,4.4755,-8.3856,-1.3442,-9.2008,
0.25064,4.0796,-3.3907,-1.6164,13.6431,-18.3962,2.415,0.62135,-1.5861,-1.8009,0.83255,-0.16966,-3.6737,-9.6126,
2.6457,1.9066,-1.2591,-5.3758,13.3064,-20.6669,6.1265,-1.8265,1.8835,-6.0312,-3.0738,-4.0159,-1.5251,-5.6614,
-0.16434,0.10475,0.98538,-3.8482,13.2311,-20.15,4.0715,-3.4039,2.0117,-3.9823,-4.0944,-1.1236,-1.1924,7.9345,
0.32792,4.9192,4.7831,4.0959,9.5452,-16.0485,1.417,-0.7891,-1.4835,1.5598,-4.3307,7.139,-0.6389,6.4945,
7.2977,1.9725,10.0393,5.5369,1.5002,-16.7728,2.0549,0.46308,-2.5997,2.671,-4.7942,10.3256,-0.3596,-1.3674,
11.4395,0.64929,8.714,7.8563,9.8464,-15.0436,0.24439,2.1225,-5.5768,8.0544,-2.8193,16.214,-5.8816,10.0433,
12.9223,4.7077,11.8066,12.9285,23.3556,-12.9357,6.2557,2.2361,-3.073,5.8839,0.48331,12.1077,-6.7336,10.6455,
15.7624,12.8614,15.6775,14.3219,31.4745,-8.5441,9.9777,4.7535,-2.6477,-3.8692,0.21335,2.4632,-3.6785,3.0174,
4.9347,9.4381,5.8192,5.0265,17.294,-11.1649,5.7637,0.85243,-4.658,-13.037,0.44151,-11.7846,-3.6987,-3.1897,
-6.6898,-1.4923,0.40817,-3.711,2.1563,-17.4847,6.6229,-4.7421,3.5755,-11.0497,6.9227,-17.2236,1.1027,-13.8443,
-7.0113,-4.0538,-3.2313,-5.1751,-7.9755,-15.7122,-0.76388,-2.7703,4.0838,-4.8431,4.3382,-7.2721,2.2418,-11.8084,
-6.3499,-4.0518,-5.6892,-8.4802,-14.487,-16.457,-3.8518,-3.3273,0.70556,-7.2039,-2.9117,-4.1845,-0.54444,-1.2182,
-7.4147,-0.43423,-1.491,-5.5613,-16.9918,-15.9515,1.2001,-3.6096,1.6276,-6.7716,-1.7732,-6.3437,-0.99371,1.7474,
-5.5238,4.4123,1.9727,-0.88908,-9.706,-10.6563,-0.31844,-1.465,-0.88092,-6.8475,-1.1846,-11.7479,0.51194,-7.0343,
2.7614,4.8709,5.9517,-2.0406,-2.1338,-7.8473,4.7623,-0.65375,-0.1047,-13.908,-1.3545,-17.5505,3.6147,-6.3712,
0.18581,1.6864,-0.67216,-5.2928,-2.0055,-8.8225,4.9588,-1.5786,-4.437,-17.8942,-2.2373,-17.4616,-1.4227,-3.5786,
-1.5128,6.1643,-1.355,-1.842,-4.537,-7.0885,8.2764,0.68502,-2.4838,-8.3849,1.0302,-7.9782,-0.61417,-7.9434,
4.8449,7.2407,5.4752,5.0174,3.4485,-5.6989,11.1543,2.0902,-1.8523,-1.1329,-0.95983,4.0701,-0.57732,-5.5386,
7.9285,3.9139,7.5571,9.0545,9.5078,-3.9109,10.4853,2.9289,-4.1516,-0.58323,-6.687,9.1283,-1.0248,5.3988,
4.3193,5.3663,9.2728,6.8244,-2.3904,-9.2194,10.0971,2.0302,-3.661,-1.2711,-6.5263,5.9295,-1.2043,9.1726,
4.5423,12.7569,12.0907,9.7892,-6.1036,-3.3639,10.4554,8.6571,-2.9597,4.1076,-0.8328,14.2501,-2.0962,16.3348,
-3.9252,2.3507,1.2421,2.4532,-8.6296,-8.4649,9.3459,1.3885,-5.1924,-3.3695,-1.7469,6.1645,-1.4882,6.1955,
-8.7511,-3.3341,-5.8221,-6.6119,-7.3887,-18.3211,8.062,-4.7201,-3.6758,-8.2288,0.52728,-8.3053,0.77,-5.9861,
-8.9492,1.4459,-8.606,-9.3484,-5.7403,-17.9445,2.9992,1.5889,-2.2498,2.1471,6.5214,-5.2762,0.965,-7.7964,
-8.6534,-3.7028,-6.8846,-11.9212,-19.4959,-20.0016,6.9164,2.2162,8.7313,7.0797,14.566,2.9941,10.7893,-10.9442,
-8.6162,2.3044,-4.5433,-10.2416,-31.4621,-15.9089,10.3578,3.0476,14.4739,5.2087,18.0304,2.3325,19.3009,-8.8409,
-8.0992,8.9146,-5.7165,-6.2527,-27.6461,-9.1698,5.88,5.2753,7.8209,5.3786,12.6103,-1.1816,11.3944,-1.5615,
0.58147,0.66649,-5.8559,-4.4317,-33.2182,-4.2813,-0.73981,2.5482,3.4952,6.9836,5.1047,11.4223,1.0693,7.6908,
0.54635,-4.194,-8.3968,-7.0581,-45.3251,1.7604,-10.8186,-0.49698,-2.0174,6.5648,-2.4322,24.837,-3.3334,15.9062,
-6.7168,-2.0137,-4.0367,-4.7064,-56.7056,2.1367,-13.0615,-0.46716,-3.3421,10.0273,-3.2506,28.047,-3.6153,14.4699,
-7.0367,0.27629,-1.6253,4.494,-60.5339,-2.5708,-11.5545,3.1763,-4.8288,11.5948,-1.3683,28.0514,-7.9777,7.0937,
-6.1326,0.74165,-3.456,3.7425,-47.7431,-4.3452,-7.0053,6.3602,-3.5752,5.5965,-1.2862,24.4396,-4.6069,2.8117,
-5.7646,-0.74865,-3.7305,-5.6411,-46.8064,-0.22765,-3.6924,5.4966,-1.914,0.92237,-1.691,19.1173,0.49018,6.4999,
-2.0443,1.2245,-6.8812,-5.7846,-39.6597,-1.6602,-5.881,4.6849,-5.1736,6.1697,-2.0714,26.165,-3.8775,17.1967,
0.72924,1.8737,-8.1553,-4.2324,-36.0751,-11.4428,-5.7693,1.2701,-0.76606,3.6301,0.70417,20.9795,-2.9222,11.1034,
3.5782,4.1716,-1.8816,-0.60427,-32.9465,-8.8278,-3.4948,2.6399,3.1365,1.4843,3.0723,7.6698,3.0379,1.2784,
4.5684,1.2702,-1.0454,0.63728,-23.9798,-7.0933,-1.5978,2.2405,0.77871,3.5644,2.1646,4.5581,1.6503,2.4065,
5.9817,-1.4573,-2.1877,-2.5342,-14.5871,-9.3186,0.18502,-0.062817,2.9014,3.1094,1.794,10.3104,-1.5819,3.4677,
1.7664,0.55831,-5.4309,-2.3822,-17.0863,-2.011,-6.5745,4.2793,-0.16476,2.9228,-0.24186,18.8508,-4.8615,3.7415,
-4.3653,-3.0904,-5.3462,-3.9262,-30.1611,-3.0954,-10.2776,6.1919,-1.3599,6.845,-1.9148,19.8891,-5.7748,5.204,
-6.0316,-3.3873,-1.651,-5.1369,-27.99,-11.5868,-9.179,2.4459,1.1318,13.6652,-1.7999,16.7671,-4.9464,5.8561,
-7.1162,-1.2561,-3.4804,-4.8289,-15.7055,-14.2658,-5.736,0.37076,2.028,9.9525,-0.72783,13.8331,-4.6494,-0.28006,
-4.7608,-1.6625,-5.1995,-4.539,-14.281,-13.4096,-0.089434,0.34874,4.3166,4.0529,1.2443,15.4135,-2.9244,-2.6736,
-1.5829,0.36523,-5.8516,-4.2669,-7.6398,-9.2308,-2.9764,6.5946,0.68297,8.1483,-1.2407,23.1656,-3.713,6.6461,
0.44053,-0.62032,-3.5726,-1.6005,-5.253,-5.3028,-3.2795,4.7524,0.16029,11.516,-4.0586,27.078,-3.49,7.2114,
4.0295,2.068,-1.671,5.003,-9.5171,-1.8511,-1.8779,0.3699,-1.5366,12.5123,-5.5023,30.0331,-4.9679,7.9836,
8.3673,8.9336,-1.8115,8.3185,-0.51019,0.91129,-0.07775,4.4453,-3.6138,12.0023,-5.8953,27.0256,-4.429,12.0841,
11.4802,4.7821,-0.49795,2.2758,13.2587,-8.0615,1.1317,0.56315,-5.0842,-1.0099,-8.6751,11.3041,-6.8144,-0.93305,
20.1918,6.6644,4.5936,5.7546,26.5632,-4.4443,2.7511,1.7347,-5.0201,-3.6009,-7.4312,6.4082,-8.5747,-2.0824,
23.3184,9.1568,8.6565,8.7836,39.0694,2.0887,5.9602,0.66602,-5.683,-1.4564,-6.0212,4.0953,-7.0961,-0.51139,
32.7656,12.7052,12.2345,11.872,50.8253,9.4351,10.6643,4.2415,-6.5473,-3.0562,-6.8653,3.1267,-6.4294,-5.06,
44.8996,17.727,9.5718,12.1235,61.8757,15.6179,10.5064,10.7359,-10.0108,-6.7297,-14.6485,-0.43537,-11.8287,-11.9872,
53.6546,24.3766,15.7468,14.2886,72.2632,21.4298,18.0712,7.6816,-7.9639,-7.7717,-15.6973,-4.2656,-10.6365,-10.7861,
48.2657,23.6369,13.5967,14.1542,82.0274,28.0977,14.8177,2.159,-15.9218,-11.8847,-17.407,-4.7326,-14.0957,-6.5235,
46.0929,21.4956,10.6115,14.0281,91.2058,28.5808,13.2055,5.6447,-11.8332,-9.0027,-12.265,-2.7616,-11.563,-5.4089,
42.3634,20.2058,11.903,7.4018,84.8898,18.1893,16.2696,8.1985,-3.4104,-7.9801,-8.6366,-7.4167,-7.0128,-10.869,
30.6626,20.9217,5.8862,0.69121,68.7092,15.1698,13.3652,9.6348,-5.134,-7.5013,-8.6008,-6.9717,-3.6995,-12.145,
25.9305,14.8459,2.1588,-3.2069,50.4866,15.7056,11.5992,6.6464,-3.8619,-6.5695,-6.1563,-2.2148,-0.10332,-9.006,
25.3388,7.2065,2.0291,1.3241,33.3574,11.3886,2.7083,1.909,-6.5229,-2.8012,-8.6797,6.113,-9.2564,-4.1275,
17.3108,-1.1794,-4.118,0.039578,17.256,-0.62224,-7.3363,-0.85637,-12.1568,0.98257,-14.6662,12.2539,-19.0646,-3.6387,
11.4516,-2.0728,-6.7632,-6.7115,2.1206,-8.2979,-1.5933,2.0873,-6.1246,3.8159,-10.412,15.8573,-12.1359,1.8825,
1.8462,1.6668,-7.0806,-7.0319,-8.6117,-11.8976,1.6351,4.131,-1.66,4.3101,-1.3514,14.6646,-5.3825,6.8306,
-9.3515,-6.1462,-4.2454,-7.0922,-22.195,-18.4144,-2.8011,0.50891,-2.0425,1.6411,1.1401,9.9286,-4.0954,-3.22,
-7.8259,-8.1873,-1.0984,-5.7021,-30.8659,-19.2379,-4.0791,1.4425,-3.8479,5.8812,-0.85629,14.6353,-4.8138,-4.9548,
-0.84908,-3.117,4.5109,-0.29896,-29.7371,-20.735,4.1192,0.15086,0.48006,6.2515,2.8103,4.8393,1.0184,-3.4524,
2.8175,-3.1708,12.1942,3.3346,-29.1579,-24.0704,10.8622,0.86494,5.9951,-4.0058,7.2212,-9.551,8.9113,-8.7891,
5.2998,-2.7398,10.7395,6.2678,-31.506,-20.4568,6.1128,9.7309,2.5021,-7.863,5.1005,-19.4625,7.1715,-5.1285,
5.4637,-1.1291,7.2026,3.9635,-34.4359,-19.2294,3.3355,7.7008,4.2802,-2.5705,5.7588,-4.1948,3.8487,-9.6679e-05,
0.074232,-2.2667,3.6374,-1.3359,-31.1649,-20.7272,0.48426,-0.71502,3.782,6.9837,5.6542,10.1569,-1.4434,2.651,
-8.3659,-4.2994,-1.1601,-5.3531,-43.395,-22.6166,3.5887,0.051239,3.7965,6.8056,5.074,20.8757,3.7049,3.6972,
-14.8536,-9.1033,-3.7419,-10.5753,-54.8913,-30.6593,4.0965,-1.6393,4.7737,-3.0025,5.4927,5.5231,6.1339,-8.335,
-4.8033,-3.2545,3.2316,0.66447,-37.4979,-23.9995,-1.4519,4.726,2.5591,6.8187,5.645,12.3021,0.94515,-8.3168,
-4.2746,-4.7464,1.8319,2.7933,-31.994,-27.6212,-5.9446,3.7191,-2.1742,10.0245,-3.6117,18.5534,-6.5834,-5.6486,
-6.1871,-4.2205,0.5174,2.385,-43.3305,-29.5791,-1.4903,3.2548,0.12568,6.7722,0.22062,3.3402,-2.5727,-3.1403,
-5.3342,-3.0036,0.48613,3.2055,-37.8389,-22.502,-0.43679,5.4698,3.4924,0.58102,9.8481,-5.6576,1.9197,-3.4341,
-8.1474,-7.8848,-4.6045,-4.4584,-39.1837,-22.8389,-5.954,2.0084,5.9341,-4.9972,8.0522,2.1535,-0.84677,-2.9868,
-10.5508,-5.9652,-12.5232,-8.0471,-42.1354,-20.9868,-6.5608,3.3339,5.5783,7.3539,6.123,16.1242,-2.7239,10.2076,
-13.533,-10.1868,-12.9768,-11.1799,-42.7405,-22.8609,-2.552,1.4469,5.0024,17.2768,7.4426,25.8828,-1.8374,13.2103,
-14.8901,-15.1192,-9.5471,-13.6421,-44.7556,-25.5866,-6.9782,-1.7734,3.0151,12.6248,4.8269,22.6426,-2.9324,2.0538,
-13.5148,-10.8376,-7.528,-9.9311,-37.7315,-20.6769,-7.0414,-1.1846,2.3522,11.3853,2.6091,22.7303,-1.7921,2.413,
-11.0164,-12.3568,-4.907,-7.6482,-34.7447,-23.0515,-3.0037,-6.6574,0.52409,10.461,1.2475,20.6434,-2.4077,2.9909,
-7.4636,-10.6513,-3.167,-5.2613,-32.6602,-24.5612,-8.1264,-4.8119,-3.364,8.3869,0.20855,17.9583,-6.1199,1.8473,
-5.8103,-11.2173,-4.1816,-5.6688,-22.7464,-27.6665,-8.8434,-3.3181,-0.51081,3.7865,1.4011,9.4092,-5.5115,-0.43244,
-1.8465,-11.2674,-3.6899,-6.0518,-11.9819,-26.7301,-0.84168,-5.7704,-0.23943,2.3538,2.0402,2.3369,-4.4581,0.31618,
0.67443,-7.6992,-3.9505,-4.2424,-12.7092,-23.6801,1.137,-0.60389,-5.5277,5.587,-0.010441,7.4989,-9.4933,2.7073,
4.0082,-9.1653,-0.82115,-4.952,-14.357,-26.1154,2.5153,1.3608,-4.2315,8.1441,0.95428,12.3518,-7.9591,0.61693,
3.5267,-10.7845,-1.9772,-3.4496,-16.6286,-22.3793,-0.76912,-0.4081,-3.7366,5.9687,3.0662,14.2618,-2.9023,3.7134,
-4.3972,-9.6555,-6.6788,-2.7607,-29.7309,-20.0723,-3.615,-5.6858,-2.5481,-1.1383,2.8822,3.7656,-1.2819,3.0087,
-1.2411,-3.2914,-1.4576,-4.523,-21.0779,-18.3862,1.9043,-5.8268,2.4253,-3.9623,6.5659,-10.5603,2.6516,-5.8487,
7.5103,0.28035,4.4147,-2.8056,-5.7132,-10.5344,7.5748,3.6816,7.1002,-1.3142,10.0281,-19.9294,8.2769,-8.8725,
1.9977,-8.1724,1.9804,-3.8423,4.391,-13.9994,7.3611,-0.15449,10.7713,-3.4048,10.1495,-17.5285,8.5034,-8.0989,
-4.8708,-8.6461,-2.9589,-5.0583,-9.9724,-19.9086,0.65268,-4.4838,5.7865,-0.79012,7.1302,-9.2462,2.6903,-1.8287,
-3.6142,-8.1274,-6.1558,-9.0926,-7.3249,-18.7136,-2.2781,-2.7685,2.0653,4.5599,5.7385,-4.8346,0.60116,-3.1647,
-1.7101,-10.2908,-4.5812,-8.7885,-1.8242,-16.386,2.9198,-0.91515,5.0744,3.5634,6.1171,0.99864,5.6263,-4.6621,
-3.2948,-8.9505,-5.0297,-4.1638,-5.8121,-13.7156,2.5037,2.7552,3.0827,4.0725,2.1347,8.4105,6.0121,1.1613,
1.2415,-9.3775,-1.8351,-3.9138,-0.64292,-16.2669,5.2457,0.17951,3.8623,1.9002,0.56056,2.1215,5.1692,-4.6932,
7.1925,-6.6457,-1.4845,-4.4023,8.7957,-17.9424,7.5821,-0.55462,5.7993,2.0267,7.5168,-3.0674,2.6899,-6.5808,
-0.71106,-5.5238,-8.867,-6.7895,1.2778,-15.6608,7.8503,3.5762,7.6207,3.5921,13.573,-3.1246,5.6618,-4.9809,
-8.6219,-9.2895,-8.5757,-13.3715,-12.8989,-13.9976,8.1024,1.1927,7.8866,-1.2025,7.6977,-7.0342,7.9734,-13.1179,
-2.5612,-6.0813,-2.5178,-8.9541,-1.3989,-6.6505,9.3033,0.87998,4.7621,3.4492,4.5845,1.8233,1.4692,-9.1976,
-1.6844,-10.7779,-5.0181,-6.2476,4.7103,-8.9028,7.54,-7.1268,1.825,5.8931,4.0682,7.2577,-6.5729,-3.1024,
-6.645,-14.2286,-5.9223,-4.6675,-6.9,-8.6096,8.2929,-4.53,3.8847,10.6012,5.5114,12.3659,-1.1169,2.1455,
-12.995,-12.4107,-8.9412,-12.5824,-19.5014,-14.3593,8.7594,-1.8479,1.7237,3.2169,2.2884,6.8034,3.2887,-3.2857,
-4.7437,-4.6765,-4.3076,-12.5506,-5.075,-16.1495,18.1156,0.91433,6.1998,-2.038,8.1764,-2.5231,8.6348,-6.2218,
-8.0743,-6.5653,-8.1462,-11.0744,9.3295,-12.5292,15.8236,2.5465,5.5866,-1.6745,9.8552,-6.4688,7.3935,-8.4998,
-16.5077,-12.6791,-9.8269,-14.0254,-1.9558,-13.9464,11.7409,0.22475,5.9745,-2.2972,6.6126,-6.8038,6.7092,-11.605,
-11.4196,-6.8564,-3.2115,-8.1222,-6.8999,-13.3508,11.2776,-0.9938,2.4828,-2.8825,5.0108,-4.7081,3.6553,-2.4728,
-9.0472,-0.90141,-0.84962,-1.1273,-14.4401,-12.3088,7.4675,0.75305,-1.7635,-2.9505,3.9872,-8.0415,2.2307,-1.6015,
-11.6381,-5.9092,-0.55745,-3.711,-27.6737,-15.6674,4.85,-0.97959,4.3676,-3.0147,3.5068,-5.8716,6.1944,-9.9414,
-5.8781,-4.8313,-3.6575,-3.7293,-17.2157,-4.8454,1.9079,-2.1256,1.9364,-0.18225,-0.80098,8.5807,1.7254,4.7551,
-0.22303,0.27904,-3.4383,-2.0595,-8.4702,8.4605,3.7219,-0.55208,-4.9285,3.6848,-5.0915,22.1659,-4.6448,14.7132,
2.4419,0.021335,-0.098484,1.1975,-22.062,11.5683,1.329,6.4705,-5.8381,6.5972,-8.4014,21.0767,-8.4635,2.0203,
4.4646,0.74296,-0.81548,7.1512,-34.8383,13.0438,-4.2939,10.18,-5.2464,5.9604,-9.5845,16.679,-9.6429,7.4427,
1.7866,1.1803,2.1255,6.7221,-29.6145,9.3687,-0.17991,4.7485,-3.4858,1.264,-4.6707,10.3756,-5.208,15.6732,
-2.9004,0.38659,1.2751,3.6673,-25.1865,7.1193,-2.8207,3.2583,-5.9277,2.8754,-3.6676,11.9223,-6.1008,6.7786,
-1.0391,0.12243,-2.8992,3.2063,-28.2548,5.4869,-5.303,6.1963,-4.8492,5.354,-2.2427,11.9298,-4.5294,4.2028,
0.71067,0.83821,-2.966,-0.11892,-29.6926,0.5786,-0.88676,5.1014,-1.9064,-0.51018,-2.3488,5.1887,-1.1244,13.3508,
-1.5014,0.54673,-0.61867,-0.83491,-28.6342,-1.1436,0.37105,3.5903,-1.0694,1.6894,-2.4491,11.3851,0.14811,14.7187,
-3.3397,-4.3066,-0.58178,-1.267,-23.5417,-5.4135,1.3133,-0.96371,1.8871,5.4446,0.59059,13.5943,2.0676,3.7129,
-1.2109,0.29038,-0.54664,1.7013,-10.0778,-4.6065,1.2343,-0.42372,1.2922,7.0459,1.0369,4.1018,0.97949,3.9718,
-2.3433,0.99609,2.1375,1.8404,-16.463,-3.607,-1.0087,1.2892,2.4197,3.4899,-3.6049,-6.0265,-2.2125,8.313,
-4.854,-2.1969,3.2143,-1.8852,-29.5753,-2.1855,-3.5995,5.3089,5.4078,-1.299,-3.1474,-3.0136,-0.39278,8.0555,
-8.9013,-2.0653,-3.2453,0.63783,-28.8853,0.8379,-8.204,9.3289,-0.21912,-1.7032,-0.06625,4.3978,1.5592,8.5362,
-5.4747,-3.8696,-2.5687,5.9022,-17.9932,-1.1406,-5.7836,6.3591,1.7222,5.1479,0.90205,10.4009,0.98326,7.5421,
-3.7002,-3.1553,-0.48611,6.0302,-15.4673,-0.10804,-6.4006,4.0491,1.1367,13.9978,-0.5981,21.3463,-2.45,6.1255,
-8.058,-0.7968,-0.69791,1.0887,-19.601,-0.82446,-1.4373,4.0471,-1.1006,13.3989,2.5708,23.1985,3.7226,8.4091,
-12.8771,-2.6772,-2.5847,-5.2434,-22.7637,-13.7909,2.5053,-1.0164,-2.4809,4.4003,1.9342,13.6114,4.9455,10.7966,
-7.5248,1.5808,-0.25999,1.5794,-14.8897,-12.722,-1.2604,2.1785,1.2834,5.8235,3.9877,13.5181,2.9615,9.9083,
-4.1807,-0.44224,1.6838,1.0022,-13.5144,-7.6199,-6.0051,-0.84471,1.6883,1.1357,3.7485,2.1022,-0.10822,-2.2554,
-0.79665,0.30742,0.85965,-0.7449,-4.7498,-2.1012,-3.4758,0.41104,-5.4026,-0.61986,-2.0198,-3.5678,-1.3068,0.048869,
2.8666,1.9762,-0.87916,2.4328,1.0788,1.6398,0.34815,6.8939,-6.2837,1.5865,-4.0682,0.74364,2.869,4.1433,
0.76638,-2.4807,0.61985,-0.12327,-8.6269,-3.2789,-2.0829,3.5882,-5.4243,-5.2571,-3.8242,-7.4957,2.6968,-9.1207,
2.8896,1.7655,3.2338,3.4995,-6.9042,1.0152,-4.1271,3.6138,-7.7504,-7.5933,-3.3537,-12.5896,-0.59846,-7.8506,
8.2596,1.4184,6.1734,6.4228,6.7664,-0.73268,2.1459,-0.21818,-4.1521,-6.8965,2.3913,-14.0036,1.1244,-2.7996,
6.077,-2.2819,5.5618,3.8681,14.3142,-9.607,2.2583,-4.7846,0.67651,-5.2776,7.3093,-15.3327,2.7444,-5.7653,
-1.2775,0.50609,1.1308,-1.9074,6.4659,-7.3434,-1.9745,-2.3284,0.39495,-5.2019,5.6659,-18.9921,1.3745,-5.178,
2.4148,1.1989,3.2323,-0.58766,2.9447,0.56927,3.2054,-0.9836,0.13052,-7.5411,4.6028,-16.1651,-0.39499,0.19416,
7.0899,0.16283,1.5919,5.7139,10.9625,2.945,0.12078,3.8959,-6.6264,-6.1246,2.3982,-6.0368,-4.2279,5.9669,
2.0855,-1.052,-1.6369,3.6841,4.7614,-4.2213,-4.466,2.939,-6.4696,-3.1058,0.084948,-4.4691,-3.2511,3.4399,
4.3703,-0.024787,-0.092636,2.9808,3.9935,-3.4859,-4.1983,0.35232,-2.2253,4.3112,0.56201,3.0297,-5.4664,1.787,
8.4466,0.9408,-1.0512,3.7661,17.8539,-3.2765,-2.9818,2.2596,-1.6096,14.1756,4.8668,15.3811,-7.5483,2.162,
5.5297,-3.9364,0.45816,-1.7621,11.8417,-11.757,2.0174,-0.7685,3.3077,10.433,7.9493,10.1199,-1.7932,-2.788,
1.8237,-2.2537,-0.051497,-3.5848,-0.92011,-6.713,0.93222,-0.24022,5.5191,2.0941,8.9184,0.83587,4.0992,1.2354,
-1.6604,-0.19051,-2.9407,-4.8159,1.0631,-9.203,1.3585,0.25635,5.1882,-3.8164,7.9011,-11.748,6.7455,-0.28518,
-1.3198,-2.3482,-1.077,-4.286,5.5788,-19.0147,3.4461,-1.4463,2.7073,-6.7209,5.2579,-18.5149,5.1355,-5.3293,
1.4111,-5.8225,0.19266,-0.89537,9.3419,-16.6683,-0.85779,1.2918,-4.9267,-3.6659,2.7735,-7.0395,0.73024,-3.804,
1.326,-6.4375,0.1811,-0.84164,13.1195,-12.2942,-2.735,1.2143,-7.0412,3.3025,-0.28546,3.5058,-1.7242,-6.9507,
2.9337,1.4205,-1.9989,-0.55018,18.8402,-7.4592,-0.40171,3.3106,-5.4139,10.0943,-0.027367,5.4646,-2.3436,0.45624,
4.4449,1.5763,-4.5305,-5.0967,12.166,-9.6627,0.34575,2.871,-0.50935,1.0525,2.6254,-1.8531,-2.444,5.9725,
5.6244,-3.8205,0.080066,-5.2728,7.0979,-13.4213,1.7713,1.2525,4.3419,-4.7948,4.3965,-5.5979,3.0053,3.6859,
-4.3542,-5.5197,-0.88883,-3.5104,9.0819,-18.4008,-0.74537,-1.7149,-1.2215,-5.4717,-1.6526,-10.0829,4.753,-4.2482,
-6.2619,-2.0552,3.2621,-4.0227,6.3681,-15.6098,3.8789,-1.3708,6.3239,-2.492,4.4728,-18.3958,11.9398,-11.9468,
-4.1992,2.1657,0.41503,-5.9505,-0.5217,-10.5756,2.923,-1.0474,8.1138,1.2731,6.8553,-16.5689,12.4285,-10.9888,
-6.3574,0.58946,-4.4306,-4.1474,0.4737,-13.7975,0.81943,-2.9132,0.87808,2.6425,-1.2688,-8.344,4.9339,-3.0991,
-2.6019,-2.8204,1.1379,-0.52413,5.2655,-12.0057,1.2522,-0.81022,-4.9592,0.55579,-5.049,-5.9151,0.29953,-1.9489,
4.0621,-4.3384,1.3106,1.1945,11.9397,-3.3312,-1.9564,0.44369,-6.8313,-0.20046,-3.5408,-1.4629,-4.2982,-3.5191,
4.5415,-4.3193,-1.4194,-1.0465,16.7667,-1.9263,3.7048,-5.1268,2.0145,-0.91156,1.7331,2.7225,-3.7991,0.78913,
0.89481,-0.20349,-4.7084,-5.8042,17.6891,-5.1849,5.8929,-3.3727,4.7864,0.58963,3.0751,-0.33315,-0.19693,3.1521,
-1.328,-0.91418,-7.559,-8.5892,13.9767,-9.9355,4.334,-1.4831,0.40187,0.79521,-0.72432,-10.1951,1.0202,-2.0982,
-0.043748,-3.0287,-2.5264,-6.3871,16.7528,-15.3651,5.279,-3.5635,-2.274,-0.93995,-4.2965,-7.4145,-1.2104,-3.6598,
-2.2101,-0.19567,3.1686,-4.3164,16.9532,-12.7558,1.3471,1.2298,-1.8964,-0.16043,-6.2081,-2.872,-2.3429,-1.7527,
-2.8004,-3.7994,6.5939,-4.7806,10.8743,-10.3032,4.3993,1.397,3.761,-1.838,-4.1484,-14.5098,2.8594,-8.1555,
4.5983,-0.6791,3.306,-0.63734,22.2732,-10.1672,5.0994,-1.5791,-1.2851,-4.62,-4.8636,-14.1214,0.7594,-6.2201,
4.8045,5.1465,-0.74853,-0.11693,24.3115,-12.4494,0.93732,-1.0022,-2.6541,-5.3069,-5.5359,-7.0074,-2.6604,-4.4005,
-0.063473,3.6324,1.9475,-6.6176,11.0422,-13.3897,2.5683,-1.6654,5.4589,-3.7832,-2.0702,-12.6129,0.15033,-7.2699,
0.4225,2.9323,-0.097336,-4.7745,11.3438,-5.3557,2.8959,-0.11901,3.203,-0.66394,-4.3564,-15.7123,2.0697,1.3612,
2.3253,3.7207,-1.0558,0.33241,6.8067,-2.1418,3.6865,2.7802,2.0469,-3.5166,-9.3976,-10.4312,7.2482,6.0998,
0.4986,3.2565,1.1767,2.4821,-2.0376,-1.2904,0.33181,3.3367,-0.72699,-7.403,-14.8593,-5.708,0.78776,-0.29173,
-0.013483,2.097,3.0345,8.1175,0.9772,4.0894,-1.6161,7.4751,-4.54,-3.5846,-15.8957,-2.4728,-6.4906,-2.6841,
-0.73557,0.28392,2.1295,7.3895,-7.5176,1.193,0.65006,6.7856,-2.0984,-4.0924,-13.2548,-3.0478,-1.5214,-1.3182,
-0.45047,2.918,-1.1317,2.8488,-15.9846,2.8086,-3.4863,6.1371,-4.1417,-3.6059,-14.6291,-5.5165,0.73905,0.44808,
1.2638,2.5019,-0.34092,2.4369,-11.892,0.95286,-4.4824,3.1177,-5.5804,-2.1842,-15.4386,-8.3185,-2.4388,-3.1942,
0.94676,1.6287,0.88506,3.4957,-15.2758,-8.9865,-0.11588,2.2075,0.7802,0.1162,-10.4147,0.13457,-1.5693,-4.2076,
-2.0021,2.9772,-1.5786,-0.5704,-21.5901,-9.4112,-0.10893,4.9676,2.1796,1.5555,-7.8616,13.6239,-0.51084,-1.0627,
-1.882,3.2805,-1.002,-5.8388,-13.0641,-1.6161,0.37954,2.259,-1.3256,-3.3586,-10.7644,8.4676,-3.3727,-2.4452,
-2.01,2.8427,-1.6648,-2.8369,-5.7723,1.6143,-1.8124,4.293,-4.3795,-1.4698,-13.2515,2.8984,-4.3752,0.83503,
-3.0945,-0.94302,1.0864,-1.4619,-15.3082,-0.16951,-0.49859,7.6507,0.46275,5.1261,-9.8056,4.4115,1.9126,4.4001,
-3.3912,-2.3327,3.4314,-5.7127,-13.4256,-0.15934,-1.4325,2.8528,0.91692,2.8903,-10.663,1.2547,-0.1303,-1.6485,
-5.1157,1.6634,-0.63065,-4.4059,-1.5328,-2.5601,-0.38249,2.2,-0.10219,2.7167,-7.6129,4.0717,-4.943,-3.478,
-9.3885,0.35878,-2.28,-4.3825,-11.8049,-10.8427,3.2554,1.3446,3.0374,3.2766,-3.0588,2.1402,-1.031,-2.5464,
-12.1994,1.3013,-2.1435,-5.0836,-20.2557,-1.9967,1.6141,5.1205,3.3373,8.3829,-3.3574,8.7605,2.8875,8.2119,
-13.6368,-2.8743,-1.7737,-4.0555,-14.943,5.5947,2.2404,3.1259,4.3422,8.603,-2.9148,18.5989,0.54486,12.7806,
-11.8541,-7.5223,0.74311,0.044464,-7.2975,1.4024,2.5881,-1.8822,3.5995,3.7483,-2.7401,16.037,-3.8264,9.6034,
-9.4558,-1.5276,1.4212,3.657,-3.2445,4.9339,-0.70045,0.88208,-2.1599,3.2822,-4.7451,7.6027,-3.838,8.3041,
-10.5757,-4.0871,-0.35084,-1.6241,-6.183,-1.3882,1.9927,-0.85808,-2.7536,-1.9764,-9.5216,-0.32527,-5.7769,-3.0404,
-12.1106,-8.9033,-1.0529,-4.178,-2.6788,-6.8482,5.0064,1.3628,-0.41904,-3.0629,-10.6378,2.3456,-3.7428,-4.545,
-11.6247,-4.2715,-1.2309,-6.0965,-7.0976,-4.268,5.911,5.3786,2.7394,-2.6379,-6.8662,-8.1593,4.4353,-1.139,
-6.8298,-0.88218,0.53014,-4.0435,-13.6614,-5.2172,9.6542,4.3325,4.7442,-6.0951,-5.7309,-15.6234,5.3745,-5.168,
-4.7328,-2.9984,-1.1889,3.1888,-1.5135,-3.6989,9.3159,3.3497,-1.0841,-4.0421,-10.4487,-0.58604,-2.4198,-2.2069,
-7.8233,-5.7106,-1.1176,2.0336,5.8081,-0.10247,6.3468,-0.70768,-1.0191,2.4669,-10.7857,13.5491,-5.1667,6.1207,
-9.5233,-6.5735,-0.32738,0.70606,3.2903,2.5545,2.3504,-1.3884,-0.23478,7.8623,-5.0771,23.5822,-6.0622,11.2969,
-10.157,-7.3841,0.4154,1.8692,7.6724,-1.2139,3.8963,-0.58192,-2.3901,3.7753,-3.0855,12.2851,-5.9392,6.5215,
-9.3063,-4.7717,6.8982,3.926,14.6841,1.0283,9.6883,-0.7882,1.369,-1.0307,-2.6591,-1.2262,-1.0033,-0.85946,
-11.3993,-2.7984,3.833,-0.40669,12.1156,1.6893,4.5275,1.9104,1.5276,-1.2096,-1.7765,-1.3938,-2.1487,-2.9768,
-7.0999,-5.2816,-1.4587,-4.962,9.7014,-9.2579,4.9792,2.0368,1.6773,-1.378,1.9455,0.37702,-1.2964,-3.0392,
-4.2636,-5.4468,-2.8172,-4.1821,4.781,-4.8458,3.2344,0.46852,-2.7619,-2.2594,-0.099611,-2.5374,-3.629,-2.3747,
-7.3824,-1.2634,-0.23781,-0.07483,-3.7006,4.6038,-1.2982,3.3327,0.29615,-1.1597,-1.0577,-4.3136,-1.9647,-0.78616,
-5.0111,-3.116,-0.22377,-4.4087,6.6446,-7.2419,0.70769,0.24045,2.2068,-5.4287,-3.4042,-7.911,2.4912,-4.5956,
7.0997,1.6507,-0.93325,-2.9391,20.3459,-5.1201,6.2088,-1.4612,-3.4692,-6.3083,-6.3334,-8.1597,-2.2375,-4.0784,
17.761,8.7825,4.9073,3.504,33.2252,3.8642,13.5491,-1.3735,-1.8153,-10.75,-4.0252,-14.9009,-5.9597,-8.1725,
30.7953,17.6555,14.4948,7.8731,45.3317,1.9451,24.0643,2.3243,0.9452,-12.2742,-0.65021,-18.1042,-0.058465,-11.2976,
35.8172,16.5962,11.6974,1.6163,56.7118,-7.8126,25.9949,0.25665,-3.4498,-12.984,-4.4676,-22.3201,4.2834,-18.8144,
33.9089,10.0566,7.3799,-2.0963,67.409,-12.4057,27.0866,-2.4101,0.37235,-12.9281,-1.0663,-26.5248,6.6777,-25.6395,
31.633,11.1404,4.7675,0.6808,77.4645,-16.7226,25.2204,-0.096311,1.0729,-9.5013,2.6127,-22.7641,4.1079,-21.932,
30.2174,12.4002,11.2308,2.5684,86.9166,-26.8065,29.0098,-2.5007,7.2755,-3.1462,6.3128,-12.2393,6.2715,-15.3134,
22.1374,4.9073,14.4129,0.96778,95.8016,-30.9827,24.3767,-7.1713,7.8028,-2.9579,4.4877,-5.7203,4.449,-11.0202,
15.9889,2.6846,9.6917,2.356,104.1535,-24.7854,21.4678,-4.8124,6.8527,-5.6725,4.7004,-8.2696,7.0745,-8.4308,
4.1835,-1.0916,4.0488,-7.6673,112.0043,-35.1086,22.8311,-9.1036,10.0568,-12.8042,7.0697,-21.0296,10.2653,-12.5044,
-10.1675,-0.78517,0.67236,-8.8947,95.4017,-35.6532,17.8458,-2.5314,7.7661,-7.4566,8.3327,-17.1167,10.3723,-1.8722,
-20.0423,-8.2101,-3.9475,-5.2276,75.5776,-28.4525,14.1237,0.75373,7.5414,-4.3579,7.5916,-12.9565,13.3656,-0.55485,
-19.3217,-14.4659,-4.1926,-8.7703,61.2815,-33.4938,13.7587,-8.9325,13.8378,-4.096,10.5105,-11.2148,15.4562,-6.7881,
-24.6701,-13.8392,-5.628,-14.2696,43.5046,-42.8126,6.4255,-11.5298,11.3201,2.1751,12.0493,-2.106,9.9493,-0.35501,
-35,-18.552,-10.834,-17.993,26.7943,-42.413,2.4245,-13.9715,6.0616,1.3217,6.7466,-0.29238,5.255,-5.8773,
-33.3822,-12.6188,-9.2203,-10.1649,11.0866,-36.494,4.207,-11.2052,5.6976,0.2783,8.7522,0.20687,9.7597,-13.2377,
-33.5486,-8.2461,-3.1232,-6.9035,8.6137,-42.7403,4.6777,-6.9173,7.0432,-1.4259,13.7704,-1.9745,12.3078,-6.4176,
-35.874,-11.6075,-2.4537,-11.7917,-0.57995,-44.514,2.951,-7.9482,6.6204,-3.2683,7.1598,-2.3382,9.6409,-4.1046,
-32.5165,-10.1883,-7.3679,-6.9868,-5.1247,-34.3716,3.4971,-8.1945,7.4283,1.5073,4.5609,3.8279,10.7499,-7.9555,
-31.0477,-12.4696,-4.9981,-5.1218,-10.6018,-36.1661,3.7692,-9.6315,7.9464,3.3451,10.0718,-3.1507,11.5507,-6.5143,
-31.595,-12.2033,-1.8057,-6.2606,-9.4837,-38.3345,-1.2777,-7.6073,4.5776,0.73427,8.9855,-12.1207,4.1092,-4.6772,
-26.566,-6.4097,-3.3843,-0.82347,-5.7815,-32.4187,4.3428,-1.1251,10.8106,2.3772,12.5435,-6.8139,6.9959,-6.084,
-31.4798,-13.9786,-13.5454,-3.9073,-17.7269,-35.5351,1.431,-9.4935,7.5107,0.54758,7.2119,1.067,4.4068,-9.8161,
-36.0987,-16.2731,-12.4919,-3.9138,-14.4939,-26.8957,-6.1269,-10.129,0.070394,8.4682,3.6454,15.1029,-2.8473,3.5471,
-36.3429,-18.671,-8.8497,-7.5352,-10.7319,-26.728,-4.3128,-12.4135,1.5122,5.5502,2.945,18.1734,-4.1224,1.4063,
-32.2341,-16.1049,-7.8367,-5.637,-10.088,-24.6424,-3.5721,-11.1868,1.4215,4.7348,1.322,15.1548,-3.3932,1.8039,
-28.1309,-13.4516,-6.1615,-2.6477,-8.2777,-22.4407,-2.1527,-8.8286,2.0593,4.2096,0.51959,13.0405,-2.4664,2.9007,
-24.7561,-11.9212,-6.0327,-1.2838,-8.022,-21.3352,-1.7826,-7.5755,1.6948,2.7521,-1.6807,10.0889,-2.0775,2.9676,
-21.8242,-10.2416,-5.1884,0.23973,-7.0583,-20.0547,-1.1933,-6.1566,1.5931,1.6231,-3.0257,8.0377,-1.4705,2.7896,
-18.8275,-8.4222,-4.6361,1.4304,-6.8762,-18.6104,-0.8807,-5.5463,1.2565,0.32047,-4.5314,5.3858,-1.1413,2.8632,
-15.5289,-6.2297,-4.1174,3.5137,-5.7407,-17.2533,0.37698,-3.5267,1.4221,0.060271,-5.4648,3.3755,-1.3142,2.9323,
-11.7047,-2.4814,-2.9061,11.0159,-5.8778,-8.5049,2.283,0.54173,2.7831,-1.3896,-4.173,-4.5398,0.2109,4.2027,
-7.8691,0.8007,4.2579,9.6316,-8.6588,-7.2719,6.2432,2.1962,5.2674,-2.0294,4.0313,-12.2214,5.7416,-4.0035,
-8.843,2.1989,3.5205,8.0898,-13.9239,-14.5479,2.9765,1.5825,4.4694,1.4669,5.2357,-8.1137,7.3258,-5.2091,
-14.8204,-1.5489,1.1397,11.2194,-24.899,-22.1112,0.6283,-3.5741,6.8519,4.9938,1.7881,4.1833,3.2704,3.5392,
-19.9565,-5.5531,-3.0258,7.4132,-20.2714,-22.9534,-3.5065,-4.5647,1.8617,7.8279,0.47572,12.3686,-2.4692,5.9781,
-15.6261,-5.943,-8.8701,3.353,-4.9551,-17.961,-1.1272,-1.6395,-0.90131,10.9734,1.6522,11.8673,0.33023,2.4862,
-12.2781,-8.4787,-8.3376,1.2236,9.4422,-22.6682,4.2433,-8.2898,1.0812,-0.29006,-0.37486,-1.378,-0.17174,1.3729,
-9.8545,-1.4623,-0.84772,7.1758,10.5627,-19.6211,5.1933,-3.2134,5.5954,-3.4059,3.2628,-9.2493,3.4538,5.3877,
-5.6475,3.2049,2.3366,9.3965,12.0981,-15.3103,11.3897,5.4156,15.142,-1.0324,10.5389,-20.9867,16.5034,-3.3713,
0.95805,4.4589,3.1605,7.8687,15.2288,-14.8734,17.4549,7.019,14.7157,-1.9345,13.2808,-20.6915,17.4411,-6.0613,
0.41864,2.7453,-0.40333,3.0582,17.6898,-16.3914,11.5876,3.7056,6.1197,-1.3363,7.6639,-5.3501,7.7183,0.56914,
-4.4272,-6.0965,-8.5743,-5.8024,7.9513,-23.603,4.6254,-4.2295,4.3063,-1.7381,-0.027249,2.5635,4.8446,-3.8038,
-5.8488,-6.936,-14.5675,-7.1415,-1.926,-20.0175,0.73222,-2.2887,2.3609,0.053213,-1.7126,3.1323,7.2052,-3.8163,
-12.7285,-11.3401,-14.6576,-9.1231,-5.6666,-19.7805,-1.2397,-1.6692,1.2552,-2.3603,0.31811,-1.8761,6.2907,2.6794,
-15.0983,-15.7213,-9.1986,-9.7808,-7.0141,-23.1732,-2.8523,-6.6305,6.2413,-1.9775,1.9865,-9.2351,2.2981,7.0982,
-9.3719,-9.4754,-7.6824,-5.3375,-5.6289,-18.4084,-2.6812,-3.8226,6.3488,0.069324,2.3492,-8.1991,0.71396,1.8516,
4.2059,-0.71196,0.97327,1.2494,4.3498,-10.555,8.0846,6.5297,11.7524,2.4753,13.2955,-4.8146,14.1685,-5.9723,
6.8458,0.77679,2.8431,4.0668,9.3915,-7.5115,8.5638,7.1022,10.0834,1.8448,11.5339,-6.9359,15.2466,-2.7214,
5.23,2.4174,2.4317,7.9201,1.3564,-8.2659,4.9167,3.0609,8.7553,1.011,4.3342,-2.9045,10.2346,0.5751,
-1.1096,-4.7175,-1.33,3.3476,-10.0536,-17.1699,-5.2607,-4.595,4.1326,-1.7007,-1.9519,3.2953,0.7025,-5.9673,
-4.6584,-4.6754,-7.2758,3.3877,-1.4967,-18.3094,-9.0424,-5.5242,-0.6951,5.8731,-3.0396,12.9795,-4.8833,1.8625,
-6.5481,-5.118,-6.5983,3.4254,-1.6478,-18.4156,-2.4743,-6.8799,-0.89436,6.7256,-4.5445,10.5135,-0.010979,3.9199,
-9.2885,-7.462,-4.9971,2.497,-8.5384,-17.0697,-5.4589,-4.7799,-3.9737,-1.6317,-8.8515,2.4114,0.23065,3.9261,
-3.9109,-0.26587,-1.8052,6.2033,-5.134,-11.7072,-4.1675,1.291,-0.36131,-2.0157,-2.0539,-2.0721,-0.26513,8.5108,
-0.30156,4.0886,0.23177,10.1696,-4.3436,-9.0766,3.7954,2.6603,5.445,1.4797,2.89,-5.3222,6.0173,-1.1589,
-0.52466,3.6023,0.45883,10.7645,-5.7707,-5.3985,4.2905,8.5262,6.8055,3.56,1.0294,-5.7258,14.0924,-10.4893,
4.0863,4.1093,3.5646,8.9136,-1.8088,-0.49509,5.7206,6.8096,10.9767,1.177,5.0652,-7.0692,13.0057,-7.2086,
0.7079,1.2115,-0.26473,8.1378,-0.013022,0.25751,0.3161,1.3393,2.8463,-1.0627,3.5565,-2.0658,-1.0311,0.21375,
-13.3141,-6.0921,-6.9978,4.2751,-13.5101,-3.6143,-6.9342,-0.18731,-6.4835,1.8931,-1.4776,2.8784,-4.8256,3.093,
-18.0589,-11.7521,-8.7468,-3.4532,-26.7995,-5.5669,-7.2408,-5.7195,-3.9251,3.467,-3.0764,3.4288,-2.8491,4.5949,
-15.77,-11.7701,-14.2476,-6.3793,-36.6399,-1.135,-11.3861,-7.0635,-4.8949,4.4642,-4.0967,8.2848,-8.2213,8.8985,
-18.6802,-12.9921,-15.8031,-8.4067,-30.1028,-2.9954,-10.2208,-7.6038,-5.5653,-0.14217,-1.9229,3.9315,-8.2102,3.0621,
-13.7033,-5.4641,-6.6604,-0.67187,-17.2101,0.076657,-1.413,-5.2196,-4.7492,-2.544,0.12042,-0.64337,-3.3795,2.3962,
-6.8553,3.782,1.6934,9.7328,-11.5977,7.5439,3.7334,-0.32669,-2.2951,-2.6323,-1.0916,0.60053,-1.9714,9.7243,
-4.2746,5.7245,9.5456,10.8363,-12.5886,9.7428,11.9456,4.7546,10.617,-2.7154,7.41,-2.0866,7.0649,5.5259,
-6.4285,5.381,8.9728,10.668,-7.9769,13.0146,13.6394,7.8438,12.3906,2.2683,12.75,-1.9614,11.4618,-1.0727,
-12.7917,-4.583,-0.24242,6.6535,-19.0677,2.1106,3.1798,-3.2324,0.5597,3.0958,3.3081,2.4948,-2.2416,-2.9367,
-11.783,-8.4056,-0.951,5.5314,-24.4313,-4.5237,-2.0729,-8.0999,-4.0534,6.5257,-3.3981,14.6374,-10.0611,3.2653,
-14.6916,-7.6603,-4.9913,3.0299,-18.8681,-1.1193,-1.7075,-4.4809,-3.0873,6.3751,-2.9532,13.0358,-7.2882,1.864,
-17.6663,-5.2723,-8.0663,-1.4902,-15.3259,-2.016,1.2875,-3.7296,0.95433,-0.75627,-0.36592,-1.7256,-2.9941,-0.65793,
-9.6167,6.372,0.37168,6.5529,-5.9704,7.5047,5.7897,5.8939,5.9585,0.012238,6.6457,-6.6835,3.2109,11.1919,
-4.9423,8.1589,7.339,12.6674,-7.2994,11.152,9.0575,9.1555,9.6986,-1.1936,10.3445,-10.3801,9.044,13.1713,
-4.8867,6.4645,4.2476,13.1127,-9.5123,5.4212,6.3449,5.4731,8.8757,-1.8448,6.5904,-3.7317,7.2961,6.3559,
-12.3063,1.2561,-5.6487,7.0233,-9.9059,-0.68863,-3.6767,-0.63984,-2.7441,-4.1447,-1.5178,-0.61532,-3.7465,0.67189,
-10.3629,-0.024526,2.644,5.8788,-4.7323,1.5218,3.5337,0.12145,-0.89219,-3.1727,2.1887,-1.7837,-2.7988,4.7289,
-4.4385,1.9054,4.8961,6.9725,0.85454,1.9127,4.7677,-0.36754,-6.623,-3.4645,-1.3169,-1.1945,-6.9695,2.9992,
4.9869,6.6115,6.5303,14.2667,7.5519,5.1726,6.4101,1.1005,-7.1897,-2.2925,-3.6482,0.80559,-4.1409,-1.0374,
3.9645,5.0095,7.8257,12.6878,3.9653,9.4416,4.3383,5.1319,-4.1072,-4.3241,-3.1884,-1.8943,-1.7233,4.5685,
-4.7092,2.0579,-0.59754,5.4186,-4.2263,8.6341,-3.8758,5.5473,-5.0661,-3.3418,-1.7918,4.7273,-6.1992,14.1763,
-9.006,-1.1989,-7.0694,0.51443,-9.9985,-0.80179,-4.8483,-2.2576,-5.4848,-2.4182,-2.4074,10.9514,-7.0323,4.8898,
-9.4299,-0.16282,-6.6455,-1.4451,-6.5063,-1.7178,-5.0396,-1.158,-5.6379,2.5474,-4.1914,9.8121,-5.6463,-0.706,
-10.7923,-4.4918,-6.2467,-3.7685,-8.5261,-6.4354,-4.7372,-3.0167,-1.4432,4.3228,-2.9756,-3.3101,-3.3793,-1.1456,
-0.26263,1.8035,3.0464,8.7499,-12.594,-2.4337,5.9111,2.2257,9.9713,8.6429,8.049,-4.7985,5.7413,-0.8361,
-3.8625,6.2745,2.6222,11.3582,-24.6128,9.0401,-1.4334,9.564,3.8294,4.027,1.5405,-2.3414,1.7814,-3.437,
-4.5949,3.4882,3.9109,5.8562,-33.7411,19.1032,-6.1679,12.8468,2.6356,0.41115,-2.4085,-3.647,1.1923,-2.7486,
-0.70375,-3.7112,-2.8315,4.2997,-45.8167,19.1616,-15.68,2.6757,-4.5122,-0.81905,-3.951,-1.7411,-6.8332,0.54907,
1.0257,0.12687,-2.4202,11.0316,-57.1677,30.3045,-18.8365,4.2024,-5.9287,10.0764,-0.58047,12.4633,-9.5562,14.6161,
-2.1691,5.1809,5.6788,8.2001,-67.8376,42.225,-18.4297,9.0119,-3.4038,14.5335,-5.1254,25.8155,-8.2599,27.1163,
1.5765,6.5573,7.9891,12.7698,-69.1905,46.1989,-20.4569,13.5329,-6.3326,14.8667,-8.4333,38.3666,-8.0053,36.8175,
2.6867,2.5482,8.2329,17.0651,-74.439,38.3656,-19.9526,11.0335,-6.1939,13.7335,-6.7222,41.9697,-9.6944,31.9571,
-2.7769,7.216,8.2209,14.113,-75.7573,37.0275,-19.2374,11.8177,-5.3403,11.9452,-5.8365,25.9541,-7.6665,19.4348,
-8.1537,10.8804,5.0765,13.9895,-68.5605,40.8318,-19.7704,15.688,-3.8146,6.1673,-3.7991,11.6224,-3.591,13.689,
-6.9416,4.684,5.0129,13.3911,-63.7238,33.3203,-16.415,13.0595,-0.93461,4.11,-1.8844,7.7916,-5.5447,12.1448,
-2.1865,5.849,5.6762,10.1773,-54.1158,23.608,-14.948,9.8655,-0.8783,9.1658,-1.2891,11.1807,-7.1405,11.4159,
-3.9835,6.4621,2.4434,2.818,-50.3869,14.479,-14.5332,3.4892,-1.3078,4.7597,-1.2116,3.7612,-2.3735,5.9104,
-3.9855,6.3161,3.9842,8.1928,-44.2302,21.0819,-15.3482,4.003,-4.3626,7.1255,-1.3801,11.0076,-1.9899,10.6177,
-3.5054,6.6598,4.9502,14.2084,-36.5149,31.1454,-16.5967,9.7882,-2.8957,15.6158,-2.5023,24.4471,-4.0399,18.8985,
-12.936,0.95777,2.7248,5.6434,-42.5187,22.528,-16.0831,7.7548,3.5447,11.3046,-3.3163,23.1005,-1.8691,16.3185,
-18.4266,0.41814,0.63334,1.9306,-46.2343,20.2122,-17.0461,9.6999,1.886,15.9287,-1.6713,21.7147,-2.721,15.8216,
-11.2955,1.116,-0.12802,3.9839,-41.7731,17.3122,-16.2643,7.9131,1.0495,20.0347,-0.36571,29.3295,-3.7631,9.8106,
-1.2177,-1.1202,0.12063,6.8779,-26.9744,9.2836,-12.6373,5.2687,2.6738,13.7709,-0.1028,26.3649,-3.7782,6.0885,
-5.7242,-1.7759,-1.5734,5.2604,-20.7764,6.5574,-11.6381,1.3371,-2.0659,6.4367,-0.3376,10.683,-3.3106,7.8923,
-8.0321,1.464,2.6181,1.811,-33.2686,6.8867,-9.2528,-0.43009,-0.25499,2.9173,3.7798,-4.058,-2.3888,5.2494,
-2.2473,4.7506,1.9791,1.7028,-30.3079,11.7766,-11.1073,5.3803,-0.72163,1.2964,2.5891,-0.68128,-6.1019,7.345,
0.77987,1.573,2.8247,4.4927,-14.3895,19.2647,-5.6206,6.5037,0.28554,1.2187,-0.94067,8.0367,-3.3256,11.2427,
-1.4363,-2.619,5.3061,6.3926,-10.0316,14.4932,-6.0065,0.087734,-4.793,-0.05999,-4.4994,5.867,-3.3673,7.4348,
-0.38581,4.7693,6.9161,7.9374,-12.3218,7.8392,-8.5384,7.3135,-5.4696,-1.5024,-2.301,3.5871,-1.7188,7.4709,
-0.12192,-0.57858,4.8139,0.95324,-13.7519,1.8253,-6.3389,4.2232,-2.9722,-14.1867,-5.7789,-10.7282,-1.8566,2.9248,
6.1519,-0.54386,5.489,6.1982,-12.9267,6.0541,-6.9229,3.0055,-3.2758,-9.4791,-6.8784,-10.6876,-3.1915,7.5701,
10.3625,3.1042,6.3649,13.7805,-14.8022,0.62959,-8.6767,5.4767,-2.8383,3.3821,-3.3322,2.7286,-5.6511,6.393,
16.2487,5.5695,7.6703,11.7484,0.1859,2.761,-5.0226,2.9789,-2.427,-3.8107,-3.8552,-2.4968,-6.0354,1.912,
26.6015,13.1891,9.3792,13.2127,14.2747,16.6953,-2.5521,4.0055,-7.825,-12.0177,-9.1675,-7.4087,-4.9499,10.7149,
33.6825,13.3616,10.2627,12.9023,27.5183,24.9729,-2.3989,4.729,-13.1401,-11.779,-14.402,-6.4822,-9.9555,5.2518,
40.0975,11.8372,6.9956,9.9588,39.9672,20.8236,-5.3883,2.2763,-18.859,-14.6875,-20.5275,-10.6724,-20.2042,-9.1633,
50.2251,15.9472,9.9503,9.3612,51.6691,26.8046,-1.691,-2.199,-21.1023,-21.519,-22.6703,-21.1197,-19.4744,-21.2675,
60.2268,22.221,14.6557,7.8355,62.669,25.6785,4.6772,-6.8876,-22.2461,-25.0484,-22.7561,-29.0113,-17.3418,-17.0992,
63.6031,24.9856,12.0892,7.6063,73.0088,21.9686,5.6019,-2.3769,-23.5629,-23.3045,-23.078,-31.8499,-22.8088,-18.2424,
60.2688,20.112,10.4,5.2217,82.7283,18.7223,7.6764,3.0683,-18.2923,-29.1371,-21.2114,-39.098,-19.0301,-28.2351,
57.1346,22.7616,12.668,6.8366,91.8646,22.9012,10.1078,0.95602,-14.3027,-28.3527,-18.0105,-37.234,-10.1756,-25.5766,
56.5991,25.2523,12.8723,9.8009,100.4527,22.4914,12.8754,-2.4758,-10.0705,-20.385,-13.0735,-30.1797,-6.1906,-19.2218,
51.9976,19.1577,11.8587,6.5615,108.5256,14.1518,12.826,0.32408,-4.8868,-12.1723,-6.7457,-19.4511,-6.0603,-16.8634,
34.7777,11.5005,1.265,-2.2681,116.114,5.8311,1.6923,1.0278,-10.6189,-10.2369,-10.4381,-10.3301,-12.2044,-17.0567,
29.9195,12.9796,5.2865,1.001,123.2472,2.3478,6.6525,-2.6493,-3.4743,-8.4174,-8.1246,-6.5768,-4.4823,-11.9359,
31.2581,10.9958,8.103,5.0385,125.855,-3.8184,6.0126,-6.1056,-3.0246,-12.9738,-6.914,-17.9925,-0.5977,-7.6041,
27.4544,9.8541,6.1706,6.1825,111.5548,-5.9994,2.2774,0.52729,-5.2533,-14.6055,-3.6066,-28.9641,0.88443,-12.9324,
22.9144,10.7089,9.6565,4.8474,90.7615,-11.4243,7.4431,1.4598,1.3282,-7.9448,1.4298,-28.1908,2.2769,-18.4232,
18.4062,12.2358,10.7646,7.2079,76.0361,-13.3901,8.2016,-2.7254,1.0078,0.0034653,3.0315,-15.6528,1.4176,-8.4,
15.3739,9.0913,12.0471,7.2576,64.7257,-11.1402,8.1917,-2.5617,1.4295,-0.96038,5.7419,-10.8571,6.635,-8.3782,
11.0772,4.2072,9.3959,3.9299,46.7422,-11.9183,2.3978,0.96626,1.8259,-2.3492,3.9513,-9.7239,5.2728,-12.2136,
1.7355,0.098407,2.0837,2.7302,29.8376,-15.0591,-4.9769,-1.0199,-1.1762,-1.244,-1.1065,-6.7299,0.61812,-6.1781,
-0.055843,0.33347,5.5741,6.6637,23.2269,-16.3252,-0.58097,-1.6816,2.5098,0.035964,-1.281,-6.0851,4.6784,-4.1207,
0.67041,0.072494,4.9982,6.0225,24.4839,-17.9972,-3.1977,-1.3402,-1.2562,-2.1358,-4.3377,-7.8897,3.1924,-6.0426,
2.5584,1.032,3.252,5.1792,23.9792,-15.9531,-1.0772,-3.1875,0.74736,-2.4896,-1.1849,-11.7546,3.9652,-5.68,
0.71811,2.1754,1.8521,4.6275,17.4792,-10.4162,-0.77156,-0.34518,1.4259,-3.0631,2.5016,-22.8594,3.9682,-8.4723,
-1.4944,3.7323,1.4998,2.1805,13.7792,-4.7297,-5.3048,2.8088,2.5454,2.1821,7.413,-17.8727,5.4171,-4.3487,
-4.7789,-0.83017,0.44568,-2.2885,7.65,-12.159,-6.4325,-8.4467,6.7308,4.4615,6.486,-2.7003,4.6104,2.6609,
-7.3845,-1.2625,-1.0271,-0.22319,3.8168,-16.7318,-5.5644,-6.9758,2.9527,4.1936,0.79447,9.8749,1.9234,5.3935,
-9.1108,-2.3918,-0.24233,-2.3787,-5.8125,-15.0048,-2.0973,0.43235,2.5348,2.7369,3.3981,-3.4923,5.9056,-2.8841,
-10.2518,-6.3461,-2.3974,-7.2981,-15.8281,-13.864,-2.2129,-4.6553,7.4439,4.7419,9.7017,-7.8625,9.6482,-10.1828,
-14.698,-3.3138,-8.2791,-5.655,-10.781,-9.4163,-1.3567,-2.6887,11.0946,9.0367,10.3249,3.9379,8.3464,-5.9564,
-18.1546,-3.5972,-7.7821,-10.1361,-6.2775,-6.4414,4.9909,-2.5272,12.8393,3.674,9.7052,1.7732,8.8097,-6.5631,
-13.4499,-6.0324,-5.146,-9.7689,-4.6961,1.4169,3.9686,-4.5447,4.5972,-0.64382,8.8819,-0.020386,6.1119,1.3024,
-7.3405,-3.7425,-1.945,-1.4698,-6.3423,4.2242,4.2126,-1.3797,3.3572,1.8052,7.3849,3.3551,5.745,15.3243,
-9.3102,-4.9638,-1.3464,-3.3098,-9.8181,-2.2958,6.37,1.1132,6.0483,1.6969,3.0854,1.226,2.5082,5.6077,
-9.7155,-3.7016,-2.7114,-4.5575,-0.069984,-0.71179,5.9883,1.5288,2.7929,4.9695,4.8285,4.0445,1.8758,-5.334,
-6.9636,-1.793,3.9586,1.2593,2.1031,0.53598,8.7618,-1.2147,3.8304,0.091815,7.1901,-0.29573,5.8604,0.047454,
-6.3046,1.9303,7.8186,6.7276,-2.1202,1.2269,8.9592,1.0275,4.3237,-7.3853,2.6611,-6.7852,0.9297,3.6603,
-8.5776,2.0556,3.2524,6.0828,-3.6804,1.8765,7.6985,0.7247,3.3411,-8.1477,3.7065,-5.6555,-1.7774,2.2351,
-14.5707,-5.0578,-0.076478,-1.2718,-13.3418,1.5227,3.6214,-2.934,2.8995,-2.5974,8.0636,-1.7005,1.4625,7.1625,
-19.2396,-5.4772,-3.6868,-7.703,-15.1923,3.6009,-0.2113,-0.10638,1.5207,5.9946,4.9287,6.3553,1.1338,10.8305,
-16.3987,-4.9079,-5.6355,-12.3027,-9.7013,-2.159,1.9703,-3.2337,0.7063,2.9836,-0.91085,9.1072,-1.1036,0.29853,
-8.4247,-1.9616,-1.6813,-5.0564,-13.6987,-2.7526,1.6114,-2.7985,1.3871,4.974,-0.13261,18.9249,-0.31429,3.4139,
-11.0524,-2.567,0.10662,-2.1022,-20.8308,0.063921,-0.65472,-1.4255,2.5089,9.737,-0.36585,16.1024,0.90963,7.3066,
-7.4972,-0.0028945,3.4747,-2.458,-5.4809,-0.42185,6.6154,-0.37567,3.3227,0.47567,-2.754,1.0363,2.3013,0.60171,
-2.2267,3.8537,0.85561,1.5459,8.9479,-3.2891,5.7365,3.0209,-3.1436,-12.0859,-7.4095,-13.1259,0.71698,-0.88065,
-5.2266,1.4533,0.080915,1.2122,6.4829,-10.0816,6.1153,2.5986,-0.30393,-7.2634,-4.7958,-8.9644,5.7352,2.3052,
-8.5286,-5.1416,-2.5753,-3.9225,-1.8601,-14.5381,2.1332,-5.0293,-1.0088,2.0903,-4.2673,5.6735,1.2939,1.9257,
-2.4731,-5.0743,-0.25136,-0.071457,12.3515,-10.5326,-0.16423,-4.9683,-4.5635,6.5444,-5.2163,11.9613,-3.3632,4.9439,
3.2189,-3.5646,2.4153,3.5483,10.5261,-6.7672,1.5329,-3.9473,-5.0126,5.9107,-6.5906,13.8952,-2.9205,6.8164,
0.85663,-1.6635,-2.7913,0.68426,4.8333,-2.7457,-3.1384,-2.9871,-8.3272,6.7614,-5.4718,21.0152,-6.3606,9.5409,
-4.0152,-1.5634,-5.5161,-4.6592,2.6149,-5.4733,-0.057812,-1.3618,-0.11461,5.3916,4.4977,14.9338,-0.1942,5.5942,
-7.8719,-2.1928,-6.8722,-8.9596,-4.0497,-9.7244,1.6327,-1.0389,4.9537,-1.4396,6.8792,-0.062237,5.8432,-2.2135,
-3.0611,1.795,-4.0495,-3.1192,2.9419,-4.3204,1.053,0.46944,4.1743,-2.3173,5.9843,-4.5171,6.4567,-0.15223,
4.1123,1.9285,1.2549,0.68316,10.7194,-7.1945,2.1949,-2.692,2.7188,-0.0093592,3.4558,-4.4872,3.418,0.57958,
7.4807,3.9817,-3.4003,2.3292,10.317,-6.5221,-1.5525,2.531,-2.5062,0.71433,-1.813,-2.0491,0.079212,1.7499,
8.4784,2.2968,-6.0881,2.6716,7.77,-4.2023,-0.97716,5.7533,-0.90937,0.18931,0.22378,4.3406,-1.3716,2.127,
3.3901,-3.8664,-4.0359,-3.514,7.545,-9.9755,-3.5698,-4.4736,-0.13167,4.7579,4.3079,7.6958,-4.4225,-3.544,
-3.0798,-0.74232,-4.2756,-4.2675,6.6099,-9.3774,-5.7658,-6.1333,-2.052,13.631,5.0138,13.5006,-0.3008,-1.4031,
-3.6184,-1.4211,-5.7063,-3.2886,1.1516,-9.0557,-4.215,-2.6323,-1.6879,8.2339,1.0975,18.7161,1.4045,8.563,
-2.6781,-3.0229,-4.1589,-3.332,0.84178,-9.2355,-8.0592,1.6232,-3.756,1.2321,-4.0302,18.7982,-5.1875,12.6287,
-1.5531,-0.43137,1.3933,-0.24001,-4.0294,-5.3069,-5.6475,1.5258,2.2539,-0.76999,0.068435,5.1373,-0.055537,2.712,
2.1553,3.6921,2.0328,0.49752,-7.8848,-1.8548,-2.6573,0.22921,2.3599,-8.1954,4.1619,-8.9095,6.9374,-0.58401,
0.097757,4.9168,-2.9099,-1.4605,-2.1091,-2.2259,-7.3186,2.6256,-5.4945,-11.0781,-0.42658,-9.8212,1.2185,4.2717,
0.091891,3.1756,4.0136,1.5196,-0.054785,-4.9849,-2.5411,-0.42447,2.548,-5.5932,-3.2935,-10.1963,1.1454,0.64099,
0.80951,3.7082,4.9779,6.4899,0.67209,-3.4803,-1.6655,-3.5318,4.0826,-2.6062,-1.8904,-7.4151,0.35358,-1.0845,
-6.7109,1.3165,-3.7569,2.4851,-11.6608,-4.9587,-4.2167,0.29507,-0.26021,0.20122,2.3204,1.4655,1.5377,-1.7428,
-16.9135,-4.5475,-6.9055,-6.8231,-25.0611,-11.892,-4.4461,1.2417,4.5761,2.1173,3.627,1.86,8.1938,-8.3871,
-16.8626,-1.3819,-7.9377,-6.4134,-9.4574,-8.7681,-4.661,3.5775,7.1938,-2.3482,0.99946,-3.5545,9.6306,-3.0634,
-6.6918,2.5571,-6.0149,-1.2081,5.21,-2.4577,3.3312,0.95254,3.8699,-7.0278,0.45733,-1.8948,5.6786,4.8334,
-0.98809,3.368,-3.2439,3.2027,18.9974,-7.6129,5.0595,-4.4073,-5.5213,0.62467,-4.8728,7.378,-2.8573,3.0971,
-4.7847,1.2378,-2.0849,1.5642,31.9576,-20.6534,-1.5106,-7.0349,-9.0464,2.5154,-9.4006,4.0428,-7.0242,-3.3552,
-5.2208,0.44037,3.1016,4.1217,29.9196,-17.2448,4.1239,0.37685,0.89614,-1.2507,-1.847,-1.7432,1.8332,-2.9131,
-11.1745,1.3778,-2.3871,1.4643,22.3399,-10.9075,5.3223,1.3181,3.253,-3.1039,2.1202,-6.4593,7.0258,-6.5947,
-11.9501,2.2592,-2.7261,-5.8546,12.8045,-12.6634,4.0388,-3.5815,7.3959,-6.7743,8.2598,-18.1231,9.0142,-10.5371,
-8.3408,-0.7686,-2.0803,-6.4675,16.8567,-15.7602,-1.9879,-3.3663,4.0598,-16.9729,6.3177,-27.6408,4.1352,-7.0126,
-4.948,2.652,-3.8837,-0.29484,23.0762,-14.3322,1.5054,-0.27231,2.3704,-18.3646,3.0466,-27.4286,8.7074,-7.5562,
-7.3022,3.6984,-2.4456,-4.8562,13.7376,-18.5337,5.5127,-1.461,7.2897,-10.2731,5.997,-27.4699,11.3186,-14.5744,
-8.5513,2.2709,-2.5396,-9.1443,5.9237,-15.7347,-0.84341,0.31363,6.1291,-1.7027,6.3603,-14.0113,3.1675,-8.1566,
-7.0742,1.1708,-2.8696,-6.1856,2.1939,-10.9342,-0.79281,0.29527,6.7257,2.2558,5.9787,0.92937,3.9418,-4.2927,
-11.2295,-1.5512,-7.7589,-7.5019,-0.58909,-15.3401,-4.8433,-6.7125,3.6704,5.2537,3.4506,11.117,3.4636,-6.6865,
-12.4837,-7.2425,-11.6319,-10.4255,-0.071584,-19.2397,-8.4084,-10.166,-0.40598,5.9026,2.7619,5.1476,1.8102,-5.3212,
-2.8168,-6.567,-3.4622,-4.2568,1.6199,-13.988,1.4957,-3.5305,6.6083,0.96915,8.1398,-6.4895,9.6553,-3.3147,
0.48547,0.33499,0.36095,2.5065,1.2818,-9.0514,-0.76324,4.6351,5.0065,-2.2225,4.9998,-14.0539,7.3888,-7.2132,
3.5898,2.4838,4.9188,6.4532,6.7483,-8.7495,-3.3688,4.5982,3.9829,1.5261,3.0128,-5.7391,0.43776,-9.9136,
1.6874,-2.7267,2.4548,3.8971,9.959,-8.4652,-6.7818,-4.1136,-1.7994,4.5682,-0.30118,8.7053,-7.0601,-3.2935,
-2.2702,-3.5269,-3.4776,4.1452,5.0227,-4.5829,-6.3749,-0.97471,-3.1377,11.525,0.68075,22.283,-2.2982,5.0993,
-9.8472,-6.2078,-7.6072,-1.4061,-9.3787,-16.3594,-5.9924,-0.4343,0.42501,4.5665,0.63991,6.846,0.73179,-5.33,
-8.2921,-1.4968,-3.7766,1.0886,-9.6593,-14.4138,-5.1507,2.0021,2.8099,-0.046058,3.9757,3.1815,0.20618,-2.5999,
-8.9998,-6.4687,-1.8628,-0.66396,-11.7313,-12.8261,-3.1549,-0.76956,3.8461,-2.6948,5.9064,0.33905,1.8806,-2.6848,
-4.6032,-3.67,2.1054,2.7503,-15.8477,-7.7177,2.337,1.2053,7.9541,-4.4609,8.9264,-7.876,8.5166,-7.8264,
-5.2911,0.88831,0.53304,4.9957,-11.5226,-6.2906,-1.6593,2.579,6.0304,-10.9419,5.0166,-20.4189,8.4878,-8.3209,
-4.9739,-1.0932,6.2856,2.2853,-7.4568,-15.0722,0.85034,1.9423,9.5249,-9.3215,5.1976,-21.6041,9.9067,-5.8935,
-5.8803,-2.2327,2.7752,-1.9489,-10.1427,-15.8548,-1.852,4.959,4.3744,-0.32634,1.7524,-6.2078,3.7689,-12.0476,
-3.5995,-1.1346,2.6085,-1.3503,-5.6779,-13.4575,-1.7407,4.6617,3.1474,-0.78892,1.6471,-3.3045,3.5426,-9.3963,
-1.4553,-0.10242,2.4522,-0.78708,-1.963,-11.686,-1.6364,4.3818,1.9944,-1.2237,1.5485,-3.1065,3.8117,-6.4226,
0.56017,0.86805,2.787,-0.73986,2.0116,-9.5385,-1.5383,4.1189,0.9109,-1.6323,1.4556,-2.9196,3.5835,-4.1091,
1.9726,0.81551,2.1374,-0.69547,5.2649,-8.0024,-1.446,3.8717,-0.59001,-2.4986,1.3682,-3.2269,2.8861,-1.9343,
3.3005,1.249,1.5277,-0.65374,8.3234,-6.5579,-1.8411,3.1575,-2.0009,-3.3126,0.8042,-3.9971,2.231,-0.37201,
5.0309,2.1381,1.4358,-0.13235,11.1983,-5.2003,-1.7309,2.4859,-3.3269,-3.5955,0.27379,-3.7575,2.0974,2.0607,
14.611,3.6971,6.4113,3.9729,14.6242,-2.7191,2.4708,2.0958,-2.8863,-6.5133,0.98072,-3.773,3.1763,4.5886,
12.7702,4.9213,7.9546,7.5907,20.4949,-0.62803,-1.0522,1.0059,-5.6054,-9.0148,-1.0065,-3.5469,-0.87085,1.9024,
9.3529,5.8313,9.647,7.3767,18.5424,-3.7234,0.6982,-0.25972,-1.6536,-3.4122,1.223,5.1021,0.86909,-3.7549,
1.3199,2.3479,0.632,1.8724,3.6915,-5.6691,-2.9591,-0.96704,-0.83107,-1.0383,-0.055207,7.9294,-2.3165,-4.2525,
-4.7853,-0.92644,-4.9495,1.0367,-3.0379,-2.6779,-3.0225,3.1883,3.7981,-3.6276,3.0811,-0.98247,1.4379,-3.7568,
-4.7389,-4.0039,-1.0371,-3.1224,-7.9169,-10.471,-1.154,-0.61838,7.1856,-3.1685,5.0654,-7.431,7.3771,-11.4851,
-5.4189,1.0566,-0.011043,-2.9355,-18.0472,-14.6634,-4.4592,-2.9914,4.8263,5.2163,6.2078,-1.2006,5.9702,-7.4216,
-4.1294,1.9575,-1.9381,-0.34878,-19.8564,-9.9272,-4.6736,-4.7401,1.1623,2.0113,2.9432,-4.0206,-0.65454,0.73649,
10.2183,6.1784,3.9623,8.3488,-5.6501,4.7684,-4.3931,0.84648,-7.1026,-0.51999,-6.3929,6.8255,-4.9536,14.7923,
14.7874,4.3619,4.2069,9.2941,-16.3978,18.5823,-11.3604,3.2063,-11.4967,-0.97072,-14.2035,20.3957,-10.9229,22.9435,
9.3206,2.4127,1.7851,9.4596,-29.5139,19.8777,-10.4376,7.1115,-2.371,0.77452,-8.2899,17.9669,-9.0624,17.9513,
6.1098,4.9191,-2.9013,9.133,-34.3715,19.408,-12.4629,5.9614,-3.916,5.7897,-3.6951,20.0219,-8.7597,18.0795,
9.8408,4.3832,0.88801,6.898,-32.068,17.5208,-10.0276,1.9886,-3.4398,10.9857,-0.34016,31.1129,-6.0652,19.1637,
8.7685,-0.21813,1.3167,2.1458,-39.303,17.4334,-7.0159,4.2794,-0.82332,12.7372,-1.766,29.7285,-6.1832,15.1218,
5.5908,0.035465,-3.3416,1.2937,-35.74,21.4486,-4.9077,3.7816,-0.53296,18.4804,-1.4191,27.2214,-5.5712,17.3475,
5.9782,-1.1715,-1.9363,0.97512,-30.944,18.475,-2.4441,-1.025,0.70431,17.6126,0.83522,26.7934,-3.5497,21.3683,
8.2713,-0.86001,-1.5789,4.5323,-25.4717,19.0535,-3.0205,6.5085,-1.9893,9.5662,0.06244,22.0526,-4.0599,20.8094,
2.9546,0.63762,-4.3765,5.7064,-29.2463,18.8743,-0.42896,8.0464,0.54044,-2.0948,1.9867,6.6294,-2.8522,11.3659,
-0.83858,1.3223,-5.3192,2.7124,-31.107,16.0547,1.7659,0.57378,3.1591,-8.4771,4.0366,-7.8683,-0.51189,4.6584,
-1.0292,2.4482,-3.7947,1.8263,-25.1432,16.2967,1.901,2.2261,1.2823,-2.4248,0.66093,-7.6374,1.2061,4.1374,
-3.8593,-3.9654,-4.5311,-1.657,-30.383,13.3909,2.751,2.5752,1.2056,4.4693,-4.1987,-5.7332,-2.2405,-0.4489,
-5.074,-4.6914,-11.9721,-3.4858,-29.5242,15.4795,0.1758,2.9026,0.65136,13.8426,-1.5367,8.7108,-5.4806,6.3269,
-7.9033,-2.2409,-14.8694,-8.3386,-27.03,16.2377,-0.55787,1.041,-3.4858,19.5193,2.1707,22.2882,-1.5365,11.4907,
-4.5366,1.268,-4.3358,-8.3202,-22.0333,19.1203,1.4038,2.9067,-7.6145,21.7226,1.5585,34.4485,-2.4082,12.7295,
0.55634,2.6381,-1.1836,-3.0003,-14.9267,20.8652,-0.60863,6.1068,-9.5682,20.4192,0.018751,40.5763,-8.5302,18.7146,
0.28153,-1.1356,-2.7998,-2.5793,-14.7545,17.4441,4.0072,4.5351,-3.4505,14.6143,1.7049,32.1161,-1.5109,14.4582,
-8.171,-1.3089,-8.1754,-6.5223,-17.4846,17.1203,2.0795,1.6119,-5.895,5.7837,-0.084665,16.0892,2.1951,5.6365,
-5.2706,0.21594,-8.1668,-5.6491,-15.9536,18.0213,-0.93731,-0.41303,-4.577,1.0984,1.8486,5.8441,2.0634,4.3345,
6.3736,2.3724,-4.0616,-2.1764,-9.935,15.253,0.32399,-2.0757,-3.0973,1.2732,2.4608,10.073,-1.676,3.3513,
8.6427,3.9173,-2.6126,-0.84098,-4.2772,15.0608,1.0275,5.0387,-4.5987,2.8841,-0.33838,15.0122,-4.7085,4.3555,
9.5704,-0.6561,0.43664,-1.2725,-5.4668,13.6752,3.8583,9.0752,-0.94832,0.3009,1.6101,11.7013,-2.0159,8.9144,
10.4424,1.7934,0.89238,0.73255,-8.0309,10.4445,-0.22956,3.7099,-2.3372,0.28284,1.0316,12.9274,-4.305,11.7545,
5.9593,7.4706,-0.12526,1.1703,-9.9594,4.9974,-1.1799,0.11312,-0.75096,0.74803,0.96991,10.2238,-4.0465,4.7825,
-1.6294,1.2376,-3.9744,-3.7204,-17.0748,-2.0516,-2.5556,-2.304,3.1503,-0.74334,2.3577,0.93307,-0.42994,-4.1818,
-4.4237,-1.2468,-6.146,-1.0871,-21.3527,1.9279,-5.2943,0.72628,0.55111,5.0863,2.2163,4.2515,2.9703,-2.0027,
-1.7477,-2.6183,-1.9209,-1.5038,-21.5176,0.36642,-1.1203,0.20077,0.036114,4.2992,-3.2193,8.8172,1.3463,0.046099,
4.3823,-1.2563,1.3279,-1.6545,-13.7191,-2.7891,-1.294,0.42969,-0.68941,4.7641,-3.7491,17.2057,-1.386,5.1046,
5.5658,0.74746,-0.67978,-2.0374,-12.8957,-0.21135,-5.5545,0.40414,-0.64782,8.8168,3.2245,20.03,0.14361,8.6549,
1.6165,-4.841,-2.8086,-6.4944,-16.2193,-2.3678,-8.8366,-2.7536,1.0783,4.1905,3.272,8.4643,-0.58837,6.4484,
4.653,-1.4171,-2.3987,-3.9356,-1.5078,-2.9487,-6.6192,1.5094,1.2545,2.7338,1.3885,7.7155,1.1342,7.7487,
3.4097,0.59639,-1.2906,-5.1455,0.51106,-8.5566,-0.43769,1.4186,-0.26676,-0.80449,2.2693,3.396,6.8509,-0.91116,
1.7586,-0.40395,-0.24957,-5.8013,-4.8225,-3.2227,-0.89359,2.2976,-0.73291,-3.1666,2.6153,-3.0745,6.9216,-1.8206,
2.3762,0.34342,-0.95727,-2.3195,-3.3276,3.4784,-4.4552,3.8468,2.4443,-4.1816,0.28897,-1.2026,0.96289,7.2065,
2.9568,-0.40032,-1.141,-1.9396,-3.3691,-0.82789,-4.4291,1.447,3.5027,-4.1719,0.51283,4.8949,-1.2643,9.9074,
3.0206,2.275,-2.7596,-2.5459,0.93059,3.8013,-5.3684,7.3855,-0.32263,0.65789,1.2052,9.1807,-1.4292,14.3748,
-2.9455,-4.1278,-4.5224,-9.1418,-5.392,-1.2473,-4.5641,1.64,1.6247,-1.3096,0.16878,-0.047017,-0.86124,4.835,
-5.1789,-3.3984,-2.805,-9.0755,-16.6376,-6.9568,-2.3623,-5.2071,6.3482,3.1076,3.5329,1.8842,4.9748,-4.132,
-4.8684,1.6262,-4.083,-3.2288,-16.1218,3.1011,-6.0769,1.8538,0.18222,9.1872,0.42839,10.4478,2.2662,0.45427,
-0.96084,1.7696,-2.1508,-0.3835,-11.0571,14.2433,-6.4352,7.2862,-0.069677,4.0567,-2.7303,9.098,-2.9315,8.3812,
2.7125,0.94031,-2.7449,-0.11975,-21.7216,22.7889,-11.111,9.0184,1.6215,2.6082,-3.2897,15.0599,-2.0325,16.7962,
2.7907,-0.80333,-0.89295,0.12886,-34.1569,26.4832,-11.1673,7.2724,2.2476,7.9953,-1.405,25.0025,0.25865,19.8858,
2.6232,2.6193,3.9813,1.0855,-23.4304,22.9661,-9.051,2.9797,-1.2617,5.5874,-4.2128,21.5742,-7.4696,16.2825,
4.1531,5.1133,5.4297,4.1534,-10.2144,19.9009,-7.785,6.8983,-2.8733,4.5293,-5.1653,15.2181,-9.1906,14.5822,
2.9398,-2.4242,3.1755,-0.91633,-22.6168,17.7427,-5.8714,3.5921,0.67382,3.2934,-3.8913,9.4845,-2.3724,8.4048,
2.7634,2.0596,2.0211,-1.3433,-24.152,16.1962,-7.9293,2.8946,0.151,-1.2425,-2.694,3.6128,-2.2301,2.116,
0.42844,6.0334,2.1408,0.42408,-18.6056,6.7883,-7.213,4.4077,1.3472,-7.194,0.11922,-6.4859,-2.8197,-2.1083,
-2.2484,2.0564,-0.15682,-1.2881,-23.5148,8.0682,-7.5031,3.9027,1.5074,-7.0033,-1.5752,-6.8197,-1.4452,4.0442,
1.7425,7.2352,0.33452,1.1993,-15.8374,21.0815,-4.6428,7.0426,-1.9575,3.0579,-2.445,7.6895,0.087791,15.8526,
2.6022,8.2474,2.2426,0.16346,-6.6922,15.9602,-4.3638,-0.12842,-5.2141,5.285,-3.7441,15.7845,-1.3637,11.0451,
3.41,7.7525,2.1081,2.5633,-5.809,10.1819,-6.0306,1.807,-2.9735,9.3057,1.7828,15.3189,-1.2819,10.8638,
-2.5787,-0.42539,-4.2849,-4.8209,-19.5604,5.2331,-8.0789,3.1453,0.097434,5.3734,3.6044,6.2055,-1.6869,10.2125,
-4.1117,-1.1232,-4.7512,-7.6651,-25.256,1.7852,-5.425,2.7152,3.2246,5.7739,2.6648,6.0737,-0.86282,8.3944,
-0.97248,6.6569,-4.948,-1.4206,-9.6406,2.6424,-6.0638,3.9985,0.13908,13.1402,2.0225,19.8093,-1.293,14.6392,
3.4242,6.7399,0.16955,-0.37105,-0.98771,4.4121,-2.3251,3.2767,-0.83313,10.906,-0.02655,23.8031,-0.25153,19.064,
6.1115,5.8538,5.4618,1.5796,3.4103,12.8247,-2.1858,6.9362,-3.6754,5.4312,-0.98905,23.339,-3.6107,18.4023,
3.0935,2.3689,4.411,1.2437,1.5183,9.8858,-8.0804,5.315,-2.7318,1.0077,0.75729,15.9129,-5.563,7.8979,
0.49705,-1.1475,1.7359,-5.5801,-4.3574,-3.2411,-8.0778,-1.7526,2.7345,-3.3913,2.1579,5.317,-1.855,2.1212,
1.4316,2.2954,-1.7427,-4.7629,-1.6858,-1.6003,-6.1468,-0.20117,0.64228,-4.1521,2.0284,2.1059,-1.7437,8.7428,
0.38179,-2.6626,-3.0839,-1.5851,-0.62037,-1.0219,-3.8494,-2.1173,1.0857,-6.3131,3.353,-8.1434,-3.0853,1.9517,
0.35866,-2.0207,-0.48851,0.43847,0.86311,-2.889,-2.6543,-0.06229,2.949,-6.898,2.1877,-13.9215,-0.0078901,-2.5039,
2.5065,4.1263,1.2278,0.17096,0.088193,-2.9564,-2.7363,2.5928,-0.84363,-8.1716,-2.0407,-15.2556,0.71571,1.262,
11.5152,5.8069,8.385,7.3915,7.7957,-0.85132,0.80237,0.027078,-2.7212,-5.7531,-1.4363,-10.4839,-3.1836,4.5602,
9.137,2.325,4.7484,9.5991,12.8715,-2.0051,-3.3436,-0.69791,-7.6196,-4.2031,-0.62724,-4.7932,-4.6798,4.5276,
2.0811,-2.8759,-2.5262,-0.85851,-0.19326,-7.4286,-2.4198,-0.41484,-0.17233,-6.6017,3.0256,-9.0851,2.1087,-0.32359,
2.4382,-1.7395,-4.3028,-4.1814,-3.5559,-6.0186,-1.3103,-0.87188,3.6944,-4.2774,1.8802,-11.9145,-2.3562,0.66015,
6.6304,3.6673,0.29393,4.2644,10.7575,0.60929,-2.6782,2.0727,0.58044,1.2816,1.7671,-5.4152,-5.1071,4.4767,
4.7861,-0.4089,4.1325,0.63383,7.5812,-4.7301,-3.9635,-1.9083,-2.3471,-5.062,0.21508,-7.0183,-2.8727,-7.3608,
6.6686,1.7848,3.1616,-1.091,4.4752,-4.2049,-4.9306,-0.10653,-3.4111,-4.0349,-1.485,-6.3562,-0.53118,-5.232,
9.1607,6.0163,2.0078,-0.54381,15.2937,-1.0608,-2.2248,0.86396,-1.2785,-1.8649,-1.3957,-3.0826,0.46479,4.7227,
11.7444,9.7529,3.5743,1.1763,28.4761,1.6542,-1.8501,2.4996,0.48566,-6.3325,0.85696,-5.0665,-0.76816,4.1986,
11.2807,8.9267,-0.25554,0.86474,32.4316,2.7602,-5.3546,0.18044,0.69748,-11.4962,-2.8094,-18.0189,-4.3375,-4.9714,
16.6294,6.7039,-0.48118,0.089491,38.4394,4.2818,-2.3817,-1.5176,-1.9955,-13.9394,-6.2563,-27.3021,-2.39,-10.2167,
25.273,4.3735,-0.45231,0.084122,50.2331,10.7738,-6.5776,1.9474,-15.9757,-15.0313,-13.5937,-25.664,-11.4056,-14.9064,
33.8791,7.4851,4.8775,2.9711,61.3191,20.2503,-2.3266,3.2769,-18.2714,-16.54,-18.5631,-29.4268,-16.5059,-18.8327,
40.7646,12.5798,9.6463,3.9984,71.74,28.9175,2.3926,1.3932,-15.4876,-20.609,-20.1002,-36.0971,-12.3823,-19.3897,
45.7906,18.8149,6.8983,4.9638,81.5356,32.726,-0.40209,2.0325,-15.7637,-19.1315,-17.6893,-28.3877,-10.916,-16.5391,
44.2482,16.9629,7.2076,2.4966,90.7434,26.6649,0.34516,0.2236,-12.6485,-17.2605,-13.9766,-26.4432,-14.8405,-21.5725,
39.9063,14.74,8.9445,3.0699,90.9634,30.1264,1.0476,2.8615,-13.5766,-15.0198,-13.8612,-25.0978,-16.1195,-20.037,
32.2093,11.9274,1.6589,2.4038,71.5258,30.247,-2.3897,0.27969,-17.1007,-17.0107,-16.4035,-19.7355,-12.7417,-11.122,
27.8666,13.6219,-0.85073,2.2595,53.2545,19.2732,-3.2107,-2.6296,-13.6646,-18.8825,-14.4554,-16.1413,-9.0852,-2.7419,
27.1585,15.6967,5.4668,5.016,51.5055,12.8141,1.3203,4.2766,-7.5421,-13.4113,-8.2855,-21.4393,-3.7198,-4.0237,
23.3598,5.8368,7.7899,4.4741,42.8716,6.0198,1.9644,2.3328,-6.3666,-8.9912,-6.5835,-31.9631,-2.2913,-17.5206,
15.4503,6.6919,5.1534,3.9647,29.453,-1.3313,-2.7332,-0.94021,-5.7432,-3.39,-4.9832,-24.5017,-5.7693,-11.89,
7.5336,8.4597,4.121,-2.7809,13.9477,-11.1331,-0.88173,-1.125,1.591,-6.8018,3.7517,-18.9345,2.0489,-3.2227,
-0.39021,-3.858,-1.1875,-12.014,-0.98912,-20.8295,-2.5161,-6.6011,3.1828,-15.3118,4.7319,-26.2341,6.9872,-15.3214,
3.0077,1.6762,-0.63428,-1.6522,-0.56809,-12.8308,0.045035,-1.3843,1.0636,-2.3415,7.34,-13.0909,6.086,-12.4739,
0.899,0.12887,-2.0425,-4.9276,-5.3547,-15.4354,-3.3321,-8.5321,-7.6773,-3.6477,-2.2594,-4.1107,-5.3663,-10.7616,
3.0145,-3.976,-0.71487,-2.9444,-2.3821,-13.3042,-7.2293,-9.2252,-10.3499,-7.0441,-11.0417,5.0542,-10.1058,2.1764,
2.5924,-9.2813,-1.877,5.6677,-4.4086,-11.7828,-7.5187,-7.4667,-7.56,-5.4164,-9.1741,4.0278,-8.7763,4.6971,
2.4371,-2.9396,2.0922,6.2922,-14.2672,-16.3783,-1.7651,-6.0546,3.0172,-4.1273,3.9096,-7.7832,-0.05482,-6.1898,
2.0499,7.6011,3.1715,4.7093,-17.0266,-14.1907,-0.45395,3.2268,9.8256,-2.6744,12.1112,-12.8598,8.3841,-3.6492,
0.7216,-0.32675,1.7764,0.81136,-21.0662,-17.4367,1.2605,3.7561,9.9594,-5.6474,7.7691,-14.7393,8.1221,0.18516,
2.1246,-2.2353,3.1161,2.6909,-19.8022,-17.8363,2.1492,1.1206,4.5411,1.4404,4.8928,-1.8039,4.7427,2.1022,
-3.547,1.0318,-1.6507,4.2166,-15.963,-18.4538,-3.5238,-1.1163,0.17132,7.3795,3.3939,8.6682,2.2885,-0.19305,
-5.9853,1.2109,-1.7926,4.2046,-13.7999,-18.0694,1.2674,1.1203,7.6328,5.7314,6.8057,3.5688,6.7309,3.9159,
-6.5902,-0.78975,-3.1311,0.57811,-19.7211,-14.093,2.1554,4.9093,9.1028,2.9777,8.3253,-7.2504,8.7374,5.6094,
-7.6411,-4.5988,-3.9075,-3.7954,-24.3224,-17.5857,-0.86643,-5.0263,8.0747,3.2809,8.7901,-8.2616,8.6951,-2.9224,
-9.5925,-5.7689,-7.0473,-5.0132,-16.5958,-20.8691,-2.7424,-9.5452,4.698,11.7609,9.2268,6.3341,5.2811,-2.7468,
-16.248,-4.941,-11.4449,-7.6052,-14.6365,-15.7604,-3.542,-1.2595,3.9339,15.3938,10.1193,20.0541,3.5182,4.1667,
-19.3705,-6.8137,-9.5534,-11.7281,-21.712,-16.502,-4.5347,-4.3174,5.3851,6.9984,11.1993,16.4407,1.138,8.014,
-9.2902,0.10304,-1.026,-2.1064,-12.4555,-12.3788,-1.6116,-2.853,3.3748,5.3732,10.7683,13.767,-0.1356,12.5949,
-1.9841,1.5429,1.9278,4.2863,-13.6362,-9.2257,-0.068374,-3.646,-1.6482,-2.1798,3.8555,-1.159,-2.0554,-1.176,
5.6067,4.5838,7.8377,11.019,-8.7207,2.1741,2.1049,-0.29371,2.0661,-0.84372,3.3832,-6.9945,0.23706,-1.3469,
-6.2988,1.8986,0.13662,3.1275,-8.6793,0.11543,-0.43153,-1.7224,0.49635,4.0272,1.7344,-1.7541,-2.1873,5.0009,
-15.8031,-1.349,-1.5586,-3.5684,-22.2586,-8.8093,6.584,1.5142,7.4562,3.0624,8.1376,-7.1927,5.4155,-2.7712,
-16.3011,-3.1962,-2.9113,-2.8723,-33.0951,-8.7632,3.7784,0.941,8.937,-3.3879,10.5419,-13.5096,7.5007,-8.3895,
-14.3587,-3.0045,-3.2186,-1.7357,-24.8424,-5.8268,5.4803,-2.0075,10.8109,1.1537,11.3556,-7.8788,6.5687,0.30859,
-14.7025,-3.0652,-1.8206,-6.2113,-20.2189,-9.0931,8.2845,-5.5025,8.4751,6.6281,7.0584,-8.6114,4.4874,1.013,
-13.0972,-0.71233,-0.98826,-6.5613,-19.2465,-6.86,7.0643,-6.8593,4.8333,7.4355,5.9122,-5.4434,4.4593,1.1934,
-15.2039,-5.4898,-6.2316,-11.9526,-24.8408,-9.3409,8.5687,-7.894,5.0252,5.0612,4.1112,-4.1524,3.2275,-2.7346,
-15.4965,-2.9913,-10.437,-11.9584,-18.7704,-8.0571,9.7418,-1.3948,2.0726,7.4091,4.1055,-3.1804,2.3109,-7.6317,
-15.772,-1.6065,-7.6416,-11.9638,-16.4393,-9.2609,10.3626,-3.4803,4.5994,2.3848,7.957,-12.3891,6.2696,-9.343,
-10.9695,0.41784,-0.43445,-6.4255,-16.8992,-6.7773,12.6331,-5.6819,12.5183,1.2776,11.8177,-15.5028,11.6778,2.7865,
-8.8647,-0.089168,-2.8185,-0.73728,-14.4388,-5.4063,7.0544,-3.8947,5.9827,3.1291,5.806,-6.8594,3.7467,6.9576,
-6.6458,-2.7351,1.9301,1.4763,-8.511,-7.7333,8.3186,-1.974,1.5261,4.6288,-0.085781,1.988,-1.5395,-1.4133,
-6.9702,-3.2942,1.5731,-2.7098,-6.7953,-8.9563,8.5426,-1.1324,-1.2168,6.52,0.6425,5.484,-2.1703,-0.12346,
-7.7572,-5.2657,-5.9931,-8.5732,-8.5567,-11.0705,6.3428,-2.7517,0.54346,4.9235,5.1832,2.0214,2.0573,2.0531,
-9.9429,-7.6013,-7.3207,-14.0844,-8.7667,-16.4318,4.275,-4.7558,4.6082,2.459,5.1132,-3.1611,2.6568,-1.6855,
-14.408,-7.8681,-7.6044,-13.4803,-8.9636,-12.7943,2.3313,-0.37307,1.1987,3.9987,2.1553,-2.2485,-1.6,1.5491,
-12.0975,-9.324,-5.2201,-7.3691,-10.8361,-6.7242,6.0476,-1.7967,4.0191,5.6872,7.3284,1.2606,1.3883,3.8665,
-7.515,-5.3903,-4.9067,-2.1064,-11.632,-4.3928,3.2744,-6.0275,3.7777,7.7558,7.3709,6.4879,0.34089,0.74178,
-6.1,-1.6927,-5.0945,1.3946,-8.5237,-4.129,1.6319,-3.2555,1.6231,12.5934,1.6262,6.0984,1.7665,-1.7126,
-2.8413,-6.8935,0.51407,2.2751,-8.0121,-5.8092,4.9086,-3.0599,3.4541,13.2842,-0.88172,3.8045,3.107,-0.64577,
-0.50187,-3.8286,3.1341,3.3436,-7.7725,-2.8098,2.9267,1.7027,1.0775,14.6561,-2.0339,10.5659,-1.659,5.9007,
-1.9178,2.6679,0.53615,3.1432,-6.824,-1.1947,4.6795,5.4572,0.53065,9.4382,-0.46582,14.2705,-0.1134,4.5826,
1.0891,2.5076,-0.94251,4.8826,-2.5584,-0.64136,4.3985,3.6833,-1.4296,2.1232,0.044292,9.5576,1.3394,2.8611,
2.9522,-0.53519,0.56053,7,-2.4047,-0.12072,1.7247,5.3907,0.58459,6.8163,-0.44053,5.128,-0.66889,3.654,
-0.11724,-3.8773,1.0086,1.7595,-6.599,-2.0414,2.1029,2.6574,1.5136,6.8895,-1.3782,2.8919,-0.62899,1.9883,
2.059,-0.99357,-1.703,3.8231,-0.17747,-2.6423,0.7719,3.2208,-2.6746,0.45013,0.87366,5.3699,0.61404,5.9663,
5.0689,0.75327,-1.8418,3.3528,-1.854,-11.8838,0.96655,-1.0698,0.137,-5.12,1.5446,-0.013934,-1.11,1.511,
5.2467,4.5649,0.19691,1.2234,2.5955,-11.1703,1.8729,-2.4519,0.12878,-0.47451,-1.9225,-0.013098,-3.4536,3.8309,
3.968,5.2549,2.5952,6.9346,14.9733,1.0686,0.79619,3.9618,-3.7353,6.3029,-0.84331,6.2542,-1.3181,9.3856,
3.7297,-0.36282,2.9217,6.5183,13.1108,-1.8878,-0.21568,0.83178,-0.61892,2.0681,-1.2744,2.0228,-1.7212,-0.33676,
2.3009,4.238,3.4695,3.4758,15.9393,-3.4615,-1.4078,1.0231,-0.34059,-0.70733,-2.4035,2.1422,-3.3054,3.2991,
-2.6579,2.0555,3.2613,1.3391,12.0909,1.0845,0.12247,2.4079,-4.1765,-1.6292,-0.81301,-2.8066,-1.1789,9.3677,
-5.3905,-0.95986,2.1013,4.6332,0.27822,2.4657,2.0433,4.1912,0.41237,-0.085205,4.5384,-7.4589,3.2306,4.9492,
-13.5032,-2.1076,-5.4966,-1.1884,-5.764,-6.1179,-3.6229,-2.5678,4.0031,-2.2493,4.5071,-9.1806,1.3496,-2.8195,
-13.8978,-4.1503,-3.4795,-5.2144,-5.6596,-13.2231,-3.6465,-4.1009,6.414,-2.8372,8.334,-9.835,2.9558,-1.9275,
-8.0025,-3.1781,-2.0657,-1.2864,-2.6687,-9.296,-3.6684,0.24272,2.4139,-1.4619,7.1113,-7.0755,-0.35479,1.8038,
-5.8351,-0.33634,-3.629,-0.0039119,3.035,-1.7488,2.0953,-3.3873,3.4739,-3.0614,3.0687,-3.5175,-2.0207,0.49031,
-2.5927,2.5761,-0.036568,2.8886,9.1197,1.2484,4.8619,-3.6662,4.712,-2.3956,4.813,1.996,-2.3816,-3.8777,
2.8653,0.4936,1.4117,8.0177,10.9828,-3.1651,-3.1429,0.89233,-3.2837,-0.8058,0.66764,2.3584,-9.9518,-2.6809,
6.7911,-3.1514,5.4243,6.8137,11.0468,-6.1082,-1.2671,-3.2586,-2.8457,-2.4447,-5.8799,-1.3986,-7.185,2.0597,
4.4553,-0.070059,6.0629,4.9589,12.7943,-0.92122,3.1475,-1.617,-1.229,-1.8158,-4.563,0.61332,-0.96958,0.0076909,
-0.15084,1.8623,4.2529,4.179,7.6883,-6.6505,3.9225,2.8183,-0.67284,-3.1531,1.0134,-4.2437,-0.9114,-4.8135,
-0.3823,-0.41856,5.203,1.2771,5.5398,-13.2414,4.4105,0.48006,2.0186,-3.2049,-0.73461,-12.9072,-1.5796,-3.3194,
3.0146,0.57042,4.4089,2.6468,10.992,-2.8059,1.7353,2.3795,1.4156,0.36182,-5.5112,-11.1684,-1.0029,-0.2277,
5.7263,0.05426,7.0369,3.9342,12.2607,0.73689,4.0418,0.30895,-1.5614,-2.5524,-3.7343,-9.5344,-0.94273,-3.5885,
5.8646,0.051005,6.1323,3.2158,18.2735,0.69268,4.2812,-1.6382,-8.2166,-8.1838,-3.9922,-13.7831,-1.8505,-4.3375,
11.0566,5.1099,5.0412,7.1204,9.7055,3.3024,4.7475,4.4858,-1.6979,-3.5952,-3.0295,-8.3761,2.8405,0.50272,
3.1619,-1.4637,0.88237,1.3905,-4.9768,-8.9468,-2.7682,-1.086,0.81413,3.8513,-2.3658,3.2132,-2.1506,-2.42,
-5.4633,-1.1347,1.0706,0.58444,-3.8344,-10.0974,-1.879,-3.6721,0.042153,13.02,3.8019,15.3132,-1.7804,0.37656,
-7.5458,-3.9594,-2.8502,-3.7896,10.4957,-16.2403,1.608,-11.6467,1.0037,1.6338,-0.76476,0.29437,2.1826,-7.841,
4.2351,0.37601,-1.4739,-1.3926,23.9659,-20.809,3.1987,-7.3321,4.077,-4.0079,0.0044853,-13.8233,4.2208,-9.0577,
4.463,-3.9853,-1.8679,-4.6835,36.628,-25.8274,4.4531,-7.8565,1.4218,-5.2137,3.3782,-21.6712,3.4856,-18.1552,
4.1952,-5.192,0.65478,-8.2589,45.879,-28.1342,10.9348,-11.2415,4.229,-10.203,7.0319,-29.0476,6.6509,-23.3324,
2.2562,-2.7113,-7.3383,-11.8607,42.4029,-30.0616,5.6989,-6.4696,1.8061,-11.2781,5.8871,-26.5818,4.5646,-15.425,
-0.048525,-3.7542,-10.0317,-14.2828,34.7973,-28.981,4.6339,-3.4301,5.3129,-1.6836,9.631,-13.659,6.9416,-11.8482,
3.3291,-3.5287,0.21142,-7.1586,42.3506,-19.5291,3.3917,-8.0448,-0.30827,3.2379,2.3049,-1.752,1.2232,-14.9935,
7.4676,2.4676,8.3939,1.9475,44.6298,-14.501,2.2244,-7.0802,-7.5206,0.15114,-6.9924,0.28134,-3.6709,-10.2375,
7.261,3.0429,5.2387,0.14345,32.0701,-22.549,5.7063,-4.4857,-1.0434,-5.4011,-1.9936,-7.6893,2.5749,-9.3822,
8.0302,2.1374,0.82704,-2.5163,29.423,-19.5088,2.7124,-3.0118,2.1523,-3.3898,2.2234,-8.9151,2.1794,-8.0964,
11.6457,0.32197,4.8748,-2.1243,26.4523,-14.241,2.3087,-5.4822,0.33589,-7.2842,-2.0074,-16.334,-1.0848,-7.8516,
12.6342,2.4718,9.162,-0.79202,21.7317,-17.9658,5.7856,-5.8766,0.074772,-11.9088,-3.5742,-23.3077,2.5957,-10.0321,
3.6815,-1.051,4.2735,-5.0828,17.5357,-25.083,1.5821,-7.4522,1.5165,-6.3736,0.97861,-18.5352,2.4399,-15.6966,
-0.39582,-6.2905,3.5352,-7.188,11.181,-22.1318,1.9691,-6.5227,12.0308,5.096,10.0794,-7.7817,5.1861,-15.7187,
-0.85424,-4.949,-4.3899,-5.7928,-0.094965,-19.8398,0.88683,-4.6857,13.7189,8.6464,12.8484,-3.9406,11.6236,-10.9194,
-0.32105,-4.1701,-9.4292,-6.8913,-9.2483,-24.9159,0.35169,-5.8504,10.0032,2.3431,13.0418,-7.0786,13.8182,-10.7462,
4.0368,-5.366,-2.5967,-5.0318,-0.98086,-19.5648,1.7766,-1.6432,5.5469,-0.20787,9.367,-4.244,8.6506,-10.1017,
0.17914,-6.7312,-1.2356,-3.0426,6.0679,-12.3653,1.4291,3.5171,-0.32954,-4.7747,0.85079,-6.1585,4.5161,-10.2185,
0.65032,-4.8811,-0.19713,-1.4138,3.2937,-12.5873,5.1997,-0.55034,3.5466,-8.3446,-0.64606,-8.1991,5.2095,-9.1234,
6.1551,-0.49111,-1.3908,-0.60587,7.1936,-7.2525,0.3082,-4.1325,-0.76376,-2.3001,-0.84849,0.24681,-3.539,-3.0322,
7.714,-1.4255,-0.34305,0.39481,20.2594,-1.5147,-1.1561,-1.4744,-5.0563,2.6582,1.613,4.5708,-4.7725,1.0061,
4.1177,-3.5091,1.3648,0.12969,19.7667,-4.5573,0.60004,-4.5195,-7.404,-1.5987,0.31093,2.1269,-3.2813,0.70481,
5.5576,1.2805,1.0417,7.1116,10.1448,0.77755,0.80523,-0.6331,-6.2371,0.18426,-1.8771,5.1326,-2.3613,3.7958,
7.8757,-0.96552,-0.22612,4.0338,1.5824,0.0079983,0.51549,-1.7999,-1.2831,-2.4779,-3.4517,-1.2009,-0.050432,-2.9399,
6.1984,0.29771,-3.3456,0.65872,1.7284,-6.9824,-2.6485,-0.48665,-1.4471,-0.64199,-3.4851,-2.8161,0.19356,-0.11196,
0.76431,0.038876,-5.7964,-0.10417,-0.062535,-10.6608,-3.6948,-0.21695,-1.1193,2.0476,-3.0355,-2.4062,-0.05902,3.0278,
-1.4505,-2.6148,-3.7612,-4.1955,-6.5665,-6.8879,-1.7857,-2.8548,0.63487,-1.6904,-3.0941,-7.3233,0.66765,-7.036,
-0.39958,-0.047767,-5.4637,-4.9076,-7.6188,-3.1001,-3.1248,1.6548,2.043,-1.1071,-3.3904,-5.4376,4.002,-9.024,
2.9988,-1.0088,-6.5821,-6.5414,-7.1616,-8.2168,-1.0091,2.0375,6.2588,0.40562,0.66941,-4.6294,6.654,-7.0363,
3.3013,-2.8764,-5.2229,-5.1846,-3.357,-8.2057,-0.94859,1.4333,3.4731,0.86321,3.5213,-1.9411,0.95256,-3.7216,
1.8982,-3.427,-1.2943,0.66989,0.45958,-5.062,1.2777,2.0704,2.0597,2.9808,3.0693,5.647,-0.79205,2.0451,
1.5431,-3.4626,1.4347,-1.0578,-3.6656,-9.3378,2.8881,-1.669,2.1773,-1.7776,-1.6944,3.6212,-0.50333,-4.1034,
3.6192,2.7707,0.62524,-4.1278,-3.2047,-8.5366,2.4738,1.0822,1.8052,-6.7326,-1.3522,-2.1402,2.178,-8.4365,
2.9201,-2.2158,-1.3405,-4.362,-6.3868,-8.5068,0.39718,0.052969,2.6612,-7.7749,0.17518,-7.3144,6.8675,-6.0021,
9.2526,-4.2522,2.8375,3.8536,0.50408,-2.9345,-0.83171,0.29099,-0.63169,1.6094,0.8878,2.5247,2.8403,6.1684,
7.975,-2.3094,2.4263,0.97134,4.0897,1.3389,-1.5047,-1.4132,-2.281,1.7543,1.5579,8.3992,-5.7658,4.111,
-1.1808,-1.2072,-1.5759,-4.3898,-3.8687,1.2584,-0.45079,-1.8111,3.1583,-0.27938,1.4642,5.9668,-2.5276,-2.8843,
-4.0023,-2.5808,-7.2657,1.1764,-8.9394,0.21878,-4.2799,-0.25591,-3.298,3.594,-2.9622,7.0548,-0.44794,0.66299,
5.1559,-4.5951,-0.32225,8.0953,-5.7515,1.4109,0.55618,0.48234,-2.3767,4.5832,-1.0973,8.3188,-0.66203,5.6849,
4.6054,-3.1143,0.90215,5.4406,-1.7912,4.4595,-0.68225,2.1404,-0.54714,2.1393,-2.2365,9.0247,-5.2018,7.9951,
-0.25045,4.5441,-2.7672,5.3549,3.3777,5.8794,-1.8464,4.1814,-2.6832,1.2878,-4.2712,9.6883,-3.6847,8.7205,
2.8981,2.1023,0.050413,3.3469,0.52394,-3.8733,3.808,0.31506,-1.3174,-4.815,-3.774,-1.7388,3.0444,-3.6129,
4.8931,-1.639,-1.1581,-0.4696,-6.4971,-4.846,2.8564,2.9475,1.413,-5.2493,-0.41429,-7.6602,6.9588,-9.4219,
-0.46192,-3.7101,-6.1501,-5.0209,-15.9895,-2.3863,0.033696,3.4938,5.4258,-4.6936,3.2258,-7.9238,8.2288,-7.6515,
1.9764,-2.0412,-5.7811,-1.8272,-9.7275,-3.6889,1.4779,2.8022,4.1363,-5.3758,3.0327,-7.9303,8.6994,-6.2281,
8.3653,0.73236,-3.747,5.2719,4.9562,-3.709,0.6659,2.875,-2.1378,-1.4378,0.68109,-0.46504,4.0796,-3.2033,
9.5508,1.4115,1.0573,8.0893,4.5383,-4.6915,2.3134,-0.43072,-2.7327,-1.1104,-0.56483,4.1428,-1.7086,3.0147,
7.7722,1.0857,2.6809,5.9165,-0.31349,-2.2407,1.4515,0.31779,-1.3637,-4.1775,-2.7003,1.2425,-2.3292,5.0027,
4.4134,-1.3896,-1.8183,-3.5976,-8.4898,-3.0705,1.3644,1.745,2.0926,-6.337,-3.5022,-7.0268,4.0771,-4.4565,
4.8719,-1.0648,-0.98582,-3.1403,-8.7034,-1.681,1.0415,2.8456,3.6543,-1.8594,0.32337,-7.3281,8.4122,-6.8402,
1.9285,-2.2062,-2.132,0.66356,-3.6014,-0.37487,-3.1183,2.4339,-2.1086,-1.5069,0.54493,-6.1655,1.8819,-4.7425,
2.054,-3.7608,-1.7629,-2.9919,-4.1085,-2.5218,2.1303,-0.36348,0.18731,-7.4418,-0.21089,-6.0363,1.0459,-2.2886,
7.2332,-2.5711,-0.21105,1.5262,6.7431,2.45,2.4846,1.1044,-1.7524,-4.103,-3.5725,3.4847,3.393,7.4894,
7.7635,-5.3093,1.2479,5.291,10.6769,4.7136,-0.074605,0.074232,-1.6468,4.3379,-2.8762,10.0245,2.2256,8.0044,
2.9587,-6.9192,1.6547,-1.2932,-4.0638,-0.39015,-1.5166,-0.41239,0.86195,3.1136,3.0807,7.4946,-2.2465,4.1495,
-2.0393,-4.0937,-6.1571,-5.5542,-11.412,-1.8128,-2.8717,2.5046,-1.1177,-4.7863,3.8605,-0.66806,-1.1476,3.4188,
-1.9167,-5.776,-5.306,-3.7744,2.2879,-3.15,2.6031,0.90834,4.2517,-7.3914,4.5929,-9.7868,3.7417,-4.9813,
0.12626,-6.876,-2.0953,-2.5843,10.8275,0.41319,1.0009,-1.0746,3.5145,-2.6093,1.4246,-5.3434,-1.7852,-7.0928,
3.2522,-3.3299,-0.76433,-0.26011,8.0087,7.3778,0.69983,-0.28721,-1.2761,2.1265,-2.7582,3.4133,-2.8834,1.2865,
3.7804,-4.335,-2.8876,-0.00308,1.5026,5.7308,0.89881,-4.8488,-2.4044,3.6866,-1.3874,6.342,-2.469,-0.47741,
-4.1594,-8.8953,-10.4274,-3.3771,-1.9617,4.4224,-3.4937,-4.0762,-1.296,7.3216,4.4806,9.3357,-7.1418,-2.8591,
-8.7303,-11.7363,-8.8376,-6.0672,-9.0751,2.711,1.5364,-1.4212,3.1203,2.5437,6.1397,4.437,-1.4108,-2.2059,
-7.4836,-7.4167,-8.066,-5.9437,-14.5562,0.86111,3.6139,-3.5051,-0.20043,-5.0807,-1.2181,-3.301,2.7716,-4.7246,
-5.8295,-3.8384,-6.3769,0.92016,-10.5495,5.389,5.566,-1.6078,1.981,-3.0884,0.060087,-6.7181,2.8461,-7.5744,
-5.9617,-9.8747,-3.1023,3.7575,-7.9884,8.4401,6.1959,-1.0294,1.3797,-5.3137,0.53842,-10.1714,-1.663,-6.638,
-0.54255,-1.8106,-0.74719,9.0754,-2.4476,11.0669,7.9935,3.6119,-3.2826,0.066575,-3.5915,4.5389,-2.7683,7.4988,
-0.028067,1.1906,-1.1838,4.6745,-5.6752,4.6183,7.9963,-1.4251,-1.6394,3.9194,-5.3042,18.3665,-3.5665,8.4952,
-5.3288,-3.7014,-3.0412,-2.8366,-10.6371,2.8952,2.2136,-5.1962,0.38743,1.7558,-4.5038,13.4081,-6.2444,2.683,
-7.6602,-3.2383,-0.68959,-1.4611,-13.1319,9.7109,4.25,4.0336,6.3897,3.8196,0.82814,4.6495,1.6016,3.7269,
-6.2367,-4.9722,-0.64822,-2.3378,-16.6828,7.682,6.8875,3.7916,7.9345,1.6623,0.77799,-4.3062,6.8082,-4.2095,
0.40449,-0.81749,1.3189,1.177,-8.9329,6.2572,1.6535,2.1178,-1.2182,-1.3295,-3.607,-2.6015,2.5433,-5.4032,
3.513,0.91856,5.3373,5.6854,-6.7099,5.1586,0.8312,-1.6249,-2.8325,-3.9011,-3.1494,-3.169,-0.74255,-5.3202,
-0.071531,0.38174,3.5711,4.8626,-7.7534,4.3674,2.7097,-2.491,-0.73416,-1.2567,-1.5144,-2.9787,-1.1802,-6.447,
-3.9241,0.35884,-2.4283,-0.2499,-11.1446,2.1767,2.0652,2.4787,-0.20818,1.2289,-1.9055,3.949,4.1933,-2.6857,
-7.5446,-3.5191,-2.7645,-6.019,-20.5988,0.60032,0.97699,2.33,2.6968,-0.77305,-0.82681,9.4966,8.7624,-1.5603,
-8.2972,-1.1392,-2.3577,-3.0068,-17.6761,7.0718,-1.7327,2.4311,-0.11653,-0.0037687,-1.0186,13.0242,2.6926,3.5946,
-0.56874,4.7139,3.0867,5.3686,-6.01,8.0935,3.6737,1.8036,0.85456,-0.48525,-2.8855,6.4584,1.085,7.2355,
2.5989,1.78,6.9988,8.1795,-4.4446,2.0643,4.1761,0.49006,1.0443,-2.1434,-3.9176,-3.8115,-1.1493,5.5961,
1.961,-0.73693,5.1326,5.2786,-4.6598,1.4585,-2.3409,1.9069,-1.9105,-1.0509,0.6562,-6.4749,-1.0803,1.4039,
3.5303,-1.8978,4.1016,-1.0639,-3.1752,-2.2442,0.45084,-0.85882,2.3013,-3.1568,2.7858,-7.2915,1.6358,-7.1162,
2.3542,0.14383,3.8555,1.8924,-2.9847,-0.18183,2.352,0.15658,1.6813,-1.0396,1.6543,0.37641,0.091436,-6.6892,
-1.4023,1.8227,4.8292,6.3584,-7.3851,3.4447,0.041471,0.87031,-2.0348,1.6741,-0.6139,3.4875,-1.1191,-1.2264,
2.2973,2.9186,6.2267,6.6998,-4.2904,2.9971,-1.1659,1.5415,-2.1537,0.3688,-2.7462,1.1091,0.15333,6.319,
5.7744,3.4664,5.1302,7.5027,3.9203,2.0939,-2.3012,2.1719,-1.7839,-0.37669,-3.3048,0.80115,1.349,6.1808,
3.0183,1.3302,5.3043,3.6785,-0.65281,-6.7084,-2.6451,-4.225,2.6619,-1.318,-0.21401,-7.4416,1.7504,-8.1693,
4.042,5.8297,2.8169,2.2525,-2.7833,-7.9931,-2.2454,0.12589,6.1176,2.3765,5.8244,-10.1286,1.8864,-10.8127,
2.3535,1.6237,-2.655,-2.2212,-4.0623,-6.5494,-1.6285,2.0463,3.8221,3.198,6.9209,-9.0387,1.291,-3.4152,
2.2123,-2.8125,2.8069,-3.5337,-5.2648,-4.7102,-1.0489,-0.004669,0.21832,3.4881,5.0594,-0.78364,1.6955,6.4307,
3.7668,2.418,5.2901,1.2576,-7.6,-2.7404,-3.1551,1.6828,-0.51768,2.0735,0.17658,7.6995,3.281,11.5884,
7.3971,1.7909,4.0083,4.5566,-6.1802,-2.094,1.3725,2.5462,1.9235,1.4672,-3.2085,5.3094,5.0123,4.6266,
10.569,1.9247,4.009,6.9345,8.2907,2.1292,-1.8431,2.1522,-9.0375,4.0305,-7.1131,8.606,-6.6164,5.0721,
10.6577,2.0502,9.3121,8.6876,21.8932,8.027,-1.9735,-0.628,-10.6648,4.0296,-6.4453,19.4178,-12.2449,12.7216,
0.61826,-5.0627,4.1741,3.5871,6.4796,5.3762,-1.6141,-8.5441,-3.517,3.5469,-6.2996,19.458,-7.4129,4.9688,
-5.6853,-2.8308,-6.6816,-2.4128,4.7655,2.6435,-3.4454,-4.657,-2.3421,7.6728,-2.0652,12.506,-2.6298,2.7425,
-2.6931,-1.4556,-7.968,-9.7398,16.2897,1.2796,-1.0695,-2.6908,-2.4426,-6.8875,1.6741,-2.3444,-0.78479,-1.0375,
10.2427,4.657,-0.98218,-6.5045,29.4123,12.5308,3.5741,-2.7705,-1.5729,-20.5743,-2.042,-16.3037,1.4312,-9.4116,
20.7151,10.1624,4.3792,1.5987,41.7476,17.0814,9.1441,-0.67587,-3.4069,-18.135,-3.3655,-18.459,-0.58261,-7.4004,
25.498,9.3119,6.2858,4.1541,53.3427,11.9594,8.8371,0.56974,-9.2278,-12.9493,-6.7788,-10.3613,-8.9836,-2.3768,
30.476,11.8863,4.2214,8.0022,64.2422,25.3418,-0.12929,2.2228,-16.6284,-10.9675,-20.1108,-3.7146,-13.5062,-4.4034,
39.2521,15.9931,7.8243,10.8963,74.4876,37.9213,1.3245,3.0535,-14.6666,-5.489,-20.3502,-0.11747,-10.2855,-6.0676,
38.1025,14.7928,3.7397,6.1454,81.949,36.8513,-1.8882,2.1472,-20.7762,-8.2929,-18.406,-0.35116,-16.658,0.32222,
37.2626,17.2797,3.5153,10.115,62.9321,48.7402,-3.7031,12.1412,-16.6371,-5.8671,-15.3735,4.4906,-13.7303,9.9439,
27.0729,11.1814,4.5094,9.7493,45.0561,52.6848,-8.5424,9.2438,-12.0237,-6.2382,-17.1024,3.98,-11.2195,6.6959,
15.0842,8.8233,1.1058,7.9591,28.2528,37.2316,-13.0915,7.9658,-17.3278,-5.1406,-17.2816,8.3205,-14.6437,11.8378,
11.769,5.8838,-1.853,3.1432,12.4576,24.8744,-12.306,7.006,-17.2525,-7.2427,-17.2085,10.7138,-16.1752,13.0557,
12.027,2.6385,0.18656,3.9187,-1.3053,23.3821,-11.0855,2.2471,-12.8427,-0.54143,-15.2119,20.676,-14.7225,14.2003,
3.5926,0.069583,-2.7171,8.5038,-11.3499,16.6765,-9.9384,-0.77983,-10.1439,10.5783,-7.5508,30.0407,-10.4652,15.2765,
-2.6485,-2.5857,-4.2413,2.45,-21.0332,6.276,-3.3166,-0.49207,-1.0996,11.6308,3.2666,26.5511,-1.4011,8.8167,
-7.3103,-4.3587,-5.9151,-6.8556,-23.6271,3.9712,-5.0458,0.98371,5.7153,10.933,7.4089,21.5835,1.5754,7.8053,
-12.6561,-8.4358,-8.4524,-8.3727,-35.7071,-3.9796,-4.2609,-3.8958,9.7109,13.1693,8.8928,15.4681,3.8908,9.2654,
-10.6916,-4.7959,-6.2578,-3.7727,-39.5904,-6.8745,-0.87197,-4.3852,6.9589,15.5128,11.9744,18.1556,4.3805,14.2534,
-12.2193,0.07114,-7.5696,-6.1979,-35.5278,-3.3286,-3.4707,-1.471,-0.93046,14.3406,10.0511,22.1275,0.020317,14.603,
-16.0657,-3.0664,-6.3923,-9.4412,-45.2065,-6.7445,-1.5755,-3.5516,5.6331,12.7571,8.7249,14.2921,5.0805,7.2191,
-17.9942,-4.8106,-6.9731,-6.4646,-52.1351,-10.1962,-6.3017,-2.3747,5.777,10.5454,4.827,7.1681,8.1502,3.4115,
-15.9507,-1.6299,-1.7344,-0.29217,-46.5968,-12.4765,-5.9236,-1.7503,4.4661,3.1642,5.5012,3.8455,7.6612,5.6169,
-12.3421,-2.255,1.5031,-0.51561,-45.0058,-15.8253,-2.9166,-4.2963,8.2959,-0.64106,7.8227,-3.857,5.0323,6.4852,
-15.6992,-9.5917,-9.915,-7.4743,-49.7775,-16.0813,-9.2493,-3.3154,4.1825,7.8333,7.5941,-1.9382,3.5253,4.4091,
