"AF3","AF4","F3","F4","F7","F8","FC5","FC6","O1","O2","P7","P8","T7","T8",
4.8205,-3.3742,7.713,5.7848,18.3178,-0.9641,-17.354,-8.1949,0.9641,-7.713,-2.4104,10.1231,-56.4,2.4104,
1.639,-6.5465,5.3218,1.0992,13.3626,-11.9932,-17.7588,-9.6312,3.7985,-7.7319,-1.3016,5.1772,-47.2314,4.1937,
4.1917,-1.5739,8.136,1.7561,12.3199,-16.8173,-15.006,-5.9203,5.7398,-6.0632,2.8738,3.6613,-37.4077,-3.5297,
6.833,-0.99732,8.6119,8.3994,17.365,-10.9877,-10.7314,-7.493,1.5392,-6.1811,1.7373,5.8519,-37.0914,-8.1384,
8.8329,-0.93771,10.9875,10.7878,16.8053,-4.0622,-6.7133,-11.382,0.96473,-6.2924,3.5615,1.1623,-33.4199,-3.3116,
9.026,1.7699,12.9796,8.9354,10.7355,-4.5411,-7.0336,-8.0478,1.1476,-5.6741,7.9273,-3.0046,-24.907,-0.46156,
6.0744,1.1817,11.7184,11.2918,10.5733,-7.6431,-8.0574,-6.1186,2.0431,-4.3693,0.70276,-1.8604,-26.3048,-6.7004,
4.0227,5.2082,13.1849,14.2297,14.0363,-2.1229,-7.333,-6.4749,4.572,-3.3843,-2.9548,0.90274,-31.2343,-7.0217,
-0.075082,2.4856,7.5731,5.6632,12.7122,0.41464,-10.2675,-10.9066,-2.4512,-9.9297,0.59691,0.84858,-32.2525,-6.118,
0.41136,2.3364,5.1905,9.6617,17.2521,4.2462,-8.6871,-11.2166,-4.2323,-6.9238,-1.3671,14.295,-25.4969,-1.4126,
-0.81816,0.99096,6.0844,13.6617,13.0835,4.7147,-9.8531,-5.4819,-1.8092,-0.48279,-10.2027,21.8734,-30.4745,0.8413,
-2.9385,-1.2374,4.9962,6.8163,8.6833,2.2625,-10.467,-3.9479,1.4326,1.2336,0.77358,11.6427,-39.9745,1.9959,
-2.2802,3.1751,7.1066,9.2994,13.9469,2.1267,-7.9108,-5.1573,-1.0635,-0.76903,9.8857,6.1235,-39.9864,0.42987,
2.6773,5.8767,8.1264,13.5621,15.0382,5.3731,-4.5441,-1.9553,-3.8922,-1.2048,-3.2404,8.6486,-36.1409,-1.0417,
5.8909,1.1855,2.8183,6.4816,10.2793,6.0148,-7.1637,-2.3202,-3.6584,-3.0605,-10.2771,7.6475,-40.2392,-0.01512,
3.6092,0.63248,0.72105,6.0927,10.6269,3.2438,-9.626,-5.0735,-4.8852,-8.1795,-0.98335,7.671,-44.0914,-3.8706,
2.1874,-0.12837,1.4007,9.3426,3.9637,1.3619,-5.9154,-6.4559,-6.2793,-8.894,1.2448,7.9337,-39.2767,-8.2181,
6.6357,3.0126,4.4499,10.951,-0.37212,7.306,-4.8373,-7.274,-5.6618,-4.7452,-3.4094,9.1447,-32.8228,-2.6636,
5.7556,6.6882,4.6653,11.2582,4.9533,6.8676,-7.9215,-8.2834,-5.3216,-4.46,-5.615,9.0784,-33.2635,-2.9857,
0.83074,4.5999,-1.6404,6.4852,4.4149,3.8043,-8.6513,-8.9919,-6.2074,-7.8081,-2.1448,6.8462,-35.3653,-8.8323,
-1.6292,-0.49678,-5.8803,-0.17047,-0.67023,5.5042,-11.0243,-8.9343,-9.6914,-6.8572,-0.087922,2.0971,-33.7253,-5.8918,
-0.085442,-0.94914,-4.0814,1.7677,-1.5946,5.1737,-10.3631,-7.9161,-6.2176,-2.5896,0.39952,2.4535,-26.8813,-0.23588,
0.40185,4.8926,0.98393,11.3029,1.3938,6.3098,-7.3309,-5.9951,-5.8448,-1.9521,-4.9269,10.0188,-28.1607,-0.70389,
-2.0326,1.2248,5.7454,10.6249,0.34612,6.8953,-7.3732,-8.0453,-8.8683,-5.2092,-11.3799,10.8642,-38.5222,1.7487,
0.9814,-3.6694,6.8469,8.0588,0.80729,1.1789,-5.4846,-6.1168,-3.9979,-4.8966,-3.9487,6.3555,-38.1393,5.9821,
5.0201,-0.31595,4.2667,11.6728,1,-0.096867,-5.8786,-1.6522,-3.9987,-0.98764,1.3497,0.91314,-37.5379,1.0441,
3.2729,0.66711,2.5647,8.0802,-0.98838,1.355,-2.1512,-2.5172,-6.6511,1,-0.17733,-2.9983,-41.0702,-3.839,
-0.5387,-1.0599,3.1339,3.0158,-0.20595,-1.3776,2.5569,-4.0531,-1.1906,1.6627,5.3767,1.2788,-38.365,0.48845,
-0.50661,-3.4067,2.4637,5.7272,0.77051,-0.33089,-0.4888,-4.774,3.7013,2.527,5.0543,2.1661,-40.4017,1.9052,
2.1749,-0.06879,4.4851,7.0708,3.8573,4.7506,-0.21851,-1.8365,2.274,0.20627,0.17131,-1.5793,-44.4853,-2.7884,
-1.3298,1.8633,0.84174,1.826,11.3389,4.4658,-1.1695,-5.1005,-6.0574,-7.0367,-1.7669,-6.305,-45.1906,-6.9597,
-1.4908,0.064507,-2.8244,0.51142,15.2381,8.295,-4.2326,-4.5538,-4.4885,-4.4451,-1.4197,-1.3467,-42.238,2.3757,
-1.6428,-4.0367,-3.3779,-1.2065,5.4057,9.9665,-6.1478,4.1556,-1.5681,0.40087,-6.8786,3.7953,-45.2473,7.7768,
5.2049,1.9898,5.9841,3.6864,14.7226,14.1894,0.0058921,4.8704,-4.3663,-6.3719,-1.163,5.496,-43.9785,0.079599,
4.1691,0.18345,5.8658,5.1522,19.3826,13.5788,-2.6458,-4.8221,-10.612,-16.8356,0.59377,-2.3058,-44.9555,-9.3254,
-2.3476,0.65438,-2.6813,2.9149,4.1196,12.2817,-2.0051,3.18,-0.33431,-1.8462,-3.2982,-2.1674,-37.4376,1.8394,
-7.9913,-0.34875,-8.3046,-4.0085,-8.5403,4.3144,2.9359,4.4355,7.8805,7.9056,-3.1004,0.37274,-31.3348,2.6929,
1.8882,-1.0512,1.5937,-0.63447,2.3364,4.7789,2.5188,1.0363,0.41822,0.44183,2.1473,2.52,-33.0701,-4.94,
0.087638,-1.711,-1.1535,-2.766,-2.8654,2.8045,-5.5865,2.6609,-7.5611,-6.0926,2.7414,-1.729,-35.1835,-4.885,
-9.0767,0.31984,-8.797,-8.3846,-14.2627,-1.7021,1.4976,5.8757,4.9441,6.806,4.9871,0.78485,-24.3956,4.0852,
-5.8805,-2.3509,-8.5102,-4.7481,-8.3457,-3.7692,4.5407,2.8721,5.8523,10.4954,-3.2659,7.2457,-28.4755,4.081,
-0.46599,-3.8971,-6.3124,-0.36584,-5.1934,-0.89191,7.4018,9.2072,2.8501,2.3939,0.54546,8.9801,-26.5258,5.0415,
-5.9816,-5.832,-7.1389,-6.8514,-12.3536,-0.59697,8.163,9.8601,3.8844,-1.3652,9.9132,-3.8508,-14.5699,5.9443,
-4.6589,-0.17985,-4.7824,-5.4764,-6.7921,0.88465,5.2626,6.376,2.687,3.0551,1.1232,-5.5479,-11.7677,7.9977,
-2.9331,3.2054,-6.4236,-1.7734,-5.9022,5.1704,3.983,4.5476,1.5619,4.8004,-8.5851,4.4259,-17.8101,5.1077,
-2.5161,2.7721,-4.351,0.98411,-1.4507,11.3676,-2.2815,7.4078,-2.6296,-3.9237,-2.0445,14.0423,-23.7316,2.1497,
-2.8471,-1.733,-0.23354,-0.0388,1.5284,11.1675,-9.8574,8.8915,-7.2921,-8.991,-2.8861,14.646,-25.6819,3.467,
-5.8095,-1.3878,-5.281,-2.6878,-7.4812,8.8104,1.0981,9.5635,-0.34686,5.6485,-7.292,9.1878,-14.2589,10.2486,
-8.1123,1.3468,-14.3643,-4.214,-17.8783,1.7741,9.4681,6.8203,6.1817,8.5633,2.0633,-1.2457,-6.8958,8.9106,
-0.8771,0.78403,-6.7536,-2.0325,-13.4312,-3.1526,4.5617,3.5186,3.4006,-1.1091,12.0624,-2.6167,-8.8922,3.0738,
2.068,-1.1912,-1.5281,-2.8749,-9.2513,-0.55377,-1.0151,2.8255,-5.4805,-2.4892,0.7334,-0.53199,-12.6972,0.96068,
-1.1895,-0.87877,-2.1589,-0.53276,-6.5266,7.4337,4.108,6.2714,-1.0543,2.7223,-7.7463,0.70522,-7.8378,4.5189,
-2.0822,0.13805,-2.512,3.3554,-5.6528,6.5055,4.8251,4.4491,3.8294,3.0406,-1.0148,-1.2651,-0.61887,4.7295,
-1.4751,-0.35239,-2.361,1.708,-10.1346,2.7409,1.6433,1.2899,2.6356,3.8223,1.9384,-4.0814,1.8284,3.4816,
0.30036,-2.5002,1.3963,1.3643,-11.6955,2.3353,2.7502,-0.47497,5.6107,4.3161,-2.7574,-6.9698,-1.4146,3.5139,
0.7645,-1.3865,2.7586,6.103,-9.5477,-1.1791,-0.30752,-1.4106,3.828,1.6468,-5.4843,-6.0699,-1.8119,1.3747,
-3.8609,-0.097816,-1.5045,4.0498,-7.2874,2.5069,0.91645,-0.60281,1.4289,6.6094,-0.57568,-0.16188,7.6971,0.56905,
-10.6189,-4.1895,-4.5475,-4.6291,-8.0557,7.4179,3.5123,-1.2898,4.9589,8.3822,1.6278,-0.39337,8.9223,1.258,
-9.7408,-2.7329,-4.0337,-5.5567,-7.8133,4.8037,-0.79576,-1.4534,4.4204,4.7458,2.7354,-3.9852,3.3255,4.798,
-5.7821,0.80533,-7.6483,-5.7054,-14.5751,-3.1971,-2.194,-0.40205,2.2267,7.3534,7.3918,-6.6384,6.0182,2.0997,
0.10843,1.4799,-2.6097,-2.2296,-3.8187,2.5379,-1.3395,0.82736,-0.55798,1.3685,4.2972,-1.1788,5.8981,-4.5337,
7.333,1.8733,9.1163,5.1348,10.5104,16.4856,1.1512,2.7057,-6.7912,-6.4261,-0.2992,4.1948,1.2059,-2.8157,
0.38531,-3.7825,-2.2772,-6.0193,5.1798,7.4225,3.7335,-0.10798,-3.2505,-3.8716,2.852,-9.3135,6.195,-0.95973,
0.36219,-0.18156,-8.889,-9.9965,-7.6645,1.6745,3.5095,2.3091,5.6216,4.0739,3.6452,-10.2005,14.9823,1.5084,
4.4378,0.5527,0.080038,-3.8536,6.8954,11.9379,-2.2447,0.96525,-3.1518,-3.6423,-10.6735,-0.18849,4.6832,-1.2336,
3.2074,-1.4089,1.0393,-1.2115,10.941,17.0064,-3.0741,-1.503,-10.1933,-8.7262,-15.9382,2.2332,0.54601,0.76882,
2.2919,3.7376,-5.5307,3.4407,-0.56154,10.9246,-0.72029,-0.20778,-0.18149,2.6434,-2.6896,6.1963,12.8055,10.1225,
-0.49697,2.3082,-7.3678,1.5468,-2.6972,5.6896,-1.8821,4.3847,3.9265,4.1718,2.0513,10.404,17.0989,5.418,
-3.8414,1.2052,-3.0696,-2.8846,-1.5713,8.2405,-0.80557,7.0134,0.79864,-0.899,1.4461,9.2976,16.0727,-0.6919,
-4.816,-0.072187,-1.6804,-6.3267,-10.8768,5.0948,-1.9618,-1.8433,3.884,0.84193,2.5644,5.6065,18.2418,3.9291,
-2.5988,-2.9599,-2.0615,-7.8753,-6.3678,1.897,-0.88026,-2.2146,4.1333,4.1659,2.8924,4.3063,21.4857,4.6577,
-0.99708,-3.2647,-1.4558,-5.4746,4.1372,-0.14501,6.8853,7.5592,2.4391,1.0239,2.237,-0.29089,27.4274,3.4139,
-0.21412,-3.31,2.7291,-1.5309,3.6477,-3.27,6.7129,5.4187,1.0872,-6.0277,0.41529,-0.99657,26.9865,2.9679,
-1.1651,-3.5929,4.4935,-3.8492,-1.3914,-2.5914,-0.43828,-0.69104,-1.3882,-5.666,3.7648,4.3659,23.4394,-0.10225,
-0.61353,-4.3419,1.8136,-5.0647,-4.6826,-0.98991,3.9266,1.7603,2.5518,2.8689,8.3594,3.1398,29.7458,-2.0245,
4.9669,-2.3941,3.8739,2.711,-1.7501,0.75671,5.3782,3.8243,1.6753,3.4196,-2.506,-0.66398,25.7917,-1.6621,
4.4281,-0.081104,7.2571,6.164,-0.92194,-0.97569,-4.3447,-0.98465,-6.3787,-3.2928,-11.7559,1.0633,11.4699,-1.3212,
4.4032,-3.2095,4.6523,3.1428,-2.0721,-3.5689,-2.879,-2.613,-2.3808,-2.8545,-2.6146,7.0248,14.3969,1.8914,
2.211,-5.4273,-0.44731,-2.8306,-1.4657,-2.3902,0.18605,-3.4203,0.65432,-0.27285,-2.4575,10.9419,20.282,4.6702,
3.5246,-2.6915,0.54339,-5.5528,1.0324,3.5378,-2.7172,-1.7689,-0.34881,0.22545,-7.6127,11.2497,15.6909,2.9437,
5.2411,-1.5659,0.029085,-2.3273,0.9707,2.3614,-6.8927,-3.5907,-0.81004,-3.6442,-7.1557,1.8979,10.893,1.321,
5.6496,-0.26668,-1.178,-1.4648,4.5279,2.4602,-4.7919,-2.6524,0.92532,-6.0771,-5.0396,-6.6522,15.7828,2.929,
10.3725,-2.902,3.9542,0.79248,12.6921,7.8564,1.5214,2.5682,0.14714,-4.025,0.32467,-0.70918,19.4154,-0.37999,
9.0272,-3.4508,8.7786,4.3603,8.7971,2.3238,-0.25712,4.5833,-2.5128,2.242,2.4744,6.3232,15.5994,-2.5264,
-2.3609,-4.4488,-1.1483,-7.2297,-5.8307,-9.144,-2.4111,2.6213,3.1814,7.6509,1.1208,-5.867,17.3145,-2.134,
-2.7012,-2.7356,-7.8279,-9.206,-7.5296,-1.8465,3.0362,2.946,9.2575,9.1205,2.0174,-7.9246,26.399,0.88653,
3.0045,2.4897,-3.2609,1.7102,7.0222,9.5921,1.6488,4.4564,0.74781,4.9574,-1.2371,5.8068,25.0558,0.10998,
-4.4066,-2.9623,-6.9216,-5.6228,-6.7762,-1.1064,0.58597,4.189,2.6311,7.0705,-3.573,1.1201,23.0703,-0.37856,
-3.4193,-5.9176,-4.8191,-9.3828,-6.6106,-1.7629,3.2019,5.143,7.053,11.2256,0.25681,2.2581,22.4094,5.6702,
4.981,-3.6343,1.2547,-0.62511,7.886,7.0195,-0.36421,-0.46823,-4.4574,0.91106,-1.6868,13.6918,15.7622,1.4731,
5.1639,-1.4883,-4.6054,-2.516,3.436,-1.1142,7.3702,-1.4042,4.4869,2.3024,0.34238,6.1216,22.5293,3.7951,
5.8181,0.52896,-10.5959,-7.6675,-10.8702,-10.6885,11.2665,2.5362,17.2329,14.2156,2.7322,-4.3693,31.3004,9.8341,
4.7461,-3.1182,-7.3086,-7.4484,-6.964,-11.7344,1.6725,-5.5697,7.2809,9.7472,-1.5291,-3.3837,22.4327,2.2542,
0.12306,-2.4487,-9.2806,-7.0015,-13.777,-13.4405,3.5003,-4.7536,7.3259,6.2704,4.8292,-2.6988,20.6046,2.1189,
1.5617,-1.3377,-8.2416,-6.0992,-17.7709,-13.1162,7.6288,3.2446,15.0813,8.7864,17.0731,4.2118,27.5633,5.8484,
5.3244,-1.2574,-2.9264,-5.2514,-7.5456,-12.8112,3.3147,-1.2884,8.8742,7.7773,14.1206,11.1904,25.9097,3.0874,
3.5589,4.6024,-9.0176,-5.4184,-8.5389,-11.5604,6.972,1.6812,7.3777,9.2386,0.7396,10.5188,22.4267,5.312,
0.45284,-0.0121,-11.851,-7.9859,-13.3292,-8.939,9.4462,3.9905,8.3808,7.72,-6.0532,7.477,18.6707,3.5471,
3.5592,-4.5907,0.18828,-6.7833,-11.3246,-6.715,8.6385,-0.82872,8.119,7.0158,2.2637,3.8954,22.6124,1.1651,
-0.51078,-0.94123,-5.1257,-7.8226,-24.7451,-17.3993,11.4946,0.66727,14.3807,10.4513,6.9486,-5.4974,33.3067,4.9516,
-4.5775,1.2849,-15.182,-10.0043,-31.0937,-22.8633,13.456,6.6528,18.5796,11.9938,1.9519,-2.5164,32.0315,4.4135,
1.2405,0.48464,-6.3171,-6.2708,-17.4175,-11.6093,9.5154,6.9767,12.4033,10.0687,-2.7447,0.28588,22.1556,-0.91276,
2.13,-3.8832,-4.0103,-7.3408,-20.7112,-12.359,8.9445,3.6661,10.6948,5.6081,0.79444,-7.444,22.7545,2.0341,
-0.88965,-5.0958,-9.5536,-7.3821,-22.3606,-16.9199,5.9975,2.9639,9.089,1.8979,1.2289,1.6799,26.6921,5.7691,
3.0201,1.4765,-3.1963,0.77361,-11.8601,-6.7457,0.33496,4.7143,3.723,1.3016,-6.5576,4.9531,20.7518,1.0842,
2.5977,2.5929,-2.7633,-1.4422,-20.0664,-6.5821,4.4124,9.011,10.9716,7.2493,-3.0309,-9.4441,20.712,0.77839,
-1.8965,-1.419,-5.4896,-2.8019,-14.0419,-6.6691,3.6658,5.0963,6.9389,6.3324,2.4536,-14.3005,22.8437,1.2136,
-1.7829,-3.7442,-2.7503,0.74088,0.90061,4.3361,-4.2672,-5.815,-7.5775,-1.2786,-4.4423,-2.8375,16.6526,-1.7515,
0.97539,2.0243,-1.8621,-0.99103,1.9314,4.799,2.979,0.55969,3.3618,6.7521,-0.078138,-8.2106,21.6792,2.9331,
-5.3496,-0.50778,-11.3914,-9.6084,-12.2845,-8.0224,8.5843,4.8644,14.7292,9.721,3.3005,-12.5387,25.1987,5.6492,
-1.4135,-5.5388,-7.5746,-5.8984,-2.5093,-0.069011,9.2748,-0.97082,7.8202,5.5225,-6.2973,-0.45792,19.1073,3.1408,
3.4918,-5.2067,-2.2997,-1.6884,8.7287,6.2014,-2.3691,-5.7335,-6.7491,-3.9676,-12.6686,-4.769,11.6941,-5.2425,
1.3541,-0.073554,-4.5718,-1.5871,-5.895,-0.43718,-2.7089,2.8057,0.042885,-0.83753,-1.7851,-12.6776,19.1876,-2.9993,
-1.1375,0.41302,-7.1898,-1.0097,-13.1339,-1.857,3.238,1.6732,5.8251,5.9614,-2.6421,-10.4709,20.4463,-0.89141,
6.4028,1.5933,-0.25071,0.25595,-2.9458,0.90576,2.8029,-3.971,0.41371,5.8449,-7.545,-7.6732,18.4964,0.36714,
8.1876,-0.18975,2.8971,-3.3751,-1.0821,-2.7642,3.8398,-1.5634,4.9684,3.3248,3.7537,-5.5258,25.3405,4.4422,
-0.016471,-3.0704,-3.5432,-7.5109,-3.4273,-1.6341,0.71692,1.423,1.7782,0.23328,4.0104,-6.6406,18.5175,1.2836,
0.94884,2.8984,-2.8482,-2.7219,2.5629,10.997,1.1558,3.7477,-0.73904,6.4858,-2.4967,-7.206,13.0679,3.1348,
-0.79508,3.4476,-1.4723,0.57513,-4.5805,10.0965,2.292,0.87152,0.51082,3.9277,-1.1418,-5.5686,18.7917,3.1879,
-5.3269,-3.267,-4.0353,1.2638,-5.9927,3.9473,-0.97877,2.0243,-0.72489,-2.8157,0.13174,-1.1369,17.9054,1.7916,
-1.8738,-4.2758,-4.0341,-1.9456,7.1414,8.7721,-1.161,3.1081,1.4878,2.8969,-2.5273,-0.82769,14.18,3.3713,
0.88996,-0.88597,-3.5509,-7.8541,12.2563,11.861,-1.8145,-2.1398,-1.2528,2,0.75763,-3.9113,13.5699,0.035778,
0.35394,-1.3154,-1.4098,-5.9373,8.1462,1.9901,3.5968,-0.56539,-3.588,-5.833,5.5327,3.0716,15.1656,-2.3772,
2.9843,-0.99508,8.0747,3.8194,14.6478,0.1839,2.6581,-0.2905,-9.3983,-6.6879,-1.3068,8.4314,12.5689,-1.5112,
5.4563,2.6796,15.544,11.0616,27.8689,13.4288,-9.7939,-3.8885,-17.7525,-7.01,-3.398,7.2021,5.3069,-5.5179,
-0.8964,0.34988,6.6578,2.9263,24.1476,5.1515,-8.0012,-1.9682,-10.1796,-7.7944,3.3136,3.1548,11.9781,-6.8738,
-4.2168,-2.5634,-3.3828,-1.1054,8.5988,-9.2576,0.19187,2.0065,-2.3377,-3.9526,3.115,-0.40869,18.4905,-1.159,
1.5798,-1.2043,3.3281,8.3609,8.4448,-3.52,-1.9888,0.19891,-10.1517,-2.5101,0.75895,1.785,12.8018,-2.7766,
6.3052,0.79614,14.2152,16.5359,22.0381,9.7066,-2.8338,2.1152,-13.399,-7.6622,2.6416,3.6061,12.9975,-6.9484,
4.2395,3.8816,10.229,9.9999,19.8719,3.5804,-4.3512,2.2295,-13.8001,-11.3,-8.3634,-2.1541,15.8329,-6.7727,
3.9853,5.5767,3.8309,6.0257,10.4847,-0.0086534,-3.1256,-0.31467,-10.5617,-5.8015,-8.8257,-2.989,14.4007,-4.9203,
0.61319,2.1091,2.3958,9.7619,11.5428,4.0892,-5.1072,1.3914,-5.8307,-2.3199,-3.7164,0.80579,14.26,-4.3836,
-4.2443,1.0182,8.0366,11.1044,14.7066,6.7364,-10.1034,1.3079,-12.2297,-7.4834,-11.6886,1.2394,15.8146,-5.0849,
1.3125,3.8496,16.2315,8.9919,14.7886,8.2604,-3.2307,-1.663,-12.4598,-8.4806,-6.1665,0.68308,13.9018,-4.2979,
-0.93538,-2.8893,2.9651,-2.3939,-0.19874,-1.6357,1.0605,-5.1787,-0.86643,-1.9463,5.0497,-4.4196,11.8624,-2.3528,
-4.7354,-5.1263,-6.3716,-7.0707,-11.8769,-2.5012,2.4433,0.91685,8.8268,7.8117,3.3007,-7.0467,21.7557,2.1269,
-5.4154,-1.926,0.27742,-3.7542,-3.4513,0.54118,-1.0775,2.3083,2.9947,0.59479,-5.5742,-5.6593,17.0762,-4.7494,
0.45292,2.2867,10.6244,2.0144,3.7454,3.16,-4.1466,-3.374,-0.31821,-7.8773,-0.17831,-2.6689,3.7593,-7.1157,
2.5954,3.8367,7.3359,3.5813,-4.433,3.2114,-5.585,-6.787,-1.022,-8.1275,2.4835,-5.1599,6.1853,-3.0734,
0.029057,6.4991,0.14726,2.884,-4.649,3.9826,-5.2499,0.36913,-4.3352,-3.7835,-5.8602,-7.7428,15.4547,-1.4427,
-0.93678,1.7706,-1.3081,-3.5558,5.7531,2.2976,-2.5245,3.2393,-4.5572,-0.18226,-8.4009,-10.6525,15.0096,-3.7665,
4.1811,0.94143,3.3502,-4.5473,11.4334,4.3289,2.6886,-2.4987,-4.0428,-0.41229,0.056883,-8.3261,16.7606,-3.2995,
3.4483,2.8131,1.7029,-0.41806,6.4091,2.6234,2.5273,-6.6871,-7.1742,-8.5823,0.53586,-6.3803,17.6831,-3.1016,
1.7951,2.162,0.6364,2.0172,-0.72434,-2.8371,5.7497,2.3908,-1.4416,-5.6572,-4.7994,-8.408,16.6217,-0.98729,
3.6154,4.4426,3.491,6.2347,0.28322,-0.25656,0.58419,4.6577,-6.6575,-6.7638,-10.7777,-9.8315,7.9118,-4.3023,
4.3626,6.104,3.2813,5.8604,-2.6261,1.2049,-1.3788,0.03967,-6.7402,-7.3225,-5.311,-6.8313,9.8475,-2.5981,
-0.2375,0.91751,-2.2183,-1.7216,-12.5914,-9.4723,5.9347,2.9298,3.3052,1.312,0.31074,-12.206,18.8976,4.7886,
-4.8025,-0.82477,-3.29,-4.2699,-10.1487,-14.4475,6.784,6.8514,2.3839,0.99231,-6.2158,-15.571,16.0765,4.2603,
-1.8633,-1.0162,1.4867,-0.88022,0.34216,-5.6265,-0.61296,0.89668,-4.749,-7.021,-13.7966,-3.7904,12.4608,-2.9852,
2.1047,0.0088227,2.3616,0.61863,-0.16053,0.49545,-7.3253,-3.4957,-5.4281,-9.0101,-12.0047,2.7033,13.6411,-3.7701,
-0.19055,0.73142,1.4968,-1.1055,-10.515,-6.042,0.58624,1.2936,2.8515,-1.4798,-3.3305,-4.9305,14.0277,-1.8565,
-0.41985,1.4107,-0.28004,-3.6905,-17.8381,-9.2947,11.3976,2.903,7.7419,4.1528,3.859,-6.8041,15.8374,-2.9506,
7.5591,5.4234,-0.022267,1.1102,-8.814,0.18063,4.6877,1.524,-2.1226,-3.5682,2.4222,1.076,12.2361,-2.5326,
9.7564,7.7493,3.5943,7.5513,-4.6695,2.8211,-1.137,-0.73687,-8.021,-10.8261,-0.3745,-1.6399,7.8862,-4.5496,
4.3508,6.3205,0.96848,5.6524,-18.4894,-6.9891,10.5004,1.2355,3.5474,-1.0175,6.8788,-10.7005,18.9827,-2.3484,
-4.105,1.6025,-9.6945,-4.8101,-27.8646,-13.3182,15.173,0.67947,8.1553,7.2382,7.4304,-9.5761,24.5922,-0.27932,
-4.1001,0.30103,-7.426,-7.173,-16.7932,-6.0116,7.7547,-3.4591,5.0144,2.7066,0.95858,0.87993,18.055,-0.021592,
0.48467,0.28297,-2.6421,-2.8858,-9.0367,-0.83069,1.5049,-1.8053,2.3034,-0.34832,-0.062803,2.2734,16.4897,2.3898,
-1.2316,-3.3494,-8.9911,-4.3999,-14.52,-4.3963,3.1018,1.4365,2.4062,2.3241,2.5921,-4.3705,20.0796,2.9693,
-1.8806,-1.9432,-8.2102,-3.8949,-9.551,-4.8554,5.5672,0.62741,1.5389,1.9437,3.1599,-0.97478,18.6343,-0.34185,
5.4628,-1.8264,3.8513,5.0157,4.5192,2.1846,0.41227,-1.8206,-2.41,-1.0652,1.5238,8.2425,15.5879,3.5348,
4.6526,-7.5018,3.6203,-0.10599,-1.0546,3.9817,-2.9869,-5.0858,-2.2654,-1.4837,-0.97774,1.9634,13.6883,5.7329,
1.2405,-1.99,-0.69431,-3.2327,1.6602,6.3944,2.254,-0.68331,1.004,0.29257,3.6602,0.64029,15.0366,4.666,
1.1663,-1.3885,2.2396,0.81746,15.0582,6.0105,1.637,-4.9804,-4.3587,-7.9195,3.4408,8.3149,10.7597,-2.3626,
0.61412,-3.7155,4.0332,2.6968,10.2981,4.2038,-2.7997,-7.5743,-6.9899,-9.3727,-2.5504,7.3338,6.7399,-4.1489,
0.095114,0.36404,2.8271,1.5709,-4.4198,4.9157,-0.2214,1.0751,2.5888,2.2771,1.4592,-4.1932,12.6023,5.7413,
2.7405,-3.7552,1.4527,-3.1031,-6.2033,1.9697,3.4068,-1.1586,4.1207,2.3814,5.469,-7.557,13.0514,5.1554,
5.9505,-5.9404,2.3294,-3.8808,5.7381,2.8153,4.1668,-7.3556,-1.4292,-4.0284,2.2488,0.60916,11.7859,1.954,
1.7371,-5.1021,4.1178,-6.0585,8.2858,1.6821,1.9886,-6.9147,-0.86153,-6.1968,1.1496,-5.6944,16.3814,1.8363,
1.1507,-2.3856,8.2093,-2.8022,8.7528,4.9559,-2.4693,-1.6789,-1.292,-3.8971,0.11648,-9.2089,14.4344,5.1008,
4.9385,-2.242,4.3423,-1.6702,10.6382,8.033,-3.285,-2.542,-5.5528,-2.6989,-6.157,-3.3537,4.8917,5.2767,
8.2574,0.061452,-1.4616,-5.6676,9.2768,5.3816,3.9017,-2.1488,4.6625,2.5245,-1.2081,-4.8399,11.5879,5.2013,
4.6285,0.78067,-1.6149,-7.4967,6.0686,0.4794,1.4985,-0.33261,7.0339,4.5422,1.9974,-5.2724,14.508,3.6839,
-3.1206,-2.3992,-3.2052,-8.2517,1.1252,0.69161,-1.2425,1.8565,1.5506,6.9212,-0.77351,0.58754,9.5402,3.2224,
-7.7545,-5.6297,-9.7618,-8.239,2.9859,4.9884,-4.061,-0.18308,-1.4349,3.1315,-0.24516,3.9267,6.5572,5.9206,
0.90591,0.010725,-6.2836,-0.99578,13.894,11.92,-3.8168,0.79223,-1.3488,2.9436,6.0365,11.8858,9.0563,11.3504,
2.5386,-2.1593,-0.3632,1.7153,11.8553,8.5534,-2.3828,0.5035,-6.3294,0.11564,-0.83384,9.9676,2.4871,4.6436,
-7.0135,-6.6093,1.828,-0.55702,6.0825,2.4969,-10.1938,-2.178,-14.3855,-7.3629,-12.1118,3.3443,-7.0619,-2.1427,
-8.7621,-0.66933,2.9234,4.0559,5.4764,4.9979,-7.4132,2.5322,-6.5327,0.55047,-1.5034,10.6147,-0.61284,5.9394,
-9.4414,-0.8699,3.953,6.9458,10.6912,6.3855,-4.799,1.1752,-6.8639,-1.6515,5.5769,14.0759,-1.7811,1.9678,
-9.1164,-2.5049,11.6696,9.1802,17.5215,8.6535,-7.1622,1.8276,-14.4058,-12.881,1.1445,6.241,-5.7721,-4.6577,
-12.4253,-1.3908,12.8976,6.2192,3.4548,-3.4349,-3.8404,1.236,-3.9005,-6.3236,1.5582,-2.8101,1.3232,-1.4862,
-10.9569,0.86229,10.9189,6.0875,-5.6701,-16.4852,2.416,-5.3461,5.7335,7.7946,3.6339,-2.4005,8.2336,1.2545,
-4.9968,1.2925,11.2276,5.7223,3.3472,-10.6754,4.6812,-5.9892,1.0512,2.9886,1.0057,-2.256,7.2577,-2.1952,
-4.697,3.1431,6.2157,0.07627,4.1102,-4.2507,0.54394,2.0829,-4.3145,-2.9758,0.94539,-4.5313,1.0376,-0.61723,
-6.3432,5.8468,3.4324,-1.8567,-0.95687,-7.3699,-8.6475,0.029507,-9.8405,-2.3151,-4.8961,-4.7416,-7.2196,-0.098038,
-3.3115,0.91674,10.2163,4.2807,8.0186,-1.866,-9.8159,-7.9255,-11.9011,-5.7911,-10.6279,-4.698,-9.4375,-2.7437,
-3.8359,0.62054,12.7366,11.4954,9.2245,4.7536,-7.0575,-2.8705,-8.5357,-5.2029,-6.8565,-3.693,-3.3278,2.9648,
-12.0419,2.7525,6.4288,10.5647,-0.72898,-1.5576,-8.3218,0.43476,-7.7826,-3.6859,-4.2764,0.14398,-1.4409,2.0635,
-9.15,0.90032,6.2842,9.2077,1.0018,0.70525,-5.6531,-1.7607,-7.0745,-4.6698,-4.2606,6.1611,-4.0058,-0.22923,
-4.5037,3.0155,8.5583,10.3425,-1.2275,4.7603,-0.25267,-1.4141,-1.5888,-0.29227,-1.8358,5.55,-3.5245,6.7739,
-5.9204,5.9678,9.7318,9.9627,-5.7334,-1.0687,0.0036904,-1.0881,2.1222,3.3409,1.4076,4.012,-0.17977,8.5369,
-6.5293,0.30731,6.256,2.6167,3.7699,2.3701,-10.1192,-3.9151,-8.6102,-6.9827,-7.8356,-1.0492,-5.9533,-3.0623,
-2.0402,-4.2909,3.2291,-2.1201,14.3895,10.6636,-10.7173,-3.4392,-11.2271,-10.1791,-10.9809,-2.1911,-11.1397,-6.0121,
-2.3999,-6.4438,-4.1952,-4.4032,5.8136,-4.0763,-1.8794,-9.0177,-1.8766,-3.3016,-5.0197,-2.5418,-6.6152,0.13301,
0.63635,1.6558,-0.56929,2.6097,7.8747,-10.9418,4.0177,-7.0301,2.0922,2.1989,2.9945,0.50298,3.9048,4.9455,
0.3572,0.3512,4.5261,-0.19802,8.1255,-1.8496,-1.7669,-5.8854,-3.577,-0.58415,1.1276,-5.5527,1.0195,-0.41244,
0.33577,2.7407,6.1827,-4.0425,7.1556,2.1177,-0.21466,-4.086,0.49404,1.3791,2.5058,-6.6658,-0.48797,-1.352,
-0.88921,3.7811,1.7144,-5.4872,7.4496,-5.9631,-2.8529,-6.9743,0.70582,0.57299,3.5607,-3.6148,-3.5922,-2.4757,
-1.5592,-2.4713,-2.0039,-5.3989,3.3872,-7.7744,-5.8152,-11.6176,-5.8445,-3.5587,-4.6067,5.0382,-6.9921,-4.9787,
-1.4654,-3.7691,-5.2579,-2.1827,-3.0827,-7.3082,-4.9841,-8.9921,-9.8319,-6.2375,-9.1507,6.6639,-7.5366,-5.6441,
2.2377,2.0005,-3.2549,2.5278,-0.24645,-2.7721,1.3407,-3.873,-1.7704,-5.1401,-0.1658,-6.9921,-5.397,-1.6898,
2.1036,0.91635,-1.6136,-2.4444,0.73244,-2.606,1.26,-9.4255,-1.6639,-5.3134,-1.1199,-15.7314,-8.9298,-2.5525,
5.5926,3.5127,-0.31174,-7.3592,-0.51657,-6.5468,2.3895,-5.7262,3.0154,1.995,2.5624,-0.68749,-3.3325,1.6978,
6.7033,2.82,-6.0776,-9.3282,-2.8957,-12.421,6.1025,-0.080464,7.6547,5.2498,13.014,5.7408,4.5806,-1.2962,
7.7472,2.1686,-5.2308,-0.57357,1.1342,-8.7834,7.6648,0.88846,6.7133,3.9702,14.1611,-6.655,3.3412,-3.6288,
2.9438,0.59248,-3.4709,3.3175,-0.86182,-7.2918,5.2765,-1.5747,7.2746,-0.12414,8.009,-3.8454,-0.71539,-4.8571,
-3.4994,4.4133,-7.1191,3.5999,0.63569,-7.3367,3.0317,2.8581,9.2482,5.1855,10.9029,10.3647,1.2557,-7.4582,
-6.1817,5.1126,-9.1023,5.7947,2.526,-2.558,3.8139,1.2405,2.909,5.8389,7.8384,11.6712,-1.23,-6.5285,
-2.4363,0.94947,-2.7715,6.4109,-0.035715,0.96996,6.4776,-3.1727,-1.1219,2.1141,1.1016,8.0784,-3.5663,-1.7985,
-2.7723,1.8566,0.28749,5.5445,-2.4439,0.91199,-0.65975,1.8386,-6.357,-0.905,-0.89247,8.0759,-5.2803,-3.1366,
-3.811,6.8071,-1.4172,7.3808,4.2104,5.9187,-1.3433,7.7536,-7.6626,-2.0558,-3.4902,11.207,-8.0967,-5.5997,
-2.6185,2.0599,-2.7784,4.5278,10.2243,9.4195,0.1831,2.4677,-6.239,-2.4148,-4.7271,8.6059,-8.5752,-2.8536,
-2.4614,-3.3663,-1.6474,-0.08263,9.6108,9.8187,-4.6481,-1.5367,-10.6854,-5.6439,-3.4796,-2.5153,-7.0969,-2.2,
-3.2778,0.69226,0.3794,3.297,9.0344,7.7835,3.3438,2.4121,-5.7057,-0.4848,4.9241,-3.8109,-0.40431,-1.5863,
-9.8298,2.5787,-3.5,1.1708,2.7076,0.56738,5.553,1.7852,-1.9891,3.4004,7.039,1.2383,1.5479,-0.045094,
-9.24,2.9059,-3.2895,0.13665,1.5812,1.0157,-2.9749,-0.25011,-4.7618,-1.1419,0.8321,3.0926,-2.4009,-1.9701,
-1.6958,3.9368,1.9691,3.7439,8.4758,7.9447,-5.9299,1.4521,-6.6453,-6.617,-6.2077,0.25551,-6.3547,-5.4673,
-4.4863,4.6647,1.8512,5.9291,9.4133,10.8422,-4.61,4.2573,-8.6569,-7.1841,-4.3892,-0.72391,-6.4555,-5.6215,
-10.2427,2.6976,0.53479,4.3686,6.6798,4.6481,-2.1638,4.7252,-6.4503,2.647,5.2741,-2.3677,1.4041,-3.5969,
-9.3869,1.3307,0.26197,0.97319,6.5197,0.75398,-0.34693,-0.13783,-4.8582,3.2113,1.8244,-4.3946,-0.84957,-2.1761,
-8.1008,1.0099,0.48722,-3.183,7.3338,3.3598,0.39679,-6.6375,-5.772,-3.9713,-4.3106,1.4123,-6.8241,-1.8045,
-6.4097,2.6363,2.6269,-1.7865,9.0632,3.8814,5.4349,-1.6597,-1.3281,-3.0099,3.4201,4.4612,2.5031,-3.3833,
-3.3738,2.7193,-3.0741,-0.47472,5.3857,-0.93102,5.8315,5.4295,2.8487,1.2683,7.312,-4.2428,10.7889,-3.4215,
-1.7253,2.074,-6.2639,-1.4099,-3.1324,-2.8036,3.0717,7.0322,5.0881,5.0484,4.4629,-3.5061,8.6955,2.0862,
-6.683,4.6011,-3.2369,-1.5662,-2.703,-1.4301,-0.72804,3.4767,1.1679,0.16618,1.5441,7.5506,-0.26237,-0.69002,
-10.8618,7.94,-2.3198,-0.74937,2.5204,-1.1033,1.9667,3.5091,4.2308,2.8073,6.5131,4.9284,4.3331,-4.264,
-12.6204,1.6792,-7.0011,-7.4531,-10.1641,-5.3752,6.6692,2.3345,10.7257,6.4955,8.0503,-9.4673,12.75,-1.5978,
-8.0066,0.13246,-8.0271,-5.0779,-15.3391,-4.571,5.7869,1.2303,7.6718,4.1773,6.1212,-3.9583,10.5385,-0.055942,
-4.152,1.5705,-5.1351,1.9754,-6.2238,-1.8864,5.4399,0.67477,6.2474,2.9626,5.2718,4.4741,9.9064,-2.9449,
-6.072,4.6093,-1.2116,-3.2043,-8.0195,-6.3529,7.7646,2.803,8.5241,3.5082,1.822,-8.5688,11.9631,-2.5272,
-7.6359,7.2258,-0.65694,-14.5812,-14.7687,-11.7559,4.8886,5.5278,7.0488,6.1902,4.6052,-16.2494,7.3894,-0.92932,
-6.2134,1.4896,-6.884,-17.5627,-8.5804,-8.1585,4.5953,5.6781,9.9998,6.3007,7.7033,-3.7053,5.4998,0.090762,
-5.3589,-3.4208,-10.8095,-17.9555,-0.83453,-4.2947,6.248,2.4446,6.9895,3.9943,1.9387,2.7838,8.544,0.085087,
-7.4475,1.6052,-4.8588,-20.2526,-8.0158,-7.8934,8.2832,2.7799,6.5701,5.2009,3.2682,-0.75768,11.4054,0.079982,
-7.4828,4.4007,-1.193,-17.109,-15.7297,-7.4201,4.4116,4.0591,6.1757,4.4067,6.9283,-3.6045,8.7931,1.5212,
-1.2495,4.6188,-2.5675,-8.3699,-2.2522,4.1126,2.7008,4.2982,1.949,2.6962,3.6207,-0.014011,6.8195,0.46584,
-1.8972,3.619,-2.6542,-8.5904,5.3549,5.5533,6.6364,5.2454,2.0732,1.3294,3.1623,0.70996,3.759,-5.5874,
-9.7371,0.26842,-0.80769,-11.2085,-6.777,0.15843,2.6228,5.6535,2.1898,0.04434,3.6959,1.8727,2.3282,-0.67289,
-5.7789,-2.1578,1.169,-7.1615,-10.7087,1.5947,0.53721,4.8324,4.4686,1.9699,3.9561,10.4369,9.9012,10.9366,
-2.0577,-0.10015,0.13495,-0.4653,-4.7635,-0.4287,1.9512,4.5424,2.7546,3.7799,5.6469,8.8469,10.7534,4.9778,
-3.8622,-0.57631,2.5372,3.9012,-2.0673,-2.8133,-2.5044,2.3419,-4.6417,-0.78501,0.96956,-2.289,0.94942,-2.5515,
-0.49744,-2.7109,6.4819,2.4618,0.22541,0.97043,-4.5233,-2.8603,-2.194,-2.9075,0.18803,-3.357,-0.79477,2.1809,
-3.1185,-1.3432,0.54958,2.5553,-1.4746,0.18953,-0.63623,-3.4118,1.5532,-0.081753,1.3823,-1.95,0.45798,-0.11889,
-8.234,-0.29826,-0.92965,7.2227,-6.6893,-4.6426,6.1504,2.0956,3.3882,4.7439,2.2632,-4.7256,2.8406,-3.9681,
-6.053,-1.0035,2.7418,5.1019,-11.3494,-5.5691,1.6838,3.6568,3.4257,5.6643,-0.041981,-3.7189,5.3215,-0.11486,
-3.0382,-0.22038,-0.55622,6.483,-6.0887,-0.65517,-5.8891,5.6071,2.0153,0.74515,-3.1725,2.0479,0.90487,0.13345,
-7.4359,-0.93029,0.20028,14.5299,2.7126,1.5531,0.49007,6.4752,2.1351,-2.4333,-1.2951,1.2019,-2.2827,-4.9365,
-7.9536,-0.87447,7.901,13.1762,3.9956,0.49556,4.317,1.7484,0.078831,0.12285,-0.7355,-4.1729,0.74634,-5.6046,
-2.174,-1.7861,6.9448,4.6726,-0.10028,-1.9441,2.612,-0.28447,4.4127,3.0078,-3.5837,-7.7791,0.70179,-3.3399,
-3.0076,-4.5712,-0.22055,1.9819,-0.094496,0.58293,4.3832,3.1068,7.0402,2.8275,-5.2966,-7.3122,-2.715,-1.2111,
-3.0682,-1.1635,-1.8941,6.9247,4.9729,6.5735,6.7718,1.7156,2.5204,2.8988,-1.3634,-2.2937,2.51,-0.89745,
2.9005,-1.0937,3.0398,8.9198,2.7463,3.2866,2.0267,-5.1363,-1.0053,-0.16714,-0.79965,-2.1565,7.6616,-4.7,
9.2342,3.5515,6.9545,12.9636,5.2328,5.7407,1.182,0.23336,0.26012,-0.39831,-0.028543,-2.2679,3.5867,-2.2491,
1.2086,5.9897,-0.9343,8.0887,4.6781,7.5656,0.87032,3.3526,-0.96009,-0.13322,-1.2319,0.51952,-2.1719,-2.3549,
-2.7206,-2.0827,-5.2168,-0.10963,-0.90544,-1.0832,2.2641,-0.70515,-5.2415,-0.60785,4.6264,1.9339,0.85029,-3.1781,
0.33496,-3.4037,-0.56524,0.37911,-5.1897,-3.9105,2.6104,-2.5908,-5.4092,0.39318,11.5799,0.85425,4.6559,0.38725,
-2.095,2.5853,-1.9774,0.35659,-8.7344,-0.30121,2.4541,-3.3995,1.1826,1.8156,0.76194,0.32083,1.9662,1.3281,
1.4044,7.2502,0.069253,5.6372,-5.3181,1.1624,1.8242,0.17873,1.5933,0.26065,-9.4069,1.7476,-0.56215,-0.19761,
5.418,2.7178,8.5012,7.9505,-0.41971,-3.0047,-1.4183,0.89137,-5.9741,-3.3704,-6.6733,1.4018,-1.7333,-1.873,
3.8878,-1.0604,4.3755,0.0018739,-0.63526,-4.9933,0.3538,-8.0804,-6.3388,-4.3732,-4.1035,-0.36932,-0.90613,-4.4119,
4.8592,4.0646,-2.8767,0.72443,0.60746,-3.4887,3.9478,-10.2469,-2.3432,-1.9419,-6.991,3.75,-0.12909,-1.0139,
3.604,-0.035845,0.18822,4.0552,2.0175,-4.2434,-0.14526,-7.2217,-6.0588,-4.7177,-7.5357,-1.2955,-4.4599,-2.8815,
7.4849,1.6538,12.4692,8.8738,7.4398,2.0365,0.58659,0.20121,-6.9003,-1.3014,0.38849,-2.9048,0.38722,-1.9855,
7.5179,4.4468,4.9724,4.9667,-0.7191,-0.4956,-2.8228,0.18937,-6.4866,0.2232,-0.11698,-4.1765,5.6669,2.4722,
9.2363,6.3489,0.09453,6.8381,-4.7735,-0.22512,-0.48453,1.3831,3.7848,3.825,2.0594,-2.7209,7.4958,10.2778,
5.7896,3.0759,-0.87501,7.874,-3.5228,-1.6574,-2.8656,-0.62811,-0.29867,-0.74283,-5.295,-1.5937,-0.18435,1.9484,
7.1294,4.0967,-2.0278,4.7505,1.7502,-4.6915,5.2605,0.13294,1.4065,2.9172,-4.7359,0.18956,9.7086,-0.3377,
5.0144,1.6813,-2.6295,-2.5244,6.7065,-7.0615,5.6674,-4.9372,4.4556,2.0188,-3.7293,-1.9914,12.2592,2.8156,
2.0622,-2.5167,4.5184,-0.20354,10.4016,-2.0583,-4.0725,-10.1843,-2.3195,-9.9122,-6.6383,-2.5951,-0.28629,0.47773,
2.1797,-2.125,2.5598,2.4595,-1.0689,-3.6218,-0.21292,-6.44,-0.011371,-6.1847,-4.553,-2.1982,5.7562,4.0643,
0.60288,0.8948,-9.6451,-6.3649,-12.5737,-11.1175,7.0309,0.69506,10.1124,8.2864,-0.42367,-3.5123,16.4983,11.5334,
1.2896,-0.36373,-3.5223,-7.1878,-3.8656,-10.209,5.8862,1.8587,12.6392,15.141,2.2533,-2.0967,12.3749,10.6004,
0.73053,-3.7161,2.4734,3.3666,0.22298,-9.1143,-1.2157,-5.4835,2.722,5.0737,-1.7381,-1.0068,6.33,4.1796,
3.0968,0.84516,-1.0495,6.0566,-6.0574,-9.5318,2.7137,-3.2263,2.5587,7.6613,1.2583,-3.8385,11.2528,6.8213,
0.74162,-1.3749,-8.9405,-4.1889,-16.54,-19.324,8.0942,3.4746,15.1794,17.5653,3.8341,-10.5983,13.7109,9.0629,
1.42,1.841,-2.8604,2.5703,-5.6656,-14.5491,-2.2734,1.0974,11.1352,6.1475,-0.97567,0.88387,5.4165,2.4936,
6.3967,7.7564,11.4112,16.1547,8.7743,0.42382,-10.5729,-7.4044,-3.633,-8.3213,-2.6041,14.0875,-0.45191,-2.7175,
2.1561,4.3985,6.5087,6.5083,-1.7546,-10.5683,2.5945,-4.55,1.7672,-1.676,-2.4479,-0.85779,5.8417,3.7121,
-0.14198,5.3398,-7.9818,-3.2822,-11.5312,-21.7444,6.0547,1.2666,13.4717,10.2351,-6.3984,-14.9063,9.5886,4.6951,
10.9538,7.9115,-0.87474,4.6275,3.2606,-8.3886,-7.324,-2.1838,2.0581,-0.98428,-10.3528,-8.2274,1.3005,-3.7818,
15.8397,9.606,5.6852,6.0371,6.5597,-1.8598,-3.7515,-2.2938,-6.5015,-5.9869,-8.5268,-0.26192,5.3198,-2.8319,
4.5252,6.3783,-8.7559,-7.5813,-7.9339,-14.0405,4.9095,-4.8075,2.8069,1.8443,-7.774,-11.5746,14.4008,-2.4208,
5.2178,4.0676,-15.0992,-9.0549,-21.5578,-18.0185,4.6152,-6.9294,12.7612,7.0361,-6.3434,-16.1826,11.1264,-2.7577,
12.1356,0.93106,-0.21399,-5.1371,-19.3005,-17.9013,-1.4468,-6.9955,5.247,0.34743,-12.7117,-15.2116,9.4945,-0.66409,
13.5766,2.5624,-10.5655,-9.8906,-14.527,-14.6583,1.2916,-3.4423,6.6194,2.0138,-13.6363,-9.7196,20.253,-0.38328,
19.029,11.5677,-22.9467,-11.7073,-2.5682,-3.1732,5.0705,-1.7895,11.5249,10.5701,-7.9974,-4.7977,24.3405,1.5679,
29.9383,12.8018,-15.7854,-13.8973,-4.8242,0.87354,9.1045,-5.5388,6.4947,6.079,-12.8202,-15.597,19.0237,4.3664,
42.242,17.8183,-0.73824,-6.7965,3.6599,14.9211,11.9327,-10.0269,-4.4999,-7.7831,-19.2818,-19.4819,12.5796,-7.9472,
53.8075,22.5338,4.4882,1.806,17.5403,28.1259,-2.8832,-18.1024,-18.3299,-21.4161,-30.176,-19.2769,0.73762,-21.5703,
64.3174,26.0025,-1.0837,2.1795,30.5879,40.5383,1.7488,-10.7493,-5.0583,-10.8514,-18.7245,-22.941,14.1912,-8.5863,
59.2535,19.8626,-4.1522,-7.8332,29.717,42.3236,6.7055,-8.8995,1.7527,-4.6567,-7.7191,-30.4824,23.2216,-5.9019,
60.2778,26.1429,-5.59,-2.7837,25.765,46.2924,6.5444,-5.7137,-2.932,-3.1722,-7.4967,-20.2173,23.0334,-9.6449,
51.3587,24.5745,-10.5571,-1.1706,31.9317,43.9965,5.6696,-10.6738,-4.2021,-7.3204,-21.0264,-17.5582,16.8309,-5.692,
38.3946,16.5919,-6.3084,-2.7874,29.2926,43.5261,7.4983,-14.131,-2.7449,-6.6405,-21.4523,-19.1563,14.1336,-1.7353,
25.9682,6.9195,1.7831,-2.6204,13.4351,42.3606,3.1923,-14.7291,-8.365,-7.6881,-15.8266,-18.4888,10.3933,-11.2719,
17.9022,7.2277,1.917,1.6347,-1.471,35.2397,4.688,-6.3736,-1.3552,-4.0933,-11.2616,-10.3896,18.6878,-5.5339,
4.7767,1.4912,-10.7312,-3.7663,-15.4828,22.5198,4.8884,-4.5451,4.0286,-5.2937,-6.2473,-8.3202,21.4231,0.58247,
4.2494,0.67901,-1.6515,2.4855,-5.0333,33.4613,3.8724,-8.3695,-1.2746,-7.1455,-2.2568,-5.6516,12.6662,-2.5857,
1.8248,2.8074,5.9194,7.88,-7.8648,38.4431,2.9167,-7.1445,-4.3316,-2.137,-12.0038,-9.4099,9.7366,-2.6716,
-9.8536,-4.5921,-7.9333,2.1043,-21.3724,23.1213,5.634,-7.6801,0.26683,5.2218,-9.8375,-5.9532,18.7936,0.38056,
-16.9754,-10.1009,-16.1342,-5.2526,-23.9462,16.9135,1.9217,-5.2911,0.73298,3.4625,1.3578,5.9731,22.9684,4.2143,
-20.054,-6.8435,-8.6584,-6.6244,-23.7145,22.4064,3.4934,4.9085,1.8941,3.0135,2.9638,0.55329,25.6879,10.4692,
-25.8406,-9.0845,-9.8264,-11.7706,-23.015,14.0722,12.6838,4.855,8.2879,7.8939,0.61655,-13.5799,24.8695,4.2974,
-22.8442,-9.0216,-8.2727,-13.4749,-14.8854,7.925,16.7433,-1.7031,13.5754,9.8307,7.8102,-6.6191,23.8595,2.5936,
-22.9195,-11.8545,-8.258,-14.5944,-21.2227,8.414,13.8107,-7.3852,13.2431,7.3129,7.8239,3.4193,25.3202,11.1148,
-24.4367,-8.7329,-6.3168,-7.9341,-18.9855,11.7653,8.6435,-4.0501,10.0381,8.3201,7.3543,8.0344,27.1752,13.8221,
-22.9705,-6.7626,-3.0452,-0.22726,-3.7463,14.9158,-4.4086,-1.8786,-1.1694,1.0725,4.9848,12.3732,12.5293,-0.022603,
-21.5922,-11.6595,-10.0934,-3.5881,-6.5343,14.0209,2.1225,1.6085,5.1677,5.8284,6.6139,12.5947,14.67,6.2457,
-24.394,-11.6831,-12.1388,-6.988,-20.2423,16.3131,16.0951,9.9479,18.9576,19.5787,13.6891,14.4904,27.8898,19.971,
-27.9923,-12.6693,-2.4929,-7.774,-16.4971,12.683,12.5988,4.2891,12.397,15.3909,7.3239,15.3082,18.3827,14.3135,
-21.4923,-9.4988,4.4056,-3.4509,-10.6868,11.4398,-1.6547,0.1754,2.494,3.8624,3.5101,11.9793,13.4236,3.3315,
-21.4078,-7.2419,-3.8127,-3.967,-17.5172,11.4766,1.0959,1.8523,4.0318,7.7283,7.397,8.1273,19.1259,8.6755,
-26.6308,-8.4944,-8.1633,-6.8622,-18.1534,8.6186,10.9123,-2.3564,10.2976,14.2542,10.5689,10.7729,21.5935,7.4318,
-25.5151,-9.431,-9.6019,-4.0404,-9.8336,8.5834,4.473,-2.215,3.8951,5.2042,6.0779,11.5728,15.9596,5.0577,
-23.5018,-7.4188,-11.4359,-1.3878,-10.6896,7.1045,-1.58,7.5589,-0.19495,-0.89259,2.8211,5.5758,13.5562,12.949,
-23.297,-5.7687,-4.724,-2.5096,-12.2174,2.0988,7.915,4.4545,5.8425,6.1506,6.7495,0.17979,16.84,10.0031,
-17.3199,-6.1457,4.4773,-1.6359,-4.4947,-2.1243,10.091,-4.2489,6.2146,5.5408,8.0315,-1.5182,15.5884,4.8234,
-10.2547,-7.9461,7.8241,0.63139,2.2829,-4.166,6.3525,2.0315,3.6726,-2.7458,10.6831,4.1167,18.269,12.4877,
-13.9778,-7.9513,6.3908,2.0398,-2.6743,-7.7724,3.0793,3.3561,2.0064,-3.063,11.4884,10.6182,13.3164,12.2209,
-16.9962,-7.9563,4.0789,1.4352,-8.781,-8.7526,-0.96252,-3.5944,2.8497,1.9413,6.9424,0.8218,-1.5826,-2.6124,
-10.1914,-7.9609,1.906,1.831,-1.9872,-4.371,-1.3867,2.8883,1.7148,-0.1034,6.5259,-6.4579,-15.5876,-5.2277,
-8.8572,-3.8681,2.0324,2.4443,6.0855,-0.011185,-4.9187,6.8121,-5.3777,-4.1948,9.7495,2.8474,-23.8118,6.4139,
-11.941,-2.4309,6.008,2.0565,5.9616,-3.1442,-9.685,-1.0682,-5.2962,-4.1838,6.9956,9.1843,-18.7675,6.7522,
-6.4038,-0.35686,7.5757,7.7176,7.0502,-11.1503,-10.0682,-0.52218,-4.4965,-3.9328,1.2732,3.8125,-19.5696,1.5268,
-1.4403,0.38791,7.8445,13.2806,12.1708,-13.1324,-9.2232,-1.6961,-7.8421,-6.3484,2.8841,4.3071,-22.0109,-1.2163,
-7.8613,-4.697,7.1329,7.4221,15.0559,-9.2109,-11.8028,-8.1019,-6.1663,-4.2803,3.4339,11.5205,-19.003,-2.8306,
-13.1745,-5.3793,1.8844,4.5669,14.1528,-3.8378,-16.3971,-6.1693,-7.7243,-1.6131,-3.0384,10.8295,-18.8269,-0.24992,
-10.9377,-4.5746,-1.6031,10.0774,10.8931,-3.6075,-11.5569,-0.014516,-7.7432,-1.9982,1.9642,9.6973,-21.5537,2.6571,
-7.6299,-4.5411,-1.2659,8.7494,9.9985,-6.5246,-9.1762,-0.737,-6.5553,-1.6374,5.9437,13.6952,-22.9115,-1.1177,
-7.8957,-4.0274,1.4613,2.1987,13.0138,-5.41,-15.1338,-3.826,-10.2596,-1.7803,-0.92066,10.7041,-25.1525,-3.702,
-5.7347,-3.0629,9.8093,4.7183,15.3665,-2.4343,-10.128,-4.8018,-6.5105,-2.8783,4.6782,4.5183,-19.546,0.13557,
-5.1495,-4.5661,10.4258,8.0504,10.3469,-9.2779,-7.3514,-9.5751,-4.4329,-5.3574,10.9052,5.4522,-15.7219,-0.5957,
-6.2865,-3.3281,2.0877,6.1213,7.3157,-14.0236,-8.8382,-5.1445,-4.1671,-1.1794,8.3225,10.4275,-15.2608,2.8143,
-9.525,-3.3696,-6.9554,-1.2356,5.1898,-9.567,-9.9954,-0.25581,-6.086,-0.8674,4.6899,7.151,-16.514,3.8505,
-5.579,0.20705,-1.2358,2.2126,10.181,-5.6185,-10.3596,-3.133,-6.6852,-2.7436,6.8191,6.2396,-13.595,1.2093,
-0.66478,-1.9748,9.6848,10.0338,11.7396,-16.6098,-12.3893,-12.3452,-10.8631,-7.6404,2.7943,2.25,-17.8408,-4.889,
1.5443,-2.0972,10.3085,7.7445,2.5991,-23.567,-9.9587,-7.5072,-8.0426,-6.941,1.9037,5.248,-19.9043,-1.4622,
3.6205,-0.28441,5.1105,-0.19173,2.2019,-19.5016,-6.7103,-1.5129,-0.56999,-0.98116,8.2972,13.369,-14.6124,1.2769,
1.2344,-2.4363,5.527,1.9892,14.3625,-16.6441,-12.815,-10.34,-9.9356,-8.3939,6.5943,11.8442,-22.1711,-6.7537,
-3.9009,-2.0491,4.9544,8.8597,6.9929,-18.297,-12.287,-6.1041,-13.4368,-11.0233,2.5832,8.4825,-26.3845,-4.1789,
-5.1133,0.96611,3.2111,5.9173,-7.5267,-19.6095,-1.9091,3.9028,1.4694,3.1353,4.8381,10.8654,-16.6069,5.2307,
-4.8063,-0.53789,3.9826,3.6343,-15.1496,-22.771,-6.1326,-2.5976,2.7064,2.9469,2.1379,5.8754,-16.5741,2.0245,
2.4715,-2.1928,10.2511,8.4779,-0.14059,-16.3436,-5.0418,-4.6114,-5.8917,-2.7735,6.107,9.1378,-12.9286,1.1797,
0.63597,-4.2309,5.5387,1.9432,0.22906,-16.0863,-0.15997,-0.71927,0.48735,1.9726,8.3917,15.097,-8.5379,7.6164,
-1.3304,-3.9766,6.6526,0.38083,-7.497,-18.4951,-4.0068,-1.158,2.3863,3.3001,5.4781,16.1198,-10.9177,6.1955,
7.4263,-4.7021,18.3048,11.445,7.0528,-12.5649,-8.1049,-7.3553,-11.7364,-9.4312,6.1135,10.8141,-18.9395,-6.7094,
6.981,-0.081865,16.2419,12.6862,11.3292,-10.365,-5.2082,-8.8424,-14.4064,-10.7933,2.372,-3.9347,-19.7316,-7.271,
-2.5972,4.2616,3.2166,2.7663,-3.4506,-16.4918,1.371,-1.5627,0.55795,2.3876,-0.66216,-7.9167,-8.9065,3.7704,
-2.2001,-1.5375,-4.4485,-4.8713,-17.3435,-17.6712,-0.39827,6.485,11.25,8.2701,4.921,4.3686,-1.8644,6.1955,
3.4755,-3.1325,-1.0481,-3.3742,-2.2029,-14.9242,-1.5797,5.3725,3.1032,3.1942,9.205,8.2039,-1.9935,2.6902,
-6.1328,-2.2214,-0.744,-4.3768,-1.2269,-22.4642,1.6484,-0.011259,7.0146,3.2437,4.0736,0.24006,-1.1507,1.8062,
-10.3444,-1.365,-0.45863,-0.49899,-15.2533,-23.7681,-1.5838,3.6046,6.8345,9.5568,4.0699,-0.97987,0.12336,3.3848,
-4.9032,-3.6934,-0.91281,-0.95075,-20.2429,-18.9673,-3.8991,5.3168,3.0502,7.5374,9.6106,-0.92085,-2.2944,5.1101,
-7.2601,-6.1229,-13.1506,-9.8118,-21.6799,-20.9628,5.2529,2.8284,11.3033,8.7723,5.9004,-1.1066,1.4587,8.4185,
-2.0043,-4.3097,-10.9153,-4.4024,-6.2791,-11.5103,4.4558,0.2483,5.8044,4.8715,-0.7201,7.1545,0.4073,4.5394,
4.8649,-2.6049,3.7189,0.20011,8.1976,-4.0708,-4.4887,-2.6587,-3.7029,0.72286,3.1795,10.5821,-5.8837,-1.5176,
-4.3455,-1.2438,-1.0839,-7.2837,-5.3096,-16.119,1.3243,2.0801,9.7756,12.0072,7.568,0.54673,-0.46941,3.6347,
-7.6996,0.036265,-11.8646,-7.5697,-19.0911,-22.1414,10.163,11.3555,21.9637,18.7592,5.9092,-8.4038,10.8871,10.8885,
0.47501,-2.8581,-8.2603,-6.1515,-6.9786,-13.582,4.2505,5.3718,12.451,8.9564,5.0721,-3.5611,7.8236,8.7889,
3.3388,0.68762,-1.4984,-7.2285,2.1165,-6.5008,-1.7894,-1.6996,4.4729,5.0443,5.25,4.847,1.0874,6.8155,
-1.9232,0.4054,-2.6133,-6.5538,-10.7847,-13.5821,3.3797,2.0178,7.338,8.3576,-2.0549,-1.4689,0.78122,3.7555,
3.0129,-0.10086,1.8818,-1.3399,-12.5478,-18.552,4.6231,4.3073,7.8616,3.9997,-5.788,-3.7914,-0.71191,4.0121,
5.9654,-0.81794,-0.88245,-4.8751,-12.5178,-19.608,3.6226,0.43344,8.1135,6.893,-0.37879,-2.3583,1.9821,10.2791,
10.187,-1.492,-6.3733,-10.6084,-15.8645,-18.673,10.8768,4.0224,15.0978,14.4329,8.5613,-5.8325,13.6731,10.8674,
9.3348,-0.67957,-4.7857,-6.8384,-13.2252,-18.2753,3.2348,1.13,3.3461,2.2392,2.0225,-5.7235,4.417,-1.1129,
2.5082,0.80746,-4.0161,-4.018,-18.2163,-21.5173,3.0407,2.0263,1.6991,2.5868,-2.9195,-2.0056,-0.1863,2.8103,
3.5625,1.4821,-5.4626,-5.4639,-19.7748,-17.5752,8.8836,11.3047,11.9613,10.8675,5.2096,-4.0547,11.1528,11.0776,
8.1695,-1.0171,-6.099,-7.5464,-9.9113,-12.1819,1.6019,5.324,4.9773,3.4668,5.3792,-8.15,7.5918,-0.19213,
8.4022,-1.679,-6.4561,-7.8165,-8.1115,-16.9948,1.7468,-0.5393,6.3654,6.8737,7.2252,-3.0817,8.8231,-1.3859,
-3.912,-4.2296,-11.6122,-11.4451,-21.7248,-27.7852,1.8832,4.5547,14.4194,14.4153,11.3716,3.129,12.8732,7.1332,
-4.6415,-5.9041,-9.4695,-10.7585,-27.7728,-23.2259,3.6985,8.1377,16.4464,14.0324,9.7251,5.8334,11.6186,7.1872,
7.2062,-3.1396,-5.0448,-4.3283,-12.0064,-14.1195,7.3328,5.2392,7.7472,6.4419,-0.49948,3.0732,9.4755,2.8995,
7.9789,-2.7101,-2.0908,-1.8992,2.814,-13.0311,0.38516,2.7562,-2.5998,0.512,-6.4948,2.6481,2.8817,2.4848,
3.8852,-3.7523,5.0245,-1.5443,1.9224,-10.0799,-1.3247,4.76,0.20775,4.0967,0.88428,4.6588,4.396,4.0229,
3.8929,0.087805,4.964,0.23558,-1.3262,-13.5727,11.0468,10.9818,9.5953,13.7328,4.4466,-3.5749,17.3886,9.3252,
7.2745,-2.0866,-0.39553,-0.50169,-6.7905,-23.1226,13.0353,6.7075,6.8502,9.2932,-0.39967,-10.3503,18.5142,5.6324,
10.2129,-5.3354,6.859,0.49251,-0.11611,-15.4683,3.0944,-3.8178,-4.1659,-4.2796,-1.8217,-2.4985,4.8701,-3.8644,
6.4664,-2.3644,8.6169,-4.1166,4.4704,-10.4429,0.73936,-0.93768,-2.2289,-2.8177,-3.3999,-2.5897,2.8909,-3.3918,
5.3554,0.91081,5.9306,-3.6285,-4.2339,-17.7701,14.4334,10.9288,12.0048,11.4513,0.41965,-5.5675,16.8175,9.5863,
5.2751,-3.2412,0.99525,-1.2416,-13.862,-23.6938,13.3265,8.1039,15.0203,16.4282,3.5277,-4.0284,22.9187,10.216,
3.9944,-6.4211,0.45349,-0.2029,-6.7637,-17.4518,-1.5731,-1.5414,0.13967,2.9094,0.42366,-3.3049,17.2046,-1.9663,
5.4421,0.95385,4.0419,6.317,3.5243,-7.9683,-4.9738,3.1308,-2.0376,-3.2905,-1.7707,-4.7931,9.1832,-3.5353,
3.1872,3.307,-4.8779,-0.32878,-0.061581,-9.9008,5.4478,14.0299,8.2073,8.9578,-0.21842,-1.1318,12.4884,4.8713,
-0.61946,-6.7736,-7.7185,-12.1192,-2.7092,-12.44,8.7361,10.0549,11.8124,12.9999,6.3024,3.0337,22.5851,3.8564,
3.0331,-6.6084,5.0369,-5.3665,6.3712,-5.1861,0.25796,-3.3231,3.6317,2.3377,7.6113,-0.28155,17.1324,-4.8114,
1.887,-3.3196,3.7706,2.1861,3.5788,-6.8032,-4.578,-5.5336,-1.4067,-4.5512,-0.076035,-2.1931,5.0175,-7.8969,
-3.5286,-6.9766,-10.5556,0.12698,-4.3487,-12.6615,0.035224,2.9933,2.5343,0.54232,-0.55364,2.7594,8.573,-1.6383,
-2.8349,-5.5941,-15.5864,0.11937,0.25052,-7.5635,-5.7515,3.7776,-0.51029,-0.93648,0.44391,2.5934,10.4688,0.87013,
1.1913,2.4545,-3.0818,1.5582,0.71766,-3.7352,-8.2987,0.65867,2.895,-0.39813,2.8276,2.92,8.8765,0.81815,
-1.2901,0.86123,1.4412,0.01871,-4.628,-15.0803,-3.9441,-2.2731,4.6493,1.5542,-0.23478,-0.14751,8.8257,-2.6056,
3.1257,-2.5649,7.1393,9.1762,6.7369,-15.6217,-4.1899,-3.1011,-6.7169,-6.7342,-5.5233,-0.62059,8.2961,-9.1977,
3.1791,-3.6163,6.9524,6.9388,1.271,-12.9972,-4.6614,-2.6736,-7.5187,-8.0174,-8.325,-0.82433,8.0398,-8.8868,
0.33725,0.2161,-4.7932,-0.46738,-12.9053,-13.9046,2.6082,1.102,5.2245,3.7923,0.12828,-0.5339,11.1728,2.9746,
0.79872,1.6492,-9.3261,0.042598,-13.2156,-15.4807,2.4517,2,4.911,3.0824,5.4232,-0.9838,5.6817,3.278,
2.6792,2.9962,1.8383,4.3784,1.6774,-9.7313,-4.9263,4.2901,-5.989,-5.7797,-3.5793,6.788,-1.4081,-5.5958,
-1.8196,2.3348,5.1027,0.2595,7.2413,-3.8446,-3.6666,5.9611,-5.6289,-4.4683,-5.7744,9.7554,4.4617,-1.8853,
-1.4695,0.50746,1.1811,-1.9252,3.6733,-5.7831,1.6151,1.5061,-1.6762,0.86144,2.5258,-0.23038,8.2913,2.3251,
2.9568,0.47678,4.4845,3.9746,4.899,-5.4363,-5.7129,-5.3334,-11.6988,-4.9755,-0.51804,3.1577,-3.2936,-3.5992,
-4.9334,-3.4082,2.2872,0.36216,-3.5899,-4.146,-3.9239,-1.1565,-6.1762,-3.2307,-0.48696,10.681,-3.5779,-1.937,
-14.7605,-9.4702,-6.045,-4.4803,-14.9439,-10.646,0.6499,4.6974,2.8711,0.33757,3.3986,2.8093,4.3491,-0.85688,
-5.4392,-5.2868,1.7895,5.6707,-2.7191,-5.9098,-6.3787,2.7281,-8.1472,-6.1904,1.9897,-0.010138,0.47293,-7.3132,
-2.7023,-3.0414,9.3949,6.7763,-1.5918,-4.5912,-7.9242,-6.5946,-11.5148,-9.6754,0.42402,-0.49192,-0.037382,-7.8383,
-9.53,-1.1715,7.1442,2.2726,-13.3065,-11.3053,-3.3512,-1.6192,3.2761,-0.17654,1.6036,-4.0776,7.9188,-0.37831,
-7.512,0.827,3.8235,4.0644,-11.544,-10.627,0.22435,5.7086,9.4665,5.1362,0.54356,-3.351,6.4794,-0.83755,
-4.8919,-2.3557,4.317,3.0976,-5.3075,-1.0713,-2.4407,-0.65947,-0.01907,-0.71509,-0.21241,-2.4266,1.5113,-3.9203,
-7.4909,-2.6967,5.9862,2.4294,-4.5071,1.4031,-6.6325,-3.5122,-2.4285,-1.6365,4.1391,-1.7991,4.7951,1.1352,
-2.9436,-1.3296,3.4579,3.9713,-1.5854,-3.2604,-4.5474,-0.16775,1.3331,-1.2974,7.9881,0.47804,4.7484,2.7543,
-0.59828,-1.4908,-3.2576,-0.84672,-2.2134,-7.1623,-3.0697,0.082827,-0.91653,-5.3169,1.9652,-0.75547,0.84804,-1.5083,
-1.2853,-2.1247,2.9639,-1.0369,-2.8037,-6.0095,1.2123,1.7651,4.6821,0.54576,1.1239,-2.8798,7.787,-1.1769,
-0.48527,-4.6488,12.6675,7.461,10.6209,-1.0696,-6.3327,-5.8126,-5.4812,-6.4769,0.33361,-3.4299,-1.1163,-6.1679,
5.8108,4.3072,19.6207,16.6543,22.9991,10.082,-7.8805,-5.9458,-14.3109,-9.9446,1.2775,-0.33202,-8.7621,-6.2798,
-2.0096,0.43339,6.151,2.3987,7.5191,1.041,-1.3821,-1.0098,-4.5342,-2.3581,-1.4503,-9.2297,0.19928,-4.6982,
-4.7816,-1.5206,0.47949,-1.1195,-7.032,-4.3239,2.557,2.9074,8.2711,7.4241,1.529,-4.8198,12.2386,1.8505,
-3.2894,0.74005,4.5483,5.9373,-8.2973,-5.7517,-2.6579,-0.88243,2.231,0.95337,-0.24971,-3.3255,5.479,-1.8758,
5.1025,5.9981,10.5417,7.991,0.39523,-5.889,-2.0162,1.5806,-1.7595,-6.8168,-3.1275,-8.4284,-1.1169,-7.548,
9.3758,4.915,11.1142,3.4144,0.61248,-5.7766,-2.6184,-2.1294,-6.7154,-9.5411,-7.037,-11.056,-4.1832,-10.2284,
7.6084,-0.92347,7.7968,0.55845,5.1555,-2.2963,-2.7023,-8.0272,-5.5891,-4.8713,-5.4094,-4.3671,-1.2806,-5.9993,
0.88565,-2.796,-3.7585,-3.8136,-0.9382,-2.1585,0.35216,-1.761,0.049133,-0.24043,1.1819,0.23352,4.581,-2.7466,
3.4834,-2.8695,-5.7019,-2.8617,-5.4614,-1.7881,6.3568,-2.3784,-1.1589,-3.3593,6.6543,-3.3957,4.5474,-4.2692,
15.5669,0.91813,8.7402,8.6382,8.9663,8.2016,2.36,-16.3357,-12.4175,-10.1476,0.71146,-3.9148,-4.6436,-5.7003,
12.9454,6.4064,14.3618,12.2175,19.3946,11.8066,-5.2537,-29.4556,-12.3961,-7.3693,-7.2852,1.381,-6.5343,-0.77877,
-1.9313,2.4068,0.24349,4.0124,4.1309,-0.22994,-0.84085,-41.7882,-0.32389,-0.41947,-1.3042,4.9138,-3.4909,-0.0089132,
-7.2383,-3.5219,-4.1097,0.39747,-10.217,-6.0007,-1.7545,-53.381,-4.643,-6.1791,0.22004,2.2086,-17.3815,-9.1672,
4.5239,4.161,6.0191,5.917,4.4961,4.7232,-2.8543,-64.2781,-7.0157,-7.9778,-1.4806,6.1732,-28.5109,-2.5918,
1.8426,1.501,3.73,3.1521,3.3831,3.4759,-1.7189,-73.3161,-5.6307,-4.6063,-7.1761,4.3573,-30.6564,-0.025968,
0.28556,1.8931,8.3262,9.7112,0.76934,8.0876,-0.16977,-72.2918,-10.5953,-0.4738,-0.47882,6.5057,-36.53,-1.9528,
1.7147,4.1896,14.5755,12.021,4.5796,8.0845,-3.534,-71.3288,-13.334,-6.23,4.3702,4.1872,-43.0148,-4.7282,
-1.5217,3.6973,8.1574,5.7562,-3.1668,-3.7287,-0.18851,-73.5565,-4.0983,-2.7231,-3.8458,-3.5358,-40.6749,-3.7211,
2.4262,3.9576,14.8985,13.1238,4.736,3.7256,-0.65936,-74.9277,-7.2266,-0.14938,-6.0254,4.3893,-35.8241,-3.0157,
7.1011,0.82785,26.5379,18.1207,18.4313,15.0715,-6.8865,-74.7706,-13.0598,-5.9248,0.60287,13.7667,-32.2286,-4.2812,
-5.8582,-3.5604,10.8456,2.9335,3.2255,0.067166,-4.5449,-73.6588,-3.1169,-4.1233,-0.3974,0.40744,-25.4744,-3.0603,
-5.7479,1.7147,-3.9051,-11.3425,-10.5861,-6.3243,9.8278,-64.6598,11.1701,10.2241,3.2416,-0.82207,-12.136,4.113,
-5.644,-3.9318,2.3552,1.6305,-10.6739,-4.2574,-2.4515,-68.7339,-2.1541,0.33118,-2.0141,2.8427,-24.6638,-6.9796,
-2.8952,3.535,12.8187,15.6327,-5.6951,-0.1458,-12.9097,-62.6819,-6.8456,-3.0631,0.034957,2.6721,-29.4509,-7.5251,
-1.9981,5.492,3.132,6.1383,-5.1122,-2.7879,-4.6634,-61.0899,-1.8551,-2.156,-1.6544,-5.9239,-19.7297,-3.9402,
1.2552,0.58321,6.5595,0.70837,3.6304,0.51261,1.642,-63.4501,-2.9491,-4.6782,-7.0987,-1.4711,-16.3767,-5.391,
-1.2304,-1.3802,11.4683,3.5582,6.3049,3.8561,0.097447,-59.1612,0.12017,-3.4334,-4.7444,3.9196,-21.6609,-6.5135,
-7.4231,0.6308,-3.1991,-4.85,-1.7862,-1.1958,0.57353,-53.2011,5.4156,0.14705,1.3249,-5.9566,-15.5405,-3.7121,
1.4579,3.2445,-1.3203,0.020249,12.421,2.9733,-1.1481,-51.6963,-3.8274,-3.9591,1.0044,-9.2146,-10.9931,-6.6229,
14.1447,9.0752,12.8589,14.119,25.7757,15.0872,-3.2481,-45.4613,-5.7667,-3.9628,0.22102,-1.6721,-12.0205,-7.4306,
6.0654,8.5309,13.1724,6.1618,10.1292,8.8796,-4.9817,-42.7336,0.36367,-4.6891,-3.1665,-10.2486,-15.1555,-5.5387,
-2.0113,1.2701,-1.718,-8.3079,-4.5786,-4.1865,2.0661,-45.472,2.7524,-1.9972,-3.4589,-17.3465,-12.8003,-5.2064,
3.1708,1.4351,0.67476,-1.181,4.614,0.64424,5.5573,-43.4668,-2.9566,-2.6005,2.2925,-3.531,-9.381,-6.581,
3.9447,5.6871,0.15211,5.1561,18.3167,7.354,-0.078511,-35.0744,-4.2252,-6.783,-0.2554,6.8035,-8.336,-5.7044,
1.2974,1.9719,-9.016,-5.7586,3.1177,1.6101,5.2284,-29.5955,5.1869,-0.1095,-2.1687,-1.7998,-2.5336,-1.9877,
1.9427,1.1304,-3.4136,-6.6181,-5.867,0.30848,5.6378,-33.3634,0.29616,-1.308,-1.3155,-11.0916,-4.0686,-4.5198,
3.7546,7.8113,7.8786,3.9026,-1.6583,2.7003,3.3716,-30.8794,-0.68524,-4.6037,0.20994,-6.5695,-3.3423,-5.2127,
1.3599,2.7631,4.7546,2.9453,-2.7639,-3.4872,1.4823,-24.9293,0.079002,-1.6762,-0.043853,0.33237,-1.9367,-6.5869,
2.0014,-1.0179,-0.11019,3.4917,4.874,1.7834,0.67022,-20.3001,-4.5053,0.59331,5.0207,9.7127,-0.61499,-4.5047,
-2.2162,-3.6081,-6.6113,-2.2616,-5.3011,-0.010791,0.38881,-17.8772,0.82651,-3.0575,6.8884,2.6217,2.0728,-3.5113,
-0.39604,-4.5969,-7.9018,-8.1515,-14.3828,-8.9282,0.12452,-12.707,7.2844,-2.1511,3.3416,-2.5973,3.6356,-1.1315,
-0.13085,-6.4903,-4.7762,-6.4571,-8.9401,-8.6333,0.35801,-11.2212,1.3042,2.0758,0.0080655,1.6564,0.7664,-0.34022,
-3.7389,-8.27,-3.2848,-1.4904,-3.8246,-2.0897,0.5775,-14.6458,-0.94369,-2.6285,0.24855,0.35171,-1.9311,-2.4894,
-0.38083,-4.6406,-2.3646,0.76842,-0.94336,3.0973,6.0867,-8.2232,3.6925,-1.7477,-0.48949,-0.87445,0.35412,2.2395,
1.8112,-7.4952,-5.8381,-5.7856,-4.0202,-0.70391,5.4805,-7.9708,-0.14406,1.4907,-4.5575,-1.5449,-1.3544,-0.54601,
15.682,3.5596,8.6122,8.541,10.321,9.9434,-1.1151,-7.0103,-6.8841,-2.4554,0.53645,6.7427,-1.7548,-4.3694,
15.4642,7.4432,14.0007,15.0182,23.8017,10.5518,-5.6277,2.81,-10.0867,-9.2977,-1.6651,3.6869,-4.7832,-4.8308,
0.43638,-3.8495,-0.9393,0.017116,8.2736,-4.1813,4.5922,16.7414,1.3645,0.65991,-6.1447,-4.9703,-0.88058,-0.44339,
0.048745,1.9251,-11.3678,-1.3092,-6.3228,-0.91738,8.8959,29.837,13.5752,13.3948,-1.6782,1.8354,9.0542,6.0911,
3.1788,4.9426,-7.0703,5.7587,-0.15909,9.9835,-5.7378,29.0106,-0.49617,-1.5089,-5.1934,1.4843,-1.3715,-4.1567,
3.952,1.754,-1.8258,6.8595,5.1531,10.3488,-4.068,34.0186,-2.8765,-2.503,0.42083,0.91289,-2.7354,-1.9791,
-1.5876,-7.9924,-7.9825,-2.229,-9.2561,-4.3721,0.99654,42.1009,5.0091,4.3959,6.1804,-4.4443,4.1778,1.9962,
-0.76894,-6.7895,-0.9961,-0.89039,-6.4111,-10.9792,-2.6787,41.2618,4.4676,2.4449,7.0149,0.40211,3.2038,-1.257,
0.96442,0.12534,9.9099,1.8146,8.0736,3.7795,-2.7589,39.5092,-6.1648,-0.83527,5.8706,11.7062,-4.9422,-2.8688,
-2.9498,-6.1487,-4.7847,-12.3943,11.0843,3.6733,0.78107,38.585,-4.3487,0.66111,2.6263,7.1474,-5.1276,-0.7685,
-0.36271,-4.3335,-14.5002,-15.8687,1.2602,-2.8137,5.5549,45.9108,8.9277,10.2629,5.3608,1.4159,6.7492,7.9547,
5.6848,1.9518,-6.1582,-4.0701,3.836,0.97058,-1.7685,43.8793,3.3306,8.924,0.45963,-0.83842,1.2828,4.3442,
11.6105,5.2094,1.4419,2.4409,13.247,5.2509,-5.0366,40.7646,-7.4743,-1.2527,-6.3162,1.1403,-10.3631,-3.6295,
8.5033,6.3426,-2.501,0.36576,7.1495,4.4537,-1.8419,46.0315,-3.6519,-3.5876,-4.4914,2.0358,-8.2955,-3.4117,
2.6907,2.1059,-4.7613,-1.5846,3.8278,3.7043,-2.2135,42.7875,0.90578,-2.4087,-0.36575,-1.4606,-2.9773,-2.2429,
1.8061,3.1846,-4.2344,-1.7303,9.142,4.2052,-0.87565,40.9433,-3.7281,-2.9869,-3.4771,-7.3988,-2.0755,-0.90328,
4.59,7.814,-4.4625,-0.66236,10.0395,6.363,4.4793,45.7173,-4.9504,-3.2898,-3.7506,-10.3291,-2.9151,0.11502,
9.617,1.0784,3.5182,2.2697,14.7395,6.4634,0.35439,39.1179,-5.6175,-5.5028,2.2592,-1.5144,-9.4888,-7.6044,
12.6554,-0.67349,9.3327,2.3745,16.9887,5.3527,-5.2105,36.5299,-6.4857,-4.9317,2.847,10.3866,-9.6429,-8.3535,
1.0501,-1.3562,-4.9658,-10.0603,1.8693,-5.3326,1.1279,37.9535,-1.999,-0.53819,-3.3496,-1.0826,-1.1103,0.58366,
-3.3515,0.65358,-6.1139,-4.6362,-12.3428,-6.9408,8.2909,42.425,8.2441,8.171,1.19,-5.8381,0.88472,8.7436,
-0.25788,-2.7601,-0.92681,-3.8761,-10.6379,-3.6323,-4.7401,37.9513,-3.8198,-0.51399,3.0468,-0.66759,-11.7019,-0.45814,
11.0856,-2.3533,-0.63,-9.6688,4.1003,1.6471,-1.3224,38.3253,-6.2419,0.72191,4.551,3.47,-2.0819,-1.6357,
11.1438,-2.9354,-4.6896,-12.2222,17.9543,-0.13875,7.675,37.2311,-1.2881,7.6685,-0.78332,0.12881,5.0329,1.114,
1.0749,-3.0001,0.17087,-8.8375,8.6819,-1.3357,6.0094,38.6124,-2.4159,3.1108,-2.4238,5.6645,-4.6693,-1.1222,
-4.533,-1.1331,-1.0444,-6.6203,-1.7212,-5.8349,-1.8232,42.3214,-1.0659,-2.6197,-2.0372,6.0477,-7.04,-0.33178,
0.077346,2.3094,-4.3562,-1.8848,3.2028,-3.5568,-0.74946,38.8178,-1.4838,-1.4982,-0.95106,-3.4746,-2.2793,1.1339,
0.5551,-0.23931,1.6902,-0.80689,12.1697,-0.93281,3.1519,29.2584,-5.7331,-5.2647,3.4448,-7.1221,-3.5883,-4.7182,
-4.7813,-2.6355,2.5526,-3.651,10.4752,-1.359,1.5165,29.4311,-0.56888,-3.9849,3.72,-0.91017,-0.48098,-2.025,
-6.6636,-2.7184,-8.4463,-7.0474,0.92905,1.3739,1.6665,35.6189,9.3476,5.6546,0.36334,2.7599,1.717,11.3529,
-6.9869,-3.2784,-8.6631,-7.3476,1.596,2.0143,1.3253,34.2049,7.5813,4.1098,1.5466,1.8711,-0.55538,9.4662,
-6.0853,-3.5632,-7.6609,-6.9068,3.4289,3.34,1.2463,33.5989,6.6449,3.3817,3.3825,1.7589,-2.4498,7.9348,
-5.7202,-3.3498,-6.7194,-6.4924,4.6694,4.5856,1.6534,33.0292,5.7638,2.6964,5.1077,1.6533,-3.7491,6.9763,
-5.136,-2.9079,-5.5933,-6.3438,6.076,5.9975,2.2771,32.7342,4.6946,2.2937,6.488,1.7951,-4.7294,5.8344,
-4.5869,-2.9744,-5.4987,-6.2041,6.9167,6.8427,2.3814,31.9755,3.6901,1.4327,7.786,1.4464,-6.1329,4.7614,
-5.5167,-4.001,-5.4095,-6.555,7.7068,6.6731,1.5154,30.2977,2.2636,0.14169,8.0419,0.15458,-8.8982,2.3063,
-2.7754,2.5058,-3.1569,-2.7875,5.3164,8.6833,-0.50346,27.9981,2.1275,3.5074,4.6671,-7.0858,-14.1491,0.24,
-7.9117,4.2834,-2.9673,0.27204,8.3717,4.3057,-6.74,23.4259,-4.2664,-2.9693,3.423,-5.6961,-15.2281,-2.1848,
-5.2676,4.7496,-2.0661,3.8714,12.9308,10.555,-3.6843,24.6717,-7.1441,-2.0685,1.0482,-4.6316,-14.0737,-1.3305,
-5.6747,2.2952,-6.0397,2.4336,5.6473,11.6087,0.15197,21.9859,-2.6179,2.1532,-2.6299,-10.8614,-12.0242,-1.9738,
-5.3342,2.6399,-6.1593,2.7699,12.0573,11.8765,0.14332,23.5597,-2.4608,-1.8324,-2.4721,-2.4965,-9.3741,-0.89108,
1.2526,7.302,-0.48732,5.0136,25.4339,18.3945,-1.7937,28.4124,-11.9544,-10.3993,-4.7341,3.9196,-12.6683,-0.83785,
-0.26861,3.4896,1.9523,4.2311,22.8233,16.3272,-0.24005,22.3691,-8.8267,-7.8469,-3.9679,-3.5462,-11.9079,-1.7517,
-7.7245,-2.7455,0.63007,1.3259,9.1616,13.6601,-1.4307,15.9655,-1.7894,-2.3147,-0.11462,1.2461,-5.1681,2.451,
-5.815,0.3115,-1.8181,3.1743,15.8425,18.6249,-2.7909,20.7919,-3.1281,-0.72975,2.3026,12.7402,-4.3759,4.2319,
-4.0199,-1.6354,-6.5297,2.9839,14.4096,9.7946,-2.6234,21.955,-4.3867,-0.20403,0.23626,3.7811,-6.5239,-2.2885,
-4.2606,-1.0553,-3.2454,2.3229,7.2785,0.53031,-0.53785,18.2276,-2.1953,1.7364,3.1141,1.1441,-1.3118,2.6695,
-6.8975,-5.8123,-4.015,-6.0112,2.5034,-5.2861,-0.023643,8.9388,-4.9556,-0.7779,4.3736,2.0393,-4.1251,1.0631,
-1.6632,-7.8739,-0.88182,-6.1327,3.7993,-5.9333,4.7983,13.7053,0.64413,5.0531,8.4497,-0.49292,-0.021462,-1.893,
-2.5275,-7.4017,-3.7212,-3.8367,-2.213,-10.8797,1.6181,17.7035,3.0158,6.6784,5.0504,-0.94551,1.9082,-3.7078,
-7.4373,-7.1983,-9.5232,-7.2217,0.57106,-8.5397,-1.1303,10.6155,-0.29837,-0.23005,0.16788,5.137,-1.3395,-1.7979,
0.72197,0.46419,-1.7212,-1.486,14.6368,6.0727,-1.0623,11.4246,-3.1732,-3.1085,4.9783,8.6849,-2.2237,1.2023,
2.8478,3.0874,1.5151,8.0032,15.8068,17.8799,-6.5426,18.2109,-8.0445,-3.163,-0.38209,-1.7181,-4.7414,-2.0034,
0.74875,5.3128,2.3885,13.3075,0.7584,4.756,-1.8113,20.9747,-1.7768,1.847,-5.6613,-2.5793,-2.0468,3.9014,
1.9089,6.1991,6.3428,9.8582,-5.1917,-6.8573,-3.3896,12.2446,-3.8396,-0.43272,-6.0448,1.1911,-2.6466,2.9442,
4.2049,3.8989,6.4441,5.8923,2.8326,-7.4102,-4.1501,7.1716,-11.8039,-6.6733,-1.3438,-0.32665,-4.8984,-6.391,
0.81893,3.4238,-1.8965,2.405,0.49323,-5.7605,0.67797,9.8741,-10.373,-5.0683,3.3164,0.41608,-4.8457,-3.8386,
-0.19407,-0.15562,-5.1567,-6.4159,-3.3928,-4.9327,2.5659,6.872,0.3732,1.9852,6.0099,7.14,3.1583,3.1406,
2.2277,-3.5207,-1.4728,-8.923,1.1496,-7.529,0.0014005,0.67509,-0.13159,-0.5445,0.34665,5.2654,3.9326,-0.4223,
4.5042,1.9927,2.4715,3.6635,8.311,-5.6315,1.9295,8.8288,-6.3907,-4.3682,-3.5305,-0.83514,-4.0161,-3.2895,
4.4749,0.18591,4.0104,6.0947,6.607,-6.9808,0.12651,9.0225,-7.2121,-7.7215,-1.6319,-2.9547,-7.8725,-3.815,
6.3762,-0.54792,2.5652,-1.7425,3.0778,-8.2485,-3.0143,3.4197,-5.0919,-4.6069,-1.7748,-1.0899,-0.41002,-1.8987,
2.1368,-1.9613,-3.8557,-6.4587,3.3751,-5.3435,0.54098,8.0347,-2.3762,0.48974,-0.22201,-1.9888,5.8806,0.62493,
-3.776,-8.1101,-4.1063,-6.0712,5.5827,-0.68455,-2.8659,12.3734,-4.1619,-0.98545,2.6834,1.023,0.70754,-1.3403,
-0.65712,-5.6956,-0.4857,-3.7785,7.1757,-2.5719,-2.2123,10.6669,-1.9842,-1.4085,2.0402,2.8896,1.1468,1.632,
-0.6177,-4.8719,-10.098,-7.8905,4.817,-9.6484,6.5976,11.955,3.4375,-1.324,0.47153,-4.5146,5.4168,5.8724,
-0.33967,-3.3743,-9.7326,-4.2836,1.3949,-2.0796,4.0325,18.2276,1.0621,-1.4855,1.6485,-6.4125,4.3689,4.3152,
2.332,-1.0029,4.9513,4.8912,-0.37622,3.5885,-2.2352,12.5544,-6.9556,-3.5658,-3.9938,-3.3768,0.0091436,-2.4514,
3.3972,0.74473,8.8719,7.731,0.36948,-0.24199,0.06832,7.2217,-4.3689,-1.6644,-7.3698,-2.933,-0.2326,-2.0632,
4.1574,2.6285,2.5552,3.8934,0.34754,2.6653,-1.3818,12.0912,-2.6607,-1.5647,-4.0348,-4.685,2.1917,2.3992,
2.221,-0.18057,1.1968,-2.366,-3.7709,0.81791,-1.5401,11.1246,-4.1881,-7.0142,-1.6238,-8.5015,2.3014,0.56823,
0.64148,2.2404,-0.32124,-5.1165,-4.9909,-4.0519,6.747,8.0465,1.8478,-3.7013,2.33,-6.5451,3.6091,3.4262,
1.0852,2.5881,-10.4251,-5.2917,0.12904,0.04785,1.0398,8.5278,-2.1197,-1.0689,0.26223,-2.2963,2.4285,1.2922,
6.3225,2.4326,-6.9073,3.2207,9.2801,11.132,-3.8431,12.8366,-6.813,1.4056,-4.0921,0.73378,0.35481,-2.1596,
1.1224,3.251,3.1481,7.3658,6.3132,7.572,-0.71999,10.1382,-7.8505,-3.0175,-6.7391,-3.1666,-4.9691,-2.5119,
-5.4522,1.3689,1.7542,-2.4759,-5.3936,-3.7286,7.2772,6.3967,2.0208,-0.66706,0.65539,-7.0738,3.283,5.5928,
-4.161,-6.4262,-9.92,-15.3426,-7.4803,-10.7355,9.2504,6.0131,6.72,2.2652,4.9546,-4.7214,13.2091,7.6671,
0.18582,-4.3536,-5.2277,-9.8429,1.8863,-7.9224,2.6696,7.8213,2.2192,-2.9321,6.8263,3.5159,5.4265,2.6276,
-3.4405,0.0051623,1.1117,-6.1187,-2.324,-6.7239,3.715,10.4857,4.2555,-3.9613,6.6579,3.0637,1.9676,4.6393,
-4.4392,3.1381,-4.4983,-7.9209,-8.6922,-4.6331,8.5535,13.9537,7.1334,1.3379,-0.73123,-1.2172,12.2141,10.3867,
5.9499,3.9139,-3.7467,-3.5895,-2.3864,3.8394,6.5938,12.1524,3.8131,0.2935,-2.6158,-0.66248,11.963,7.3527,
5.3519,1.0275,-0.38845,-2.1688,0.89031,4.8141,-2.7194,5.3977,-2.4412,-6.714,-0.28967,-2.31,1.8452,-0.077879,
0.4515,5.5456,0.83969,-3.7259,-4.2248,-1.9824,-2.3153,8.6888,-2.0538,-3.66,2.8607,-1.4485,3.4217,4.5061,
-1.0218,4.731,0.78977,-3.5024,-7.8277,-5.2375,3.6082,8.6498,0.47957,2.3446,3.6534,-0.87916,3.2164,6.1644,
-1.6837,-1.0967,0.019249,-0.64092,-4.7067,-0.34396,-1.6697,4.5157,-0.27233,2.927,-0.66291,-1.5495,-2.5199,2.1789,
0.82771,-0.066844,-4.8028,-2.0485,-2.4959,0.64078,-3.498,4.7264,5.5288,8.5358,-5.4436,-4.3489,2.4517,4.4585,
5.8397,3.0707,-2.827,-0.72029,4.1618,1.3257,-4.9748,1.3098,-4.2029,0.06989,-7.7681,-4.3289,-0.82885,-4.2447,
6.6942,5.5375,3.8501,7.2767,11.3834,8.2356,-4.9178,5.3286,-16.7252,-10.2982,-5.1333,-1.4181,-9.2148,-6.6416,
-0.45615,2.7954,-2.6476,2.0196,-3.3996,1.9571,4.0542,9.3474,-1.7422,-1.9677,-1.933,-6.1535,-1.4313,3.3981,
-3.0799,2.8686,-6.5861,-2.6813,-14.8852,-5.6322,7.4268,4.2073,10.6549,5.1402,-3.9862,-9.3992,6.1264,4.8815,
-1.2079,4.8656,2.2452,1.095,-4.1102,2.6595,2.4014,2.7496,4.9539,-1.1938,-4.9519,-1.3635,2.6253,-0.95504,
-2.3404,1.4405,-0.058935,-1.6221,-5.0686,2.7411,-1.3583,5.2359,0.5591,1.5287,1.3706,-1.0409,3.1909,-1.6209,
-3.4053,-1.7795,-9.4559,-5.6221,-14.6469,-7.7877,1.8567,3.7165,7.5154,8.9088,4.9038,-5.5582,4.6867,3.0557,
-3.2012,-1.6729,-4.068,-4.8026,-16.6604,-9.7308,2.2274,-0.36315,9.4744,4.5181,1.7172,-1.3681,-0.89738,-1.9482,
-0.35737,2.0431,3.6481,1.0289,-20.2398,-5.0493,-3.932,3.7562,2.8806,3.5239,-0.55473,1.8472,-3.0125,-5.4465,
-0.57712,3.1256,-1.6322,2.1727,-20.7124,-4.0232,-3.9368,5.2183,1.9846,8.8563,-0.76264,-2.3607,3.1941,-0.058218,
0.4216,1.0101,1.8399,4.4523,-5.3697,5.8594,0.6375,0.56666,2.3477,3.5045,-1.199,0.19083,1.074,0.42744,
-0.80899,1.6724,1.9705,4.9085,2.7858,10.569,1.3226,2.2199,0.037708,-1.2856,-3.7782,3.3129,-5.4979,-1.2854,
-6.0631,-0.35616,-12.2477,-0.20674,-11.4814,-4.1651,2.6891,7.8708,4.8557,3.1299,-3.0696,-3.1529,0.61607,1.2018,
-6.9041,-1.5401,-12.1151,-1.8816,-24.8925,-11.2663,2.2867,2.8193,6.2516,1.2549,-1.1982,-7.0611,2.7487,-1.5214,
-3.1157,-0.48358,1.1451,-1.2865,-14.7221,-1.4315,0.22158,1.686,1.5379,-1.2303,0.31975,3.4857,2.1016,-5.7687,
-3.8928,0.027597,-1.334,-2.1734,-15.7672,-6.6481,2.6186,12.6723,1.9278,1.7358,0.3008,5.205,5.8322,-3.4946,
2.8485,4.1231,-1.9771,2.5361,-12.6522,-9.3827,4.6304,13.599,0.60709,-2.4659,-4.7792,-3.0613,6.6868,-1.5979,
8.2212,2.1889,5.6134,2.1434,-10.6873,-2.7939,3.1478,-1.317,-3.0448,-6.4153,-8.1074,-8.4212,5.0808,-3.1888,
6.0409,1.3344,7.446,-2.0828,-12.6974,-7.2058,2.7177,-1.1175,0.75358,-1.4509,-0.63129,-1.4082,6.9453,-0.82807,
5.9192,1.4956,5.3117,-2.199,-5.9103,-9.9067,-0.57859,8.3498,-3.8711,-3.0513,3.0218,3.2558,2.431,-5.3579,
5.805,0.68248,4.2701,0.58446,-2.9045,-1.3586,2.1072,7.6074,-1.4697,-3.1092,0.18938,-3.447,-0.84832,-3.8316,
-1.7739,1.6056,-7.0731,-2.3429,-16.8303,-3.2052,0.53475,5.7049,4.4028,0.93398,-8.0169,-11.9173,0.16713,0.73685,
0.019744,3.6785,-7.854,-1.9614,-18.833,-4.7002,-2.1484,6.5679,1.9695,2.5652,-8.2593,-9.0329,-1.0482,-2.4408,
3.6337,1.7707,-4.7314,-3.5307,-7.3389,-0.80273,1.1137,4.4864,0.64625,1.6881,-2.2199,-6.322,-2.6723,-2.5351,
0.041501,-4.6022,-13.6066,-10.5499,-10.755,-1.2365,3.4573,2.7712,3.4998,2.069,0.80562,-7.8706,-0.10206,1.9555,
-2.1304,-4.0849,-14.9593,-9.6757,-11.7969,1.0069,7.347,8.6307,10.2794,5.5601,2.9267,-0.40874,3.5197,4.9714,
-5.377,0.98044,-9.2415,0.063865,-7.7149,-0.017658,3.5317,9.5591,5.3243,3.2983,-3.5159,0.097715,-1.9941,2.2626,
-6.7414,1.1628,-1.6974,4.6391,-15.2059,-4.5963,-2.2236,8.262,0.42536,0.44904,-5.9563,-2.5595,-5.4901,1.4037,
0.41177,-0.35299,5.1536,3.3971,-11.4011,0.98231,-0.64415,8.2489,1.8459,-1.0239,-2.7066,1.4507,0.6241,2.284,
6.895,0.39109,8.9417,5.3624,3.383,9.841,-5.1848,1.7279,-6.7006,-7.9524,-4.2314,0.64031,-3.0288,-4.361,
10.5787,0.60859,7.1999,4.7997,17.28,10.9377,-3.1865,1.3833,-8.4677,-4.3417,-1.8079,0.84332,-8.3907,-2.894,
5.1232,-1.3561,-2.873,-5.1297,13.5921,-0.32358,4.7175,4.1924,0.71702,5.5597,-4.11,-1.1359,-4.0308,1.136,
-0.0046491,-0.31065,-0.77222,-1.4472,0.72527,-6.5707,7.3267,3.4591,5.4945,5.7083,-7.7196,-7.8162,1.9958,-1.3425,
-0.0041408,0.67208,8.4329,8.7627,13.215,-3.7661,-1.3078,1.3236,-6.4041,-5.7216,-7.7386,-10.7217,-5.8369,-9.4569,
4.3342,0.63199,6.9628,5.3442,11.9399,-1.13,-3.1578,4.6184,-5.5382,-2.968,-2.9357,-5.2579,-8.379,-4.5509,
2.3874,-2.0575,-7.5549,-5.3403,1.8236,-1.7853,4.504,7.4743,8.8941,5.6462,-0.10848,-5.1834,4.4163,0.30142,
-5.9508,-0.0056126,-14.9349,-0.19939,4.1245,5.5526,-0.10482,4.616,2.6968,0.0045717,-1.548,-1.4977,5.1154,-3.0909,
-5.8347,6.0203,-9.4595,6.8024,5.5643,14.6197,-1.3038,5.0619,-2.0447,-2.1649,4.0885,6.0639,-1.2171,3.1201,
-4.2796,1.0795,-8.6507,-2.0416,1.6147,7.7165,1.9077,2.5888,1.6932,0.61635,0.70992,1.1201,-5.724,5.1023,
-5.4691,0.53283,2.4736,-1.4372,12.1232,8.2181,0.3474,1.9515,-1.3005,-0.3845,-3.671,-1.3572,-8.2727,-0.50649,
-8.0332,0.018699,9.5558,0.57748,16.6986,11.0992,0.32632,6.173,-4.1148,-2.7718,0.40543,1.1346,-6.8122,-1.4402,
-7.0693,-0.94675,3.6798,-4.7598,7.9835,5.1304,3.1988,10.1409,1.4348,4.143,5.6837,5.4048,1.7912,4.4308,
-10.0193,-4.7461,-4.7355,-11.7048,-3.1001,-3.8541,3.0071,5.6763,9.5436,8.2329,8.235,3.6345,4.5765,4.6471,
-9.4182,-3.0151,-6.8619,-11.0025,-1.9502,2.1618,3.791,1.9613,10.8992,4.8469,7.7409,1.0063,0.44554,-0.93436,
-4.0328,1.9861,-6.4502,-4.0759,7.3253,12.6369,1.6349,4.7357,-0.36004,0.69925,1.9738,3.838,-1.9918,-1.8426,
0.54791,1.385,1.6496,2.4352,12.1885,11.3967,-3.2835,7.3441,-6.123,-2.2348,-3.4473,8.4284,-4.7648,2.6067,
-0.20832,2.5072,9.5043,4.4582,8.8061,9.0257,-5.2556,4.7343,-2.6226,-5.2342,-2.9995,7.1994,-10.0221,-0.20124,
-2.606,4.2849,7.9702,3.7088,5.3852,12.3406,0.84431,3.9678,0.9092,-3.4739,0.55496,0.018956,-9.4212,-2.5993,
-3.4137,4.0276,4.5997,4.9323,12.2931,13.5285,-0.65238,1.3198,-3.4834,-5.1934,-2.3706,-5.2846,-4.5169,-0.99685,
0.64752,10.5349,7.2158,10.9033,20.7146,16.5732,-3.9877,4.6146,-1.3467,-3.9179,1.1461,5.1554,2.5025,2.9189,
-12.1658,0.020839,-7.3172,-3.8509,5.3717,1.4788,-1.0973,-0.24152,3.7958,-1.0318,2.2826,0.7487,1.1471,-4.7276,
-8.3021,-2.1498,-9.1678,-7.3557,-0.61469,-0.89955,2.1022,3.3886,6.7017,1.1995,9.1353,-2.4295,4.6939,-1.3107,
0.39071,1.3536,5.4823,2.7266,13.5222,11.2055,-12.1239,3.6672,-7.8004,-12.9724,-0.089937,1.5727,-5.2287,-2.6783,
2.5367,6.8158,17.3249,5.6963,23.4362,18.0048,-7.1791,3.206,-7.4533,-10.3864,-4.1821,7.0217,-0.81783,-3.7227,
-2.4365,5.4428,4.7165,-2.3585,7.93,7.7657,6.2673,3.0139,0.70692,2.2881,-2.4847,-1.1126,7.9081,0.83925,
0.60245,1.742,7.3258,-1.7348,8.5392,5.8537,2.517,3.7971,-1.2635,-0.25951,-4.264,-3.4557,-0.27892,3.1992,
1.5299,1.1553,11.2248,4.636,17.1857,5.5023,-6.7933,4.051,-4.5623,-5.0644,-4.008,5.4285,-5.0827,2.0427,
-4.5874,2.7732,3.0795,7.0089,2.0546,-4.2279,-5.6623,5.0132,2.7013,0.78305,1.7761,4.3794,4.1399,4.0893,
-5.5172,0.43742,-1.2028,1.045,-9.0355,3.0159,-3.6356,5.4356,2.7799,1.4592,0.46449,-2.873,4.1327,3.1213,
-0.3657,4.7497,-3.541,0.018208,1.6298,16.9349,-7.756,6.5555,-5.5818,-1.0387,-5.8301,0.6736,-5.7565,1.4875,
3.5129,11.2134,-9.5953,4.8376,-2.3246,30.0188,-3.9164,9.0544,-1.8722,1.9159,-1.1422,5.4537,-1.0725,4.2906,
-0.79504,6.9254,-11.1885,0.93215,-16.2851,33.5201,-2.4759,7.7885,1.3734,0.59589,1.5781,0.065455,-1.2489,4.7567,
1.6626,11.3304,2.498,4.7324,-29.408,41.6321,-3.2914,9.7311,0.80882,0.07797,2.9294,4.8816,-5.9945,4.953,
1.8038,12.8197,9.338,10.474,-30.2946,41.3033,-11.0481,4.5679,-5.7472,-8.3624,-2.7899,3.8658,-8.7683,-2.816,
2.4187,14.2199,8.0546,12.0149,-37.3948,38.102,-7.2515,8.3914,-2.751,-6.1736,-3.3457,-6.2479,-2.2164,-0.47761,
0.82776,8.546,-1.1053,0.6892,-40.9357,30.5137,-0.54993,8.3699,1.7523,-0.50058,0.22951,-8.2836,-0.63716,2.4436,
3.1878,8.5152,-0.55709,-0.31647,-24.3795,30.6106,-2.4451,2.0827,1.1653,-1.4349,2.1439,6.3134,0.84687,2.7784,
2.5148,8.0045,1.8862,0.18422,-13.8787,33.1125,-9.0471,0.51167,-8.0639,-12.9177,-11.0003,8.2243,-4.9888,-2.6907,
1.3996,6.078,6.5938,-2.237,-23.1691,33.0539,-0.7915,8.1937,-3.2418,-3.466,-4.5557,2.9101,-7.0996,-0.11913,
-4.7102,3.062,2.5825,-3.7897,-29.2505,20.7066,-2.4315,5.0508,-2.3241,2.7677,4.1535,5.8692,-9.3249,-0.35272,
-4.6681,3.6016,4.5972,-2.8395,-18.0953,14.403,-4.9367,5.4711,-4.3534,-3.9058,-0.19306,12.9888,-3.2213,-0.09059,
-2.2191,1.6981,6.9727,-6.7662,-10.0199,21.0104,-1.5072,6.8298,-3.8514,-2.9483,-1.3865,9.0763,1.0691,-0.32589,
-0.88062,-0.57298,1.9746,-5.1554,-13.0341,17.5806,-2.1397,4.7328,-0.96925,5.1823,3.7583,3.9519,-1.1642,0.41656,
-7.3355,-0.77934,-3.6873,-4.6049,-26.3521,2.4258,-5.6265,3.7262,2.7046,4.6302,3.2916,2.5098,-5.1915,-0.33156,
-6.6546,1.4364,4.0055,-1.6773,-18.3837,7.7031,-9.8684,-0.11304,-5.4117,-3.6016,-1.4854,10.3131,-11.8701,-3.9269,
-3.8448,-1.5419,4.7295,1.7978,-3.1807,20.7383,-10.7226,-8.7829,-12.3178,-5.3132,-3.8064,10.1763,-14.5324,-4.6556,
-6.7476,0.23785,-3.9899,-1.4435,-7.6899,15.3966,1.7309,-1.7484,2.16,1.0311,4.8581,-1.7625,-2.8142,1.1674,
-13.0916,2.1513,-8.0893,-9.0697,-14.4593,7.242,4.0372,-0.19728,4.4405,-4.3334,2.1561,-6.4774,-3.6096,-1.7952,
-4.8345,2.2634,1.3139,-4.4284,-13.8329,14.2791,2.108,-0.90903,3.451,-3.8327,2.7498,-0.063023,-6.0444,-0.48241,
-2.857,-1.9695,4.8507,-0.065103,-24.8131,8.3613,-5.0082,0.35103,-1.3356,-6.2536,2.3436,-9.9409,-8.3326,-1.6585,
-3.1675,2.0051,8.416,2.3494,-17.5395,5.4495,-4.2257,0.81191,-4.6295,-7.3246,-0.68904,-7.8982,-3.9762,-2.041,
-2.2543,-1.249,6.7056,-1.4072,-3.231,6.3271,-1.3209,-3.3344,-2.1828,-7.1263,-7.1554,4.3856,-2.5326,-3.1236,
-1.8779,-4.7892,5.0986,-0.11773,-2.7959,4.2605,-7.7493,-1.9288,-3.2569,-9.3501,-8.4131,2.9174,-9.8522,0.6795,
4.0194,-1.1274,9.613,8.5664,1.7102,12.2001,-3.9099,-0.36682,-4.0253,-7.8248,-1.6418,3.2243,-10.2254,6.4233,
2.3317,-0.5776,0.84124,2.2676,3.0536,12.4321,2.109,-7.0939,-5.2303,-4.9449,-8.292,4.9592,-6.7196,5.0738,
-0.70048,4.2771,-3.5478,-2.207,2.8706,6.8653,3.429,-1.8478,2.3141,4.0287,-7.3127,5.6258,0.91418,7.1793,
-0.89942,6.1901,1.7268,3.4691,6.7957,11.515,-1.8384,0.43221,1.4524,-0.79281,-3.7405,4.0829,-3.238,2.6512,
2.77,7.0235,1.8641,3.5019,8.5571,16.8497,-2.4515,1.6116,-4.1784,-3.3963,-1.8288,3.597,-7.6235,2.2511,
6.9423,2.2635,-3.5506,-4.9032,4.6695,6.1975,5.4086,3.4428,0.89283,5.9662,1.1732,0.48888,0.54693,6.4542,
7.7308,-2.9337,-0.20385,-6.296,7.0406,0.28227,4.3609,-5.1992,2.0443,4.4032,-0.10226,-3.638,2.6835,3.416,
5.8207,-0.34711,3.1828,-4.472,6.6182,6.0499,3.6174,-4.8872,3.3679,-1.1636,1.8321,-7.2761,-1.8158,2.2468,
1.6153,1.6017,-2.3106,-7.5779,-2.9379,1.8308,4.3644,0.70842,6.5405,-0.61165,2.6862,-4.4292,-2.671,4.0404,
5.3748,4.3981,3.1303,2.0358,-4.2077,-2.1355,-0.23577,-4.1543,0.36306,-2.0212,-5.6696,2.103,-5.8852,-0.058434,
6.7393,3.4111,11.8607,7.939,-4.6784,-2.2485,-2.391,-7.0388,-3.2739,-5.5151,-11.8372,-3.5665,-10.1116,-2.7063,
0.068436,2.7245,3.9183,-0.73204,-11.1466,-5.97,0.16257,0.61437,3.189,-1.8098,-3.8966,-11.0653,-5.1666,0.34818,
-1.8641,3.0427,-8.8505,-7.4368,-14.3342,-8.5041,2.5632,0.09535,7.8182,4.0832,5.4965,-4.617,-0.036086,1.7738,
2.3453,-6.5396,-8.5603,-9.16,-10.8228,-9.1989,3.1325,-8.3463,6.144,1.1869,4.4436,3.132,-2.2033,-1.4664,
2.6865,-9.0398,-2.2621,-5.2359,-12.1016,-10.5752,4.3908,1.3135,4.8111,1.5976,-0.16136,5.3542,-2.0711,2.478,
4.4535,-1.2665,3.1763,2.791,-6.555,-3.1922,0.75292,7.9836,-0.7798,2.948,-0.63407,2.6229,-2.9107,3.2937,
8.043,-1.6727,5.878,6.9621,7.9383,6.6405,-6.5229,-6.5954,-12.3024,-7.834,-0.5958,-1.3911,-9.9667,-5.0989,
5.6322,-2.5362,0.70463,2.688,8.7878,5.2782,0.61695,-3.6691,-5.7797,-8.3278,1.3681,2.0668,-2.6198,-1.4185,
-3.624,-4.0715,-5.8454,-10.248,-5.8395,-5.885,5.1595,7.8795,8.3057,3.0179,2.0092,-1.1905,9.3473,7.5844,
-4.6117,-0.69395,2.4593,-7.4637,-5.8508,-2.3986,0.7523,6.6836,5.156,5.9701,1.6474,-7.1448,5.1708,9.2988,
-5.0579,0.071051,5.9272,1.9022,4.3822,2.807,-0.015735,1.2209,-3.589,-1.378,1.7896,-3.1007,-2.6108,3.6792,
-2.3443,1.995,-0.21302,3.7162,-3.5935,4.5668,1.9134,8.3785,1.4466,-0.81337,2.6465,4.3162,0.43793,3.9403,
3.5814,4.2854,-0.20024,4.4576,-5.3059,5.739,-4.9498,9.804,2.806,5.0205,-0.88673,4.5391,-1.0341,5.6326,
4.0894,-1.0334,2.4629,6.3588,2.0021,-0.14894,-4.4119,2.2259,0.95043,4.9602,-2.0388,3.5439,-2.1774,3.125,
3.8438,-3.3813,0.86907,5.4956,6.7025,-1.1041,2.6015,3.0564,0.41125,1.2879,2.904,2.8491,-0.11878,1.4915,
5.5416,-4.1425,-0.14717,-1.5828,1.4796,2.3364,0.51699,7.2116,3.2789,2.6571,0.3194,-6.9631,0.37051,3.8123,
5.4499,-7.5096,2.031,-6.5497,-1.7424,-0.45514,-4.5755,5.5738,3.8053,4.1847,-4.2788,-6.786,1.0714,0.93227,
7.0515,-7.541,4.3193,-3.2642,12.4621,-2.3556,-4.7829,-1.991,-5.0997,-5.225,-1.612,5.1903,-1.403,-5.3902,
7.3513,-4.437,0.92667,0.065097,16.6556,-3.4195,2.0116,-3.5592,-4.0708,-9.0093,-0.30996,-0.66472,-1.5598,-3.8619,
3.5358,0.64952,-2.5029,1.5075,1.677,-7.0707,1.4089,2.9213,1.958,-2.2022,-3.1839,-14.7248,1.4259,-0.7377,
7.421,2.2978,2.2265,-1.2345,8.5658,-3.0315,-0.36282,5.3971,2.0815,2.5097,0.62257,-10.5876,3.9914,-1.4168,
6.2529,-5.7938,0.88765,-10.5605,14.5598,-2.1263,2.7924,-5.2906,-1.6588,-1.7383,-1.102,-1.0343,-0.34498,-3.0186,
3.4671,-4.9643,-0.61187,-7.0348,13.6857,-0.070971,5.5169,-6.4199,1.8152,1.2581,0.41037,4.8124,1.1215,3.911,
-1.32,-4.9076,0.63037,-2.9971,13.5877,1.6207,3.4989,-1.4547,2.9113,2.3877,4.9653,4.2824,0.3311,2.9532,
-2.6873,-6.0592,-2.7821,-6.6734,10.8445,2.0057,5.6994,2.9707,1.2906,3.6909,5.6314,5.9539,1.2753,2.7763,
2.5356,-3.526,-0.44559,-0.24743,11.881,1.1624,0.29571,3.0339,-3.848,-0.62791,-0.73199,8.2482,0.47591,-0.041418,
6.4811,-0.18165,11.873,9.6491,14.7834,-1.5586,-6.7117,-3.1739,-7.7152,-7.5803,-4.3037,3.1733,-8.4705,-8.4753,
2.9587,1.5169,7.0637,4.9728,3.0506,-3.6343,-1.2473,-0.81434,-2.1906,-1.5819,-3.8041,-4.0065,-9.1675,-3.387,
-2.2802,-2.1897,-7.4601,-4.2434,-5.5688,-4.1398,5.3348,0.43958,4.4485,4.5388,-3.3351,-9.3099,0.30034,2.3596,
-0.4562,-3.2636,-9.7845,-3.7478,5.1296,-2.2037,3.8099,-5.1304,4.4226,2.5792,1.9267,-8.9923,4.8621,-1.8794,
-2.357,-5.478,-4.3772,-3.041,2.8936,-8.8204,2.617,-3.3763,4.6392,1.9425,7.1133,-3.6325,3.1241,-5.623,
-1.7334,-6.1134,-4.1144,-4.3046,-6.4388,-11.6654,12.5831,5.5031,14.002,7.1284,10.0612,0.92445,6.3109,-1.429,
-0.1834,-2.3723,-2.4215,-6.9386,8.0475,-4.2168,6.0433,-1.5757,3.5207,-2.4586,1.7445,-6.844,1.5937,-6.6461,
1.9968,3.796,5.6776,-2.4249,11.5416,4.9543,-0.8268,-5.0966,-3.68,-3.9978,2.8451,-3.7823,1.7395,-5.524,
-7.0413,-3.9038,1.7217,-5.8946,-3.2509,-8.1177,0.42787,-2.1395,1.1204,2.7498,3.8795,1.988,3.3221,-3.0236,
-4.9314,-3.4284,8.6081,-3.854,-2.4532,-10.2819,3.0535,3.0503,1.2939,1.8617,1.9597,8.8589,3.3635,-3.0829,
2.1134,-2.7407,13.3942,-2.6584,11.794,-3.3981,-0.50414,-0.024753,-6.4965,-6.9271,-0.56846,4.9529,-3.5867,-7.2367,
1.9864,-3.0585,2.9498,-4.4268,25.1863,-16.2094,0.49066,-5.3257,-6.5884,-5.065,-1.9804,-4.0212,-8.192,-6.3204,
5.7236,-3.3569,0.36225,-2.2335,37.7752,-29.3368,6.7273,-6.4529,-0.89095,-1.8691,-4.7541,-5.2262,-5.7723,-1.6028,
11.6467,-2.6735,7.5714,0.31063,49.6086,-21.6718,3.9135,-4.6194,-4.2119,-8.0239,-7.8428,-1.0562,-7.3542,-3.4349,
12.1532,1.5842,10.2506,3.4255,57.9601,-9.5252,-1.8649,-4.5832,-5.646,-7.783,-3.2749,0.6944,-4.7438,-6.3618,
8.5319,-2.3672,4.3329,2.2561,48.216,-19.077,0.17563,-6.7184,-2.8971,-4.4239,-3.0784,-6.0957,-1.5666,-7.9083,
7.2966,-2.4661,5.2782,2.3617,45.564,-21.0654,7.1545,-4.628,-2.4823,-4.3995,-5.0629,-5.9709,-2.6779,-6.7109,
1.3152,-2.0772,4.2382,-3.3236,40.661,-16.6685,9.8587,-6.5195,1.282,2.372,0.78452,1.3767,4.4726,-5.1029,
-4.0661,-6.2911,-4.693,-11.8011,28.0982,-24.8274,4.9287,-8.0568,6.5075,7.5325,8.45,-0.63429,12.3988,-4.797,
0.034243,-4.4674,0.89122,-0.48818,27.3762,-20.9274,-0.66971,-6.609,-3.042,-2.5604,7.943,-3.9702,2.4963,-4.9911,
-0.69094,-3.4762,7.8274,8.4594,33.6876,-7.8614,3.4681,-7.4176,-9.8491,-9.8788,3.8512,-3.9732,-6.0894,-5.4148,
-1.6134,-3.2677,3.5014,3.6131,28.7743,-5.4615,6.6344,-3.1161,2.7934,2.7655,2.6558,0.60396,5.8451,0.6947,
-2.2399,-7.6509,-6.5907,-5.0394,12.9478,-14.5338,2.6209,-3.1706,5.2769,8.6251,-1.1189,-0.15564,13.4481,4.7504,
1.0277,-4.0586,-4.0263,0.80635,15.1835,-15.3488,8.489,-1.2929,-1.0655,8.8307,2.0819,4.9152,10.9543,7.5986,
-2.6493,-1.6459,-4.99,3.8915,14.0315,-15.1512,3.8823,1.4358,-3.6526,4.685,2.6799,7.7537,1.8609,1.5991,
-2.7311,-6.6086,-7.3415,-0.92155,6.6819,-12.5547,-0.44776,2.0728,4.5205,4.6451,0.8321,7.5297,5.3649,-1.1477,
2.7349,-8.1403,-1.1164,-2.3125,15.44,-5.5349,-2.3495,0.50214,-0.57146,4.3664,-4.5205,6.1136,8.417,1.3313,
1.1248,-3.7957,0.39662,-3.6198,15.9596,-7.1312,-1.7264,0.47224,-1.9832,4.1046,-4.2495,2.8545,4.0558,4.1437,
-3.7629,-2.1217,-3.4836,-5.8127,1.9866,-19.2366,0.78776,1.4078,7.7768,6.7504,2.2725,1.7189,7.1869,1.4849,
-0.6451,-2.9583,-0.38203,-5.9459,7.1701,-15.1901,-2.152,-2.0507,-0.40262,1.5251,2.1361,8.8466,7.2376,-4.3888,
-1.3293,-3.0222,2.7739,-10.6508,7.9452,-3.9144,-2.2639,-7.9537,-5.4401,-1.2179,-1.1255,7.5929,3.6699,-1.4743,
-4.3828,-0.67147,-0.52578,-12.1812,-6.6315,-9.2234,3.4153,-4.8251,2.8402,4.8809,-1.2992,-3.2268,7.5473,7.05,
-0.98657,-2.8006,-1.6993,-12.6554,-9.4878,-15.6596,6.8261,1.0082,3.8749,6.2751,2.8763,-5.6845,10.2277,2.5294,
2.9292,-5.5244,7.5615,-11.4139,5.1814,-9.8996,6.4163,-1.9445,-2.142,0.59616,4.1498,-2.9331,5.2755,-5.3349,
2.0301,-0.61362,8.3131,-5.1859,13.6681,-3.762,4.3441,-2.5512,-4.1831,0.31942,0.28538,2.3041,3.7537,1.9746,
0.94422,-2.9872,-2.7908,-6.3203,8.9919,-4.9823,-1.7009,0.49459,-5.86,-0.66384,-6.4804,7.9507,5.9392,3.7846,
4.262,-4.7361,-0.2132,-7.8697,12.7907,0.13691,-4.9733,0.94639,-8.401,-7.3729,-7.5379,8.9199,1.726,-4.1553,
6.6579,1.0917,8.7177,-4.746,10.8184,-0.59375,-0.09517,-5.1355,-7.1735,-6.6891,-5.8798,-1.9791,-3.4387,-3.665,
3.3659,-0.4201,8.6765,-7.3538,-0.43598,-12.1277,2.3207,-10.6124,-5.2973,-0.98558,-6.4918,-13.43,0.62398,-1.9988,
2.1998,-2.3229,7.1918,-6.9123,-0.41005,-5.6157,0.73494,0.62942,-3.5335,1.4839,-1.7638,-8.2857,8.781,-0.9148,
2.0678,-0.73769,-0.95244,-5.0518,4.4353,8.8212,1.1732,9.7507,0.053002,1.8768,3.1628,1.8524,9.2185,3.9603,
-1.1897,0.9938,-9.3314,-5.4716,-0.4106,11.7871,3.272,2.6582,5.1115,3.9338,3.6959,4.8748,8.4244,6.8562,
3.2204,0.45224,1.3518,-1.2864,6.3629,6.7416,1.1475,-6.178,-0.97977,-2.5687,-2.7924,-4.0943,6.4727,-3.1961,
14.5964,4.2815,15.3707,6.9855,20.0812,10.6754,3.4888,-2.9152,-3.3311,-8.6816,-0.69663,-8.6694,6.5667,-6.8607,
2.1512,1.1323,13.3641,-0.66473,4.7763,3.2862,3.7616,-2.7401,-1.6852,-2.8583,-1.6189,-12.9697,10.5108,-3.5568,
-8.5832,-6.6484,1.4746,-8.3376,-9.6103,-7.5163,5.4641,-3.54,4.2005,5.9903,-2.968,-15.0841,20.0031,-1.8976,
-0.83734,-8.6596,-1.024,-8.3193,-4.5749,-4.1728,1.7618,-4.7739,3.9485,3.2208,-0.86177,-7.912,14.4645,-3.2295,
-0.7871,-8.14,-3.3727,-7.3382,-7.1924,-1.0304,-4.6104,-7.3795,0.81948,0.13502,4.4926,0.75739,4.4376,-1.5895,
-1.9449,-7.8928,-7.2679,-4.2466,-10.8585,0.71846,1.2096,-3.8039,4.3855,3.7421,8.3206,3.3633,12.1254,5.0131,
10.4641,1.0166,-4.1805,7.3362,3.893,13.45,4.2703,-3.3345,2.9173,2.7945,3.2419,3.8841,17.4236,7.3636,
9.354,-0.49039,-1.5193,5.9324,12.9392,12.6428,-6.1086,-11.8113,-4.4883,-4.1214,-4.6657,0.27688,2.2782,-0.79072,
2.5265,-7.2096,1.946,2.2022,-1.9371,2.7254,-3.8141,-4.8359,-1.3267,-0.49992,3.3273,1.2248,2.7441,-0.26111,
-0.75856,-11.3568,-4.6782,-4.9203,-11.1009,-2.0178,-1.4161,-1.8946,-1.0062,-0.71089,5.7787,-2.9465,11.9795,-1.9327,
2.9024,-10.9164,-5.1209,-10.6506,3.6652,4.6112,-0.12587,-6.8422,3.1515,0.53659,8.5655,1.3277,11.5017,-3.022,
-4.0207,-14.1178,-13.4907,-12.9036,3.566,-1.4501,-0.60071,-7.8779,4.8906,0.5044,5.1591,4.1405,3.5808,-2.3588,
-4.5021,-12.5474,-22.5627,-6.5858,-10.748,-6.9065,8.3536,-1.3795,14.4794,9.3924,3.1625,-0.20504,12.7661,5.2548,
-3.2683,-11.3126,-16.8707,-0.40606,-19.8643,-2.1535,8.3346,-5.1533,13.6104,9.793,3.4549,-0.6749,12.9643,3.0116,
-0.18018,-7.2598,-1.7584,5.8848,-4.5725,2.7959,-1.325,-6.7723,-1.186,0.04591,1.8014,8.0422,1.5807,-2.4722,
8.267,-6.583,5.216,6.7368,0.16068,-0.98746,2.8521,-0.82211,-3.7657,-1.6438,-2.4043,3.4621,5.5839,-1.1184,
9.6989,-10.5266,1.5288,-0.4161,-10.4545,-3.3386,4.127,-3.6655,1.2807,1.3471,-4.6704,-9.7608,8.6226,-2.4978,
2.8503,-11.341,2.4012,-1.3552,-11.2732,-2.1742,-1.905,-6.3379,2.6499,2.2304,2.3585,-1.4626,2.3209,-4.2759,
-0.21282,-11.1425,-0.153,3.0649,-15.4171,-6.864,-0.34442,-1.6188,2.4909,4.0252,2.2175,5.8564,-1.1924,-3.5374,
7.5125,-6.1359,1.3022,9.6292,-14.4923,-0.18538,3.5324,0.88819,1.3774,3.7834,2.0842,0.20219,2.7353,-1.8791,
8.5082,-6.7314,5.5626,11.4618,-8.8023,6.0925,0.42817,-6.3957,-2.0795,-2.7103,1.9594,-4.1485,3.0534,-5.1406,
4.6233,-6.8099,8.6033,11.7384,-8.7561,2.3525,-3.4539,-3.6018,-0.50847,-1.5834,-2.497,2.8493,-0.98621,-4.8322,
3.864,-7.3651,10.0153,14.4086,-1.9637,1.2475,-8.0669,1.9169,-2.4062,-2.4527,-4.7573,6.0528,-4.3015,-2.1321,
1.9447,-13.9129,6.2811,8.9645,-0.64086,0.93142,-6.3778,-2.7776,-2.9849,-4.4749,2.5178,-4.6745,-2.3564,-1.281,
0.62292,-14.7656,-1.0858,1.4366,-14.7024,-4.1859,1.9588,-1.8878,1.7737,4.7119,1.1617,-3.1889,-2.4558,1.9291,
3.96,-10.5052,-2.9489,6.653,-19.2434,-2.9709,7.1439,5.9382,3.5955,9.7318,-4.6926,3.2689,-0.86215,7.116,
1.5535,-12.0438,-3.0127,8.9052,-3.9888,2.2693,-3.1669,-0.4434,-7.4663,-2.1805,-5.6161,-3.9168,-2.4979,3.0738,
-0.9501,-12.7677,3.4348,1.6222,1.1915,1.651,-3.459,-5.2373,-2.1978,0.8426,1.4695,-0.30762,-0.41958,3.8535,
-6.1957,-22.1247,-1.11,-12.5752,-12.98,-12.5481,2.5331,-7.3336,8.5389,7.5409,-1.0288,2.6034,-0.8768,0.72977,
-5.3421,-23.2071,-1.5254,-10.7356,-23.1677,-11.1928,-0.029025,-4.0011,4.6525,5.6422,-0.96705,4.8573,2.0683,0.20405,
0.040143,-18.6817,2.1816,-2.1377,-7.6776,3.5788,-6.5352,-1.5919,-3.0989,-1.2042,4.6346,2.8786,2.6671,-0.53109,
4.617,-15.8736,-1.5647,-4.661,-4.9276,2.7616,-4.4559,-1.2554,-1.7076,-2.8188,3.1512,-5.7298,1.3023,-2.1865,
8.6788,-13.4749,0.45733,-1.9712,-1.2575,-0.77853,0.15025,-1.1801,0.80494,-2.6496,-5.2326,-12.6168,0.74174,-2.0553,
12.2554,-11.9435,12.7224,5.1369,12.5563,8.6682,-0.58212,-2.7965,1.48,-5.1422,-6.6058,-6.7981,-0.98953,-2.6553,
9.5917,-11.7088,8.5844,2.9007,3.1261,9.5941,-1.9932,-6.4849,-0.53722,-2.9052,-3.7991,-2.5341,-0.93039,-0.56757,
4.4366,-10.2832,-5.1868,-0.88896,-11.1615,6.8491,6.0803,-0.55238,4.5565,9.079,0.52594,-5.0334,10.9358,4.5279,
-0.16811,-10.1483,-10.1785,0.61041,-9.6482,6.9203,3.7871,2.855,6.2115,9.4983,-0.46971,-3.7673,11.2433,1.8459,
0.80631,-8.0932,-4.7471,4.4306,-3.7667,5.5412,-4.6348,2.2018,1.9824,1.2156,-3.816,-0.16678,-1.4824,-3.0851,
0.034569,-9.777,-2.2931,0.54891,-12.4587,2.5572,-1.7057,-0.099511,2.1044,3.3119,-1.8998,-1.844,-7.9009,-2.659,
-0.69041,-8.9492,-2.3965,-1.6532,-10.5059,6.0192,2.494,-0.81644,2.2191,7.211,2.7939,0.4358,-4.2934,2.0798,
-2.3362,-11.0635,-8.7606,-6.6152,-3.3681,2.5245,0.17523,-0.52649,1.3631,1.2347,-0.025253,0.16869,-5.2411,0.26778,
-0.026416,-13.051,-8.9579,-7.4236,-8.7091,-3.652,0.88808,1.6743,7.7888,1.8835,3.1097,-8.7593,-4.2037,3.3852,
2.1441,-12.027,-1.9127,-3.8449,-15.1767,-5.6023,-4.709,-3.9696,4.1882,4.9038,3.6463,-9.439,-8.531,1.977,
-2.3231,-12.7517,-1.3158,-8.4347,-12.8201,-3.8201,-4.4263,-6.6242,2.4909,4.6098,3.4273,4.6249,-10.4295,-1.9982,
-3.6297,-14.3969,-4.1296,-12.7493,-8.1942,-2.1449,0.17739,1.4863,4.2694,0.47656,3.2219,5.7935,-8.3577,-2.3605,
7.1931,-9.1945,-0.50713,-2.3434,-4.3284,-1.534,0.16698,7.1815,1.6029,0.93013,0.13582,2.0712,-6.4098,-0.29043,
9.6538,-6.2325,3.3795,7.4384,-8.4072,-2.8885,-1.7715,0.96623,-1.8675,1.8384,-6.1386,4.8396,-9.3999,-1.719,
0.39771,-5.8586,4.6232,5.5461,-14.6515,-2.7149,-0.21869,-0.53777,-0.79137,0.76402,-2.3961,1.1746,-14.6202,-2.58,
-6.3748,-8.8813,0.48963,-4.9098,-15.2184,-3.0337,-0.20579,-1.9515,0.22021,-0.24592,4.0144,-4.1983,-14.7071,-4.3532,
-2.6183,-8.8306,-0.50407,-6.5434,-4.1824,-1.8879,-0.67538,-5.2094,0.20699,1.2146,1.3634,5.2126,-8.522,-2.6462,
-3.9068,-11.193,-1.9199,-2.7762,-2.9669,-5.6307,0.81117,-3.9322,-0.76952,1.142,4.1739,2.9719,-5.6004,-0.077038,
-7.2881,-8.3525,1.8105,1.4875,-8.8151,-6.4984,2.9314,1.8471,-0.00022202,0.83227,8.0206,-8.0529,-6.4699,-3.2061,
-2.271,-1.3432,13.512,8.8701,-4.6703,1.8457,1.5507,0.53142,-1.205,0.059438,2.4782,-1.0618,-8.7328,-2.2904,
0.034167,-6.3245,14.8707,9.061,-5.1137,2.9396,1.2165,-6.0086,-1.8563,-2.1135,3.5345,5.0272,-9.8962,1.4622,
-2.8604,-6.427,9.1577,-0.15974,0.49623,3.7275,-0.30231,-1.7917,-5.1189,-2.4686,12.9634,3.7617,-7.8558,-0.071323,
-5.5808,-6.0411,4.27,-14.1294,3.3585,5.9144,-4.1406,1.2083,-6.74,-7.1408,8.3292,2.5722,-9.3126,-0.067043,
-3.0768,-10.2584,1.3622,-21.2356,-7.6893,1.9437,-2.6873,-3.4439,0.17188,-5.5075,1.8039,-0.23372,-10.9235,2.5881,
2.8926,-0.9658,9.4759,-5.8615,3.3776,11.9502,-3.9721,-7.0935,-5.1408,-1.8024,4.588,6.047,-15.5705,-2.8696,
4.1648,7.7688,19.0302,8.5902,17.275,25.3332,-5.662,-7.1498,-14.4738,-8.4431,3.3484,11.9507,-22.831,-8.482,
-1.6287,3.2053,10.8985,3.2541,9.6098,20.5595,-3.635,-2.1415,-10.4719,-9.6238,1.4603,4.7262,-22.6664,-1.9476,
-4.182,0.84406,0.36268,-3.4487,-4.2227,11.3722,-0.76536,0.63852,-0.44313,-1.0921,5.9524,3.7197,-14.3165,2.749,
-6.8234,-0.65307,-3.9976,-5.1702,0.36875,14.064,-1.684,-2.2925,-0.41678,-1.0268,4.1487,9.2809,-16.3498,-1.2725,
-7.3779,-0.13172,-4.7216,-6.3058,7.0955,18.5229,-1.1006,0.2556,-2.8019,-2.4115,0.52583,5.8315,-17.297,3.6245,
-5.4894,-0.60575,-3.9564,-9.3019,4.2597,15.4833,-2.9627,-2.1699,-2.1518,-3.7131,0.012346,-7.0514,-16.2592,2.9247,
6.4096,4.2513,4.9581,-1.031,10.7525,22.749,-2.303,-5.8961,-4.4329,-4.4541,0.011606,-5.6644,-19.622,-2.5534,
13.7376,8.8167,12.3731,9.154,17.3385,24.7587,6.512,-2.1681,-4.6491,-4.1871,0.01068,-0.98602,-20.855,-2.4,
4.2367,1.5388,13.5589,8.6048,8.5854,13.1499,3.7112,-4.93,-5.3344,-4.8998,-0.95383,-2.8551,-16.2293,-1.2921,
-3.4896,3.1335,8.1659,10.7398,0.59822,15.0122,-5.4298,-4.3935,-4.2912,-2.4368,0.7904,2.8596,-10.6764,2.401,
-5.2086,3.9096,-3.8935,7.6851,-0.40177,18.45,-3.1756,1.1725,-4.5159,-8.075,1.7071,-2.1324,-14.3744,-1.5996,
0.64751,3.434,5.7406,10.8394,11.4325,17.102,0.14844,0.8612,-10.7525,-14.0984,-0.56451,-3.6917,-18.5732,-8.9755,
-1.3195,5.6381,9.7345,17.4199,3.5157,15.1116,-5.645,-4.4931,-10.5892,-6.0217,-1.0126,7.617,-13.1205,-5.0625,
-7.7478,3.6131,-4.9496,13.2412,-10.7953,9.6256,-3.6196,-0.60811,1.8562,4.7039,7.9658,8.8472,-1.9689,6.0875,
-4.8726,1.95,-10.0757,11.0007,-17.9808,4.2276,-1.9559,3.7669,3.1909,-0.39878,6.5237,0.12191,-1.851,6.6864,
4.5785,5.6894,4.6288,17.0893,-4.3682,9.7587,-3.767,1.6129,-0.37478,-3.2671,-2.5446,7.3452,-5.1142,1.9466,
-4.1321,1.2509,2.0617,13.4131,-9.1676,9.8963,-3.2998,-4.5096,1.3352,-1.866,-4.5608,7.6276,-3.6022,-0.82149,
-14.9711,1.6576,-8.1856,6.3411,-15.8486,3.0354,1.2368,4.4378,4.6293,1.6201,3.9073,1.8671,8.6652,2.602,
-12.8676,0.8352,-3.1147,5.2377,-6.9435,1.6484,-1.9709,5.8588,-3.6022,-1.6101,4.3962,4.8886,7.9043,0.75913,
-8.9623,-2.3486,1.6517,5.6466,-5.8042,6.129,-4.504,-2.9286,-7.4837,-6.5754,-0.92899,6.2822,-1.4878,-2.4201,
-11.3173,0.20265,-2.786,1.4512,-19.556,5.761,2.033,-0.34302,3.5704,0.085867,1.0547,0.12095,6.796,2.5456,
-15.4587,2.1187,-7.4393,1.8463,-20.6725,-2.7795,-0.017408,3.0522,6.2485,4.9012,0.027336,-0.36847,9.2805,4.3213,
-7.3001,5.366,4.094,12.823,-5.3321,5.1002,-8.2108,1.4231,-4.7315,-2.6235,-4.7948,8.3305,-0.43513,0.68775,
-0.83658,4.3207,12.2845,14.7047,9.0878,11.7841,-6.0314,-1.3139,-6.1348,-5.1176,-8.1225,5.1796,-2.5782,-3.4513,
-4.6428,6.954,4.7986,12.3761,-0.61627,4.8105,-1.3308,2.6218,0.49977,5.7947,-0.40433,-0.43384,2.3972,0.13021,
-11.5953,4.1264,-6.5764,5.3668,-3.954,1.1472,-6.5538,-2.3564,-3.8688,4.9649,1.5479,-1.3719,-1.6032,-0.8417,
-8.7302,4.12,-6.9049,2.3935,-3.9575,6.1398,-0.13479,-3.902,2.8711,7.3183,-0.71391,0.39741,5.0007,3.7883,
-2.4216,7.247,-0.22386,3.6964,-2.274,4.8073,-0.60886,2.5988,3.6629,4.9512,-3.0814,0.37379,6.6291,5.4894,
1.5799,4.8838,7.5021,4.4382,7.5036,5.0011,-7.8029,-0.44986,-7.1619,-4.987,-3.3787,-0.1308,-2.9279,-3.0349,
-0.92502,6.0375,1.7498,0.79794,-0.17742,4.701,0.8604,-3.3145,-0.94718,0.61484,-2.6936,3.7334,2.0684,0.52168,
-14.9695,1.0957,-12.4552,-7.6858,-14.2668,-5.4628,3.4601,-1.4286,10.4376,7.5676,-3.737,0.37618,7.4877,6.0338,
-17.5663,-8.1293,-15.2033,-10.5991,-19.3161,-5.6174,-1.5682,0.10292,11.2572,5.6673,2.7537,-0.12833,6.0741,5.6717,
-7.835,-4.749,-6.5781,-7.0709,-4.1774,0.9864,1.9001,-2.7955,4.3154,3.8812,5.4808,3.2536,6.6742,6.7779,
-2.7858,6.3819,-7.3885,-0.62087,-3.686,1.168,5.8837,-2.8686,2.3691,5.8177,2.9825,-0.55681,9.407,6.1301,
2.9252,13.4706,0.044497,10.2624,1.1147,4.7135,-0.013187,1.4007,1.5038,1.853,-1.7759,-3.6571,6.6732,-0.74546,
4.6781,11.2168,7.2729,13.0213,8.7608,7.8054,-4.3505,-3.0214,-2.9245,-5.4888,-7.9357,-3.9194,-4.3322,-5.0393,
-2.3517,9.5792,-1.8403,2.5989,2.4508,0.58794,3.1412,-1.8761,3.0353,-1.3028,-2.1571,-4.1664,2.6764,3.458,
-2.2102,11.897,-6.5506,0.99668,5.6782,0.55266,6.3271,4.503,4.2994,3.5956,1.8287,0.42237,13.1211,6.143,
-3.5243,2.5061,-2.3012,2.8651,11.1217,2.9296,-0.31946,-3.4799,-7.5277,-6.2611,-4.548,1.3609,0.76467,-4.8308,
-7.8921,-0.29538,-4.3323,1.9703,-2.802,2.9953,3.7975,-3.5121,-2.9787,-4.1982,0.78657,-1.8542,-2.4147,-1.8899,
-14.8904,-0.51885,-18.1724,-7.5479,-16.7339,-5.6206,1.8824,-1.6142,4.6719,4.0074,2.4266,-6.3223,4.7201,2.3209,
-12.5507,-1.9338,-19.1309,-8.0594,-10.0656,-9.6217,0.80517,1.3748,5.8378,8.1053,0.83474,2.2518,13.5959,3.6279,
-10.5924,0.83383,-5.6906,0.8603,1.3846,-5.4289,-0.93037,2.0156,0.42585,3.0397,1.508,9.5885,9.6466,3.6516,
-10.1983,2.4706,-0.28744,1.5316,-7.1346,-4.8622,-2.5618,-2.2031,0.64127,0.20621,0.21224,3.4695,3.0423,2.2272,
-2.5963,7.3838,5.2732,2.1628,-0.68072,0.97288,0.24325,-0.38348,3.2541,0.43458,-4.38,-1.8001,6.475,1.3705,
-4.8508,8.8692,10.2592,5.4073,8.037,4.2892,-0.73544,1.5675,-3.2079,-4.412,-8.9377,-1.2099,4.1585,-0.64018,
-12.2726,4.9626,6.2692,0.26258,-4.4968,-3.199,3.647,1.4734,4.6974,-0.77281,-3.0988,-8.3682,6.801,1.3264,
-11.2952,4.4239,3.7239,-1.4404,-0.12916,-0.35597,1.7414,-1.748,3.2107,-0.48547,1.6664,-14.8559,8.0802,-3.8144,
-4.1098,9.2199,12.4188,9.974,13.9786,11.9577,0.91381,-0.92044,-8.3104,-6.0002,-1.0849,-1.1904,6.8723,-7.2012,
-12.7811,5.0515,2.2734,6.7242,13.0192,3.2862,0.13585,-2.5522,-11.4269,-9.2554,-8.0094,0.086584,3.3267,-5.564,
-17.0761,7.3997,-6.2989,6.08,-1.862,-1.9724,3.261,7.0007,1.0686,4.0742,1.8714,0.32213,13.4912,6.5802,
-20.6308,0.4478,-12.9108,-1.2746,-15.8503,-5.4695,0.4142,1.5194,0.76395,5.035,2.482,2.472,10.9945,3.0519,
-13.8494,-1.7482,-7.5564,-5.2955,-0.79925,-1.0439,3.0404,-2.1872,0.95862,1.5994,0.16391,5.9391,9.1295,4.074,
-6.5107,0.52605,-2.5235,-7.6291,13.3487,-3.1502,4.0631,-0.85086,4.0348,2.2266,1.8411,-1.4069,15.0894,6.9629,
-3.4692,0.73523,-2.6133,-6.9306,15.1991,-10.4332,4.5424,-5.8613,3.5515,9.0826,4.3819,-2.528,14.9072,3.4118,
-2.0555,2.3786,2.123,-0.97095,14.5284,-10.048,1.1366,-9.1248,1.1695,7.815,2.9139,0.75737,10.3976,-0.40807,
-1.2093,4.887,11.3956,6.0772,24.0205,1.8831,-2.547,-6.4086,-2.0341,-3.0182,1.0519,0.95289,6.1583,-3.999,
-6.9213,4.5937,3.481,2.82,15.8308,2.252,-1.9122,-5.5417,-8.1786,-6.2116,-2.8676,2.8239,0.0042354,-4.7234,
-6.0239,1.9082,-10.7073,-7.4723,4.2759,-9.452,6.3974,-2.7988,3.881,8.1406,1.643,1.2084,6.7527,3.273,
3.7376,2.5164,-8.3777,-6.3006,9.0806,-11.0545,3.8444,-6.2463,10.1561,7.4112,2.2673,-6.8178,11.4092,-1.0207,
13.6364,12.0064,6.225,8.1774,20.1051,3.5883,-1.2067,-7.318,-1.5407,-4.1204,-6.5456,-4.9627,4.9398,-4.3342,
9.6848,9.5992,3.5618,5.8791,9.9808,3.132,1.0348,-8.5657,-8.9201,-6.0424,-13.1423,-7.316,-2.3464,0.98757,
5.4883,9.2638,-2.1955,0.46465,-0.018074,-1.6357,9.4084,-2.9905,2.9433,3.7197,-3.4361,-6.6366,9.6045,8.3997,
-1.1078,4.8518,-9.2944,-2.4555,0.46517,-4.9117,3.5415,-0.40076,4.6951,1.5686,1.5905,-3.3456,12.4029,1.1475,
-2.2461,-2.4292,-14.7622,-8.3337,5.0165,-3.8937,-2.2146,-3.0278,3.6901,-2.141,2.7004,3.8445,7.5614,-1.5725,
2.7089,-2.2834,-17.7334,-15.0645,0.37724,-6.5526,3.7029,-8.6307,6.3612,4.7364,3.0203,4.0962,9.0359,4.306,
4.4748,2.1923,-14.2588,-13.1966,-9.7685,-9.5336,11.6756,-0.88226,12.2463,15.0573,5.7314,3.8502,17.1706,9.3505,
-2.3014,-1.5548,-12.6803,-8.3072,-16.1721,-11.613,1.0929,1.822,6.45,6.1999,-0.1559,6.7525,9.6326,0.83551,
6.5138,-0.49745,-5.1706,-2.0242,-5.5608,-6.5779,0.063476,-0.69745,2.6886,1.9715,0.81732,6.8297,5.6802,-2.5891,
13.8355,0.014557,-0.52183,-5.277,-0.40664,-8.5931,8.7365,-6.9223,5.9015,5.2279,4.143,-3.2212,10.6423,0.45902,
11.8003,3.6291,1.6784,-4.7196,-0.14105,-9.283,7.9711,-4.3381,8.1987,7.0831,7.5096,-1.8229,13.137,3.5647,
9.887,4.1343,-2.5196,-8.0518,-6.6405,-10.8952,3.3955,-1.4262,7.9478,5.4529,8.2643,-0.50824,12.1074,1.1812,
13.6323,4.8505,-0.92244,-8.0509,-4.3137,-3.9747,-1.6287,-1.3409,0.72223,-0.17673,6.8043,0.0039556,4.6322,-0.33567,
12.0915,6.7287,4.6765,2.7965,7.7553,6.1457,-8.5208,-4.8759,-12.5775,-11.9763,-2.522,8.4399,-7.4558,-0.5565,
7.7503,6.5661,-4.04,5.28,3.1924,1.6798,2.3545,-3.8602,-3.3869,-6.1962,-7.9141,7.6923,2.3918,3.0925,
7.2855,6.1719,-17.2949,-3.7137,-5.676,-2.2776,8.48,3.6025,5.9751,7.6731,0.27334,-5.3025,15.7454,8.6913,
-0.14147,0.25801,-19.3907,-13.3732,-5.5764,-0.93565,-2.8751,0.25286,0.072962,4.5612,7.2468,-5.2253,10.7033,6.4826,
-3.2665,-3.8548,-14.6116,-16.6682,-2.1084,0.32533,-7.2819,-2.8958,3.2021,1.6364,4.1604,8.8265,6.9276,6.3346,
-0.17819,-3.6238,-13.2532,-15.1862,-2.9464,-1.1402,-3.4707,-4.1681,5.4203,1.0561,-1.3916,6.8509,2.1734,6.4367,
6.5814,3.3426,-1.8527,-4.6338,-2.2872,-0.10794,5.4146,-2.4717,2.2026,0.99271,2.0664,-2.7192,0.11482,2.1941,
9.32,8.2037,7.1765,4.5623,0.98348,3.5144,3.8844,0.81006,-1.5445,-0.75408,-1.673,-0.86883,-0.13258,-2.5168,
8.5196,2.1676,6.5047,2.1192,8.396,8.365,-5.7484,-3.8181,-2.6574,-5.7703,-7.5984,5.691,-1.8121,-3.0889,
6.0802,-0.85449,5.6325,-1.8639,5.4822,3.0424,-3.9572,-4.5533,0.39456,-2.5315,0.088305,1.0112,-0.73903,0.47087,
3.3053,4.9814,-1.4539,-7.5371,-8.9468,-7.745,2.0648,3.9151,4.7092,8.2252,2.4931,-10.1367,2.1974,1.8884,
5.2761,5.8875,-8.8387,-7.3259,-13.3509,-3.6649,0.73561,3.9211,8.0421,10.3832,0.17439,-13.1439,3.2708,-1.8403,
9.5389,6.2574,-5.6571,2.9956,-4.1142,8.3651,-3.8878,-3.304,2.4979,-0.12216,-0.55898,-5.3654,-1.5052,-3.4171,
13.3053,10.7027,-4.3533,8.1185,0.95336,15.576,-2.6907,-0.69565,-1.5079,-2.0426,0.43889,2.6693,-2.3787,2.5729,
15.881,8.6138,-9.3952,2.3288,-2.4783,17.0516,0.84521,2.7205,-1.8998,0.97205,-1.5161,0.098568,0.65605,5.7926,
20.231,11.4717,-0.15418,4.1175,6.8292,13.1362,-1.1339,4.0033,-6.6063,-4.3892,-3.8355,-0.38905,-3.7219,1.5889,
17.5711,11.7475,3.2293,1.4601,9.7941,4.6355,-2.5119,5.6916,-5.7278,-4.6075,-4.0871,3.0085,-7.8366,0.52943,
6.1523,3.5706,-11.0645,-8.0278,-4.8935,-3.1147,-3.0843,3.1807,-0.32268,3.6225,-6.9756,-4.644,-3.2693,1.2203,
4.3374,1.4284,-20.6442,-6.0998,-18.6999,-13.0507,-1.9349,2.9898,8.3733,9.1897,-1.2544,-6.7755,6.0859,4.0396,
6.0053,-1.0677,-5.3056,-6.2158,-19.9883,-13.7139,-2.7832,-0.081612,2.0868,-0.52027,0.74908,-1.0663,1.8643,-0.54107,
10.2243,5.9863,0.43591,-6.0838,-4.689,1.2089,3.4094,0.64619,-1.6543,0.23385,-0.018766,3.5769,1.0296,-0.26764,
2.6209,2.4936,-13.6902,-10.7807,-8.8667,4.3901,1.9995,-2.5261,1.0965,2.8709,-0.25907,-7.9659,0.72638,-4.3494,
-1.1515,-2.2351,-6.9638,-6.518,-17.2525,-1.4167,-1.2533,-0.68705,0.30761,-1.8804,1.4444,-9.1749,-1.4861,-8.1856,
0.36385,1.7549,3.577,0.13963,-11.879,-1.3317,3.1603,1.7643,-0.19278,-0.80371,0.87534,1.0165,-2.3608,-0.94551,
0.10105,6.7113,-3.1451,-1.074,-8.5152,-4.3853,2.2473,-1.475,1.0236,0.93174,-3.2745,-3.1418,-2.9425,1.2804,
6.3613,10.6472,8.613,5.7391,2.6012,4.5547,-2.708,-1.3863,-0.0018967,-2.0165,1.7424,1.8672,0.60823,-0.24293,
-1.9741,-0.35596,10.2653,-1.1127,-1.6522,7.8969,-0.85833,-3.4723,-3.6167,-5.9928,1.3969,10.1913,-1.115,-1.9151,
-11.9788,-4.6727,-4.4506,-10.6872,-15.6531,-1.2538,3.0498,2.0385,0.45642,2.5617,0.83093,5.7232,1.3618,2.5379,
-12.4647,2.5973,-13.4631,-1.1277,-16.2806,-5.7581,-0.26646,4.5675,1.6341,6.5056,3.9143,-0.16358,6.8239,6.4832,
-9.3067,3.4053,0.35991,9.5448,-4.6987,-1.0743,-2.1787,-1.0092,-1.8379,-2.0799,6.0901,7.0771,4.9682,4.6484,
-8.7483,-0.65536,0.82071,1.7413,-7.3093,-1.4918,-1.0841,-0.46673,-0.7638,-2.919,3.7965,7.6163,-1.1145,1.477,
-7.9827,-2.7852,-6.7006,-8.7273,-11.9322,-5.9818,6.453,7.9972,6.7536,6.1735,1.8812,-4.651,5.942,-0.78104,
-6.0574,-1.654,2.3781,-1.4547,-2.0572,-5.1409,3.1733,-0.19543,2.492,0.50092,2.7322,-5.8182,5.5855,-3.1443,
-3.7658,5.6761,16.3354,9.7198,-0.48754,5.7728,-4.2479,-7.4145,-2.4778,-5.3137,7.389,6.1,-0.53418,1.3827,
-12.6989,0.032874,1.7377,-3.3969,-14.5583,-2.7683,-3.0287,-1.667,1.0453,1.2716,-0.76712,-1.4963,-1.9484,-0.14654,
-7.3574,3.1642,-1.982,-3.9162,-8.985,-1.8795,11.253,12.533,11.3463,15.2953,-2.4081,0.76236,12.2685,8.7805,
-7.3982,1.0463,5.8497,0.17539,5.6541,5.9463,6.3597,0.33211,0.54282,4.375,-5.6383,3.6089,9.7249,2.9508,
-2.6157,7.2503,15.6218,13.1801,9.051,9.4461,-4.145,-4.0259,-1.4182,-3.6001,0.48482,3.3926,0.94649,0.84582,
-0.048412,8.7433,9.8641,16.2459,-0.16942,0.68441,-9.6811,1.5181,-1.8152,-0.49179,-7.2573,-4.524,-1.0387,-0.16902,
4.293,4.362,9.272,14.789,5.1436,3.0532,-5.2436,-1.4653,-4.1162,-1.9088,-9.2322,1.5323,3.3621,-0.15911,
2.348,4.3415,2.6903,8.8402,14.2348,5.0394,-0.34947,-4.0287,-7.003,-5.4094,2.1682,2.1635,2.9192,1.5374,
0.27893,9.3837,-3.2561,1.0789,11.4525,2.3269,4.4918,5.854,-1.7621,-1.7104,5.4121,-5.1972,5.6366,4.3377,
3.3957,8.5797,3.9291,3.1833,11.9706,8.2129,3.4993,4.7794,-1.8973,-0.88489,-0.93815,1.1402,6.9856,2.3902,
1.9871,4.9319,4.4167,10.9465,18.7242,8.4435,-4.6644,-2.4968,-11.6654,-6.8573,-3.533,5.6515,-1.3873,-3.2964,
-1.989,5.5998,-2.5972,9.3254,12.2981,-0.25831,-4.8664,-1.8651,-6.6272,-6.9278,1.0173,-5.2928,-2.7503,-2.1347,
-0.42337,8.1559,-0.51315,5.8734,7.2219,2.6492,-1.2004,-0.30689,-0.44496,-0.72759,1.9206,-2.5651,-0.17514,-1.0428,
1.5302,2.3639,5.7842,7.4492,15.4652,7.311,-4.5024,-4.1449,-9.0954,-3.0945,0.84107,8.1941,-6.4311,-7.2467,
-1.4541,-0.18806,1.0988,4.5921,9.2351,2.534,-3.7503,-2.9323,-7.1034,-2.4265,1.7549,4.328,-6.5272,-3.4374,
-2.5715,6.8133,-1.1361,2.6296,-5.419,1.6589,1.5366,6.1619,1.7587,2.2986,0.9265,1.8994,2.7823,6.651,
0.47488,8.3323,6.6449,8.7383,-2.8042,3.0056,0.48007,4.8279,-2.2032,-0.24986,-1.5392,3.2312,2.6153,2.3951,
2.1334,5.181,9.3794,10.3834,6.2819,1.1378,-5.0926,0.92302,-8.0968,-4.332,-3.6163,3.7605,-4.5312,-2.3277,
2.0058,4.8706,3.514,3.0115,4.4592,2.0338,-1.8945,6.1703,1.5485,0.26625,0.45711,6.4273,1.5252,6.0067,
0.92117,2.6497,-1.0356,-3.4362,-4.4859,-8.6935,1.1112,3.8714,4.3477,2.1785,5.2499,1.7029,2.8795,2.2718,
0.14277,0.3218,6.0166,0.38565,-8.7958,-17.5716,0.32143,-1.4223,-1.457,-0.60356,5.1761,4.734,-0.90846,-6.7823,
-2.035,-2.831,5.4147,2.5317,-6.0989,-8.0817,2.4713,1.3146,0.79956,-0.80832,0.76822,7.5835,2.2795,-2.76,
-1.19,2.8825,2.9202,4.5489,-1.6356,6.5032,2.564,7.2612,1.9569,-1.9651,0.48116,0.62051,1.4194,3.4312,
-4.975,7.0478,4.6736,2.8302,-12.6247,12.9822,-7.7127,-0.40527,-7.3196,-9.56,2.3805,-1.3445,-8.3067,-4.0055,
-7.3278,8.7944,0.29561,0.49099,-25.9672,18.229,-6.5269,1.3065,-1.8185,-2.9606,2.9608,5.2439,-4.6746,-4.4879,
-10.9852,8.9898,-13.8221,-1.7079,-38.5092,21.7148,-3.9659,8.6997,4.3159,2.7609,-2.2783,-0.61456,1.6312,-0.12148,
-6.9519,7.9683,-14.0774,2.7332,-42.7064,24.7505,-5.1739,5.2854,1.1647,2.1131,-1.1775,1.8327,1.0512,0.36797,
-1.2321,5.0801,-0.21731,6.426,-30.0206,27.6038,-9.2018,-0.81629,-7.0999,1.022,-5.9276,6.0615,-4.3141,-0.61797,
-1.1584,6.2213,2.688,8.9323,-28.7015,27.876,-7.6861,7.4276,-4.2635,6.7454,-10.3924,0.39492,-5.0194,0.86514,
2.0446,5.607,1.3214,12.4942,-30.5949,22.1061,-5.5377,11.5613,2.0178,5.6174,-2.2971,0.6122,-0.62084,-1.3564,
4.8139,4.7887,-1.168,12.226,-23.4568,22.2255,-12.9182,1.2266,-3.4059,-2.4325,0.25089,4.4319,-2.0298,-1.275,
3.32,5.7064,-5.1955,10.2878,-17.4696,25.4715,-13.8301,1.3942,-4.8885,-3.0092,-7.7177,3.9252,-6.9695,2.8991,
4.8081,8.4975,-5.1247,12.3216,-15.2161,21.774,-7.4567,7.818,-1.9441,-0.65947,-9.9062,1.0381,-6.7923,0.55597,
3.7965,9.6747,0.24422,14.2337,-18.8832,17.3343,-9.1787,-1.0869,0.82383,1.0671,-2.8041,-7.4601,-3.7339,-6.4675,
-0.046526,7.4072,9.1479,13.1385,-16.5449,19.9095,-13.6894,-6.0832,0.051274,0.27994,1.4617,-7.2536,-5.6788,-7.7664,
0.92059,6.9628,8.1171,10.9043,-9.2854,17.2691,-9.0116,2.9589,-7.1826,-5.039,-5.3749,-0.069522,-9.6764,-5.8542,
3.5165,6.304,-1.77,5.6703,-16.2001,10.6893,3.3392,7.3607,1.2025,0.32452,-3.8471,-3.1984,-2.5883,-0.92319,
-4.4075,0.14098,-6.9666,-2.8648,-28.2438,6.1914,-2.1636,-0.31204,6.9147,5.6075,-2.1702,-10.2375,-2.9152,0.095836,
-3.179,2.5429,0.20003,0.19936,-15.4617,5.8201,-5.408,-0.77503,2.6432,2.8607,-2.5222,-0.94642,-6.5964,-0.87355,
2.5556,1.6672,1.8755,-0.53573,-11.4007,-0.55488,-0.022067,0.47654,3.2078,1.9664,-1.1653,-0.16651,-8.37,-0.5804,
-1.9368,1.5669,0.31647,-4.3597,-19.3938,1.8883,-2.4311,1.894,8.8001,8.1147,1.3145,-0.15675,-5.9394,3.793,
-8.0868,1.4731,-2.5948,-4.0984,-12.4453,7.0779,-8.0696,-1.5939,2.0053,2.3254,1.7178,9.0119,-3.1727,0.19117,
-5.9144,-2.2307,-9.429,-1.6833,-5.1909,4.0017,-5.8986,-1.7392,-2.2123,-1.9115,3.7839,6.784,-0.81317,-3.4357,
-3.1494,-5.9532,-13.6835,-0.618,-12.5922,-1.0587,-5.5447,2.2215,2.7407,-0.35057,2.1106,2.5206,-6.067,-2.2657,
-2.2371,-8.7295,-14.0678,-5.1602,-16.4162,-5.5745,-5.9349,1.8473,7.156,0.8753,1.2611,2.6103,-10.2823,0.039393,
-3.5491,-4.3494,-12.7413,-5.333,-13.503,-4.7581,-4.1326,-0.19177,2.8702,1.7871,3.1136,1.0074,-9.1834,1.0014,
-3.3364,2.1783,-8.6026,1.7361,-8.3543,-1.0983,-6.7769,2.2301,-4.0507,-0.24854,-2.8576,1.4291,-12.0066,-1.4691,
0.72017,4.9397,-1.82,9.3443,1.7877,2.8239,-10.7091,3.5421,-5.2539,-2.1618,-6.061,2.7896,-14.1788,-4.2735,
3.0875,5.6076,3.11,12.1585,1.6807,4.1008,-8.6203,8.1503,-1.5642,-0.58585,1.5339,1.176,-10.4355,0.80412,
-1.6777,-0.75459,-0.69229,6.3671,-4.9281,-2.1711,-1.1134,7.902,2.1448,1.1363,3.1289,-3.956,-4.266,2.9243,
3.2435,4.5936,7.0622,9.3593,9.4676,4.7079,2.3276,5.018,-1.8405,-2.788,-1.3974,3.512,-6.9023,-3.0355,
11.7262,7.2102,11.9409,11.2081,22.9995,5.3895,-6.0065,4.7167,-7.9963,-8.4056,-6.134,0.89089,-17.0933,-8.6377,
13.6739,4.1263,4.2348,6.9204,7.5195,-2.4054,-2.0309,1.3004,-0.044961,-4.768,-3.5966,-6.1522,-9.078,0.31648,
9.7202,4.1199,1.3294,7.7103,6.4659,-4.4305,3.6348,-7.6954,2.6091,-3.7583,-2.6577,-3.6137,-1.0613,3.4307,
11.0652,2.4265,8.9624,8.2115,20.178,-2.7184,0.042219,-9.1619,0.042389,-7.3897,-0.57003,0.45952,-6.3003,-2.5597,
9.437,-2.5398,9.8709,0.48799,17.4006,-4.4835,-1.4066,-5.2377,0.039846,-3.0899,0.90998,-1.0143,-9.2967,-1.9242,
1.1578,-5.2797,-1.8088,-3.8794,3.3411,-3.7323,3.9802,-7.8158,3.8936,5.7724,3.7477,-3.3638,-3.4365,5.4219,
0.60659,-2.5526,-8.9309,-3.6468,8.9252,1.3121,4.2236,-10.2391,4.6241,4.9443,5.9332,-0.26969,0.62632,6.0607,
11.1753,0.49285,-0.682,1.3929,22.4897,3.1618,-1.8142,-6.7325,-0.47338,-2.101,3.6492,2.1568,1.5528,1.3589,
12.4332,-0.50082,8.5177,4.6836,22.9483,1.5256,4.079,-7.7746,-0.4452,-2.4571,3.43,-3.275,0.013637,0.31331,
3.7332,-0.71196,4.3915,0.30496,10.7253,0.22899,8.4138,-11.4057,2.2328,1.3055,0.5729,-5.2479,-5.0491,2.9454,
4.4731,0.77701,5.5738,1.2505,20.2047,4.0716,2.6063,-8.3112,-1.2756,1.7091,-3.3179,2.2978,-7.6387,2.2867,
3.7228,-2.6441,4.7574,2.6218,24.777,4.3093,-1.4064,-3.9561,-4.5735,-2.2498,-3.6007,2.16,-6.216,-5.0813,
4.9454,-0.075059,-4.2049,2.4647,17.506,9.8355,-2.2862,-2.7547,-3.335,-0.66835,0.47194,3.9588,-6.8072,-2.3661,
10.9154,1.8579,-4.4348,2.799,22.24,16.476,-7.9333,-9.3381,-10.3655,-4.4849,-1.0029,5.1673,-13.1474,-4.6345,
17.7321,7.2898,4.7496,11.0665,28.8596,16.2106,-4.3241,-7.0908,-9.0205,-3.0107,-1.6658,3.1698,-7.779,-8.4535,
11.8477,11.6729,-1.3202,8.9564,13.1485,8.9712,-1.1723,-1.8449,-4.1407,0.54462,-4.4582,-3.2867,-3.4557,-4.0902,
3.1831,9.7677,-3.4101,3.3578,-1.7404,1.9254,-1.343,-2.4571,-1.7231,1.2348,-2.0211,-2.3666,-8.31,1.2169,
10.4639,8.9402,6.6764,7.2533,4.2689,2.0509,2.3526,-2.5506,1.0314,-0.52647,2.6795,1.3908,-6.6066,-1.0252,
16.8259,6.2346,-1.196,-1.6176,16.7872,3.6151,4.863,-0.71035,2.1748,-2.1821,0.8315,-2.79,0.29775,-4.0972,
12.2007,3.6911,-9.0782,-7.5463,10.7185,0.2649,-0.0083262,1.9836,0.35687,-2.2919,1.0228,-8.1664,-5.7459,-2.1644,
15.5663,11.906,3.7593,7.0065,5.4963,-0.47412,-2.6587,1.1415,-3.2797,0.97885,2.6484,-3.5788,-10.4626,-1.7929,
21.8631,14.5657,10.2821,15.8656,10.9507,-1.41,-0.57143,-2.7834,-6.4574,1.884,-1.8493,0.97421,-6.4604,-6.0241,
19.3461,10.0763,8.4599,5.9956,12.4628,-3.4946,-2.2244,-2.3755,-8.2391,-3.7727,-4.8713,0.6748,-7.2781,-4.9397,
19.3906,8.7488,10.122,1.0566,10.9921,-2.5615,-2.3319,-3.9202,-5.0932,-4.7511,-1.4456,1.8396,-8.5286,-2.4737,
17.745,8.2237,6.6223,-1.8991,16.5993,1.4483,-3.1561,-5.131,-6.716,-4.4663,-2.3229,2.6933,-9.9448,-5.2181,
8.0034,7.7305,-1.0061,-4.6775,13.193,-0.085069,-2.4845,0.96124,-7.7596,-1.306,-5.5582,0.6033,-7.9021,-3.4589,
7.0413,7.7486,3.3931,1.3878,17.7041,-5.3822,-2.8174,-1.9885,-6.8116,-2.1915,0.077911,3.4596,-7.428,-4.2153,
10.7164,6.561,8.7329,8.7765,29.4161,-4.818,-8.6741,-13.6795,-14.8388,-10.496,-1.1318,6.8677,-12.5257,-13.8441,
9.35,5.9259,4.5935,8.009,16.3229,-3.3241,-0.19994,-6.3508,-5.9947,-4.3226,2.5515,0.42963,-4.7843,-5.0597,
3.7276,0.026976,-7.4925,-3.3181,1.2435,-16.3808,4.8735,-0.4264,0.39072,-1.8943,3.6035,-10.9246,-1.3644,1.7512,
5.9138,3.3996,-1.2581,-1.1905,6.8328,-17.3264,0.24254,0.56328,-1.0792,0.14779,2.4232,-2.5561,-3.6925,-1.2462,
2.9081,2.4725,5.807,-1.3603,4.7358,-4.9588,-2.9053,-4.05,0.67299,3.7541,2.519,3.623,-6.6046,-5.2686,
1.0464,-0.32697,-0.56696,-3.4479,-9.6483,0.40036,-1.0437,-5.9762,3.2837,3.2879,1.1625,3.1642,-5.485,-1.8194,
4.3581,-0.78928,-3.9074,0.61541,-1.9588,-7.8184,-2.4269,-1.7612,2.1228,2.6087,-4.6918,2.0105,-3.7096,1.1823,
3.6142,-1.7063,-0.78089,0.096547,3.4609,-9.7598,-3.7275,-1.1736,0.067254,4.3804,-12.605,1.4079,-4.4514,-1.7812,
4.6029,1.0474,3.3635,-0.15044,1.5662,-3.1485,-2.7808,-1.8263,1.7502,6.2869,-15.4643,5.4211,-3.9431,-3.8432,
3.1214,-0.70263,4.8494,0.58194,4.6057,-6.5745,-3.3368,-4.3679,2.3686,1.33,-17.1876,3.8905,-3.4655,-5.2999,
3.4158,-0.6607,6.9684,1.9926,10.5957,-8.1089,-5.5474,-7.9624,1.2619,-0.19586,-16.6385,-1.1634,-3.7398,-2.0896,
1.5241,0.5847,2.9348,-2.2239,5.863,-6.4167,-4.4912,-6.7613,-0.50059,3.9137,-14.9168,-1.3346,-3.7564,1.1693,
-0.97768,-1.3793,2.2766,-2.5726,3.5824,-2.6574,-1.8118,-2.4995,2.4213,1.2681,-11.13,5.9761,0.32518,-1.3112,
-0.91902,-2.2604,5.5144,7.2227,9.6344,-0.08786,-9.4159,-7.6521,-4.4724,-11.3415,-14.8005,5.1356,-6.4428,-9.4277,
5.6436,4.3827,6.3884,15.707,7.8511,1.6046,-2.343,-3.5776,-0.58868,-0.77862,-14.6354,1.694,-4.369,-2.3541,
-0.4796,4.1202,-0.26141,5.1241,-6.72,-10.0608,5.9923,0.49345,5.7132,9.8729,-15.6854,-5.1561,1.6777,1.1616,
-5.2713,2.9089,2.1646,-3.3783,-4.2677,-10.4212,6.1149,-3.8742,7.2988,6.3883,-12.334,-0.99058,3.9874,-1.8004,
-9.5348,-3.7736,1.7938,-1.0069,2.9778,-8.5911,2.1326,-11.1141,5.1732,1.4257,-7.979,3.6481,-1.7959,-0.96949,
-8.7213,-4.2701,-1.9293,4.1156,-8.0467,-12.655,0.79979,-5.8675,3.176,3.5093,-9.6694,2.2244,-4.8212,1.7402,
-6.0286,-0.39866,0.35588,0.25304,-14.072,-11.1725,-0.93565,-2.8641,2.7443,1.6117,-11.7405,3.778,-0.91625,-1.4979,
-7.5953,-0.37451,3.7088,-0.24384,-7.4429,-8.0918,-4.7357,-8.4766,0.16971,-0.89532,-10.5539,4.5158,0.58476,-2.8541,
-3.042,-0.1113,3.7274,6.7604,-1.9349,-6.4013,-2.7645,-5.7991,-2.9742,-0.6004,-8.2337,5.9319,-3.066,-0.51342,
-0.44935,-2.0328,2.5395,2.4984,-2.3007,-7.9454,0.2934,-3.5229,-1.8314,-1.0468,-8.2216,6.5398,0.010502,-1.9289,
-8.6173,-2.3926,1.423,-3.4363,-4.573,-9.879,0.27603,-6.6858,-1.7213,-0.5018,-10.1382,2.7732,5.3123,-0.84905,
-5.9309,-2.0083,2.5427,0.38507,-2.1293,-11.4557,0.01827,-5.0796,-3.3055,-2.1591,-8.3253,-1.4908,1.8603,-0.074974,
5.271,0.28117,4.0771,1.0851,4.9881,-9.5632,0.7403,0.28665,-2.384,-1.7884,-7.5846,-0.67818,-0.42071,-0.79361,
-2.0349,0.023558,1.6636,-3.5595,3.4838,-10.1945,-1.9554,-0.45368,-3.928,-2.4042,-9.7809,3.4601,0.81005,-1.4691,
-11.0719,-3.3518,1.5637,-3.3455,-7.3301,-15.8494,4.9108,-1.3903,0.64602,-0.33132,-7.2654,2.2886,2.2077,1.0296,
-5.5873,-3.6331,2.4338,-1.699,-5.4445,-15.3803,6.5443,0.1389,4.4636,3.0626,-2.4911,-4.1157,2.5567,3.8599,
-2.1188,-3.1744,8.3135,1.0543,8.9822,-5.5397,-1.8023,-5.4128,-3.7581,-2.6646,-0.17271,-1.6998,-1.6938,-0.95121,
-4.8837,-1.5377,11.1892,1.473,6.6356,-3.2791,1.6803,-2.6779,-3.5327,-2.9866,2.2482,5.1511,-1.5922,-5.7149,
-13.9905,-3.1324,-2.2564,-6.087,-7.8626,-16.8209,10.0154,2.5442,7.0434,5.628,0.90782,-0.70135,5.0111,0.17188,
-16.7665,-5.5956,-6.7008,-5.9627,-8.2342,-18.9451,12.0656,-0.25954,11.6825,9.3881,2.0586,-1.3826,10.7359,6.1871,
-12.386,-4.296,0.45019,2.1078,0.93649,-7.6851,3.1469,-3.136,-0.1057,0.62968,0.97126,3.521,0.93276,-0.45063,
-7.7865,0.78251,7.1716,6.3197,8.5931,-0.95745,0.065581,2.3543,-5.402,-1.8182,1.8768,0.89965,-2.9796,-3.798,
-5.8733,2.1816,6.2596,3.5301,15.3086,-1.3817,1.0262,0.76703,-5.0777,-0.74504,-0.64566,-6.8673,3.4659,-5.4986,
-1.6647,6.3892,6.8481,5.2467,11.4978,3.5212,-0.48186,-6.992,-4.2913,-4.557,-3.4997,-5.4912,3.7401,-4.2046,
0.84599,5.0418,4.5093,3.004,8.3975,1.8644,1.4755,-8.9824,-1.1411,-6.6934,-0.87887,-4.1976,1.1054,-1.5419,
-2.3383,2.0882,-3.2335,-0.79169,14.8836,-3.7911,3.0742,-5.3099,0.61463,-1.7125,0.37869,-2.2585,2.7263,1.6841,
-6.7777,-1.1706,-7.1369,-1.4675,-0.10946,-3.3227,1.6844,-2.8222,2.7469,3.4519,1.5613,2.9386,2.3217,-0.10421,
0.37763,0.34568,-0.44192,1.9947,-2.634,3.143,1.1012,-2.6531,4.0281,0.83442,9.1801,2.7621,0.73594,-1.0621,
4.2111,1.771,-2.8258,-4.3917,11.6241,2.4722,3.4455,-2.9761,3.3043,-1.1441,10.5573,-4.1523,4.066,1.894,
-4.477,-5.8069,-14.9485,-17.3844,23.5808,-11.7761,8.7826,-6.8946,11.5419,4.4684,6.7906,-8.4827,13.2223,-0.38907,
-1.3161,-6.4226,-11.1593,-11.5208,16.8631,-18.9026,11.1479,-5.9992,14.706,9.0208,7.8296,-1.225,14.3574,0.11644,
6.4754,-2.663,-3.2591,-0.70643,29.9513,-14.8761,0.83786,-5.1571,-0.27634,1.7309,2.057,0.77688,0.96266,-0.37271,
8.2561,-3.2266,1.5162,3.4333,33.5774,-16.6351,-0.4177,-5.0887,-3.7552,2.3499,-0.71752,-1.4393,1.6278,-0.59131,
9.9301,-3.2737,5.5228,-0.38788,25.5374,-16.8416,3.223,-7.9166,0.5682,2.4501,-3.8077,-1.5937,6.1096,-3.6891,
11.9856,0.53837,6.3965,-0.6058,30.9948,-8.3595,6.6448,-9.1291,1.7392,-0.83014,-1.4103,-1.2569,7.9125,-1.2984,
1.6257,0.023904,-1.2179,1.8409,23.3503,-9.304,5.7644,-8.5811,-0.2936,0.6657,3.4952,-2.6275,6.4736,0.22558,
1.5282,-0.94186,-3.0735,1.7304,16.1647,-15.0127,3.008,-6.138,-2.2042,3.5183,2.3212,1.8684,0.78255,-0.75228,
8.4259,-2.0902,2.6545,-1.0249,18.3283,-15.7992,2.1046,-7.457,-2.3129,1.62,-1.4335,-0.89521,0.49463,-0.94811,
6.9565,-1.0009,4.4234,1.9291,16.7462,-11.4768,4.8704,-5.5633,0.71794,-0.40544,2.5089,-4.216,7.6953,0.073099,
1.7186,-4.3151,-1.1444,0.84924,14.2954,-9.3421,5.5423,1.5192,3.0852,-0.38134,5.7326,0.37556,8.6801,3.9249,
0.89215,-5.7434,-3.2449,-2.3352,12.7148,-10.9508,3.0406,1.669,2.1772,0.84683,3.2195,4.9328,5.5077,4.4127,
0.83862,-1.5424,-1.6039,-1.2308,6.1673,-14.632,2.3762,-5.662,-0.36355,1.7599,4.4726,-0.18391,8.0698,0.77352,
4.4039,0.2376,3.0718,1.0125,13.2689,-11.5847,3.4387,-6.5273,-2.9931,-1.479,5.8917,0.55025,6.8625,-2.4061,
7.273,-1.4641,8.9128,2.1568,26.5727,-1.4899,-3.7573,-4.9306,-12.2137,-10.3081,0.95819,7.0249,-1.5032,-5.8774,
1.5339,-2.8225,1.6296,-1.3471,16.4222,-1.8824,-4.9781,-5.5987,-7.6245,-1.9768,4.7575,7.5678,0.51515,-0.70407,
-9.1632,-4.5811,-12.5682,-10.4255,1.3369,-15.749,-5.1616,-2.8528,-0.90029,3.4442,0.61547,0.36458,0.0025381,4.1587,
-2.3466,0.99615,-6.3912,-4.0152,1.8589,-9.0192,-5.816,1.6569,-3.7386,-0.61859,-4.2419,5.1636,-0.47978,1.4988,
3.3376,-2.1969,4.3564,-0.641,15.8473,1.4036,-4.7439,-8.3242,-10.9858,-6.6072,-4.7106,3.1664,-3.1023,-8.4728,
1.9322,-3.2701,-0.0025713,-3.2539,15.7401,-0.3676,0.12026,-4.6915,-5.2652,-0.66743,3.5261,-0.15687,0.69901,0.95336,
-0.35308,-3.3151,0.23878,-4.7456,10.2162,-3.4788,3.2463,4.0254,5.4148,7.8085,8.3759,-0.87059,10.5392,9.814,
1.5963,-4.0805,6.9729,-2.0508,10.5675,-4.2344,4.4978,2.82,6.5357,7.34,4.4989,-5.6391,10.8708,0.066121,
1.26,-3.1123,5.8321,-0.72243,13.067,-2.775,4.4689,3.8561,4.4568,5.2128,5.4343,-3.613,2.7472,-1.1427,
-1.4671,-6.0591,-0.061914,-5.2588,10.1138,-5.2596,3.4778,2.4195,4.4303,1.2846,7.7593,-3.6377,3.3052,1.577,
2.718,-0.15216,-1.7452,-5.6664,6.3732,-5.1853,1.5817,-2.3052,4.8872,2.4126,6.5706,-6.5527,6.7221,1.2412,
8.0988,3.9546,-2.3636,-4.1214,10.0884,-1.7409,0.76369,-0.96185,3.3889,4.9192,6.4176,-1.58,0.7754,1.8898,
6.6487,-3.5133,-1.2577,-7.2479,8.519,-2.1181,-0.24577,2.4705,0.77567,1.7318,2.6583,1.4071,-3.6092,1.7767,
5.0448,-0.16928,4.3611,0.65859,5.3566,1.6237,-0.95461,0.63485,-0.95832,-0.54154,-0.6349,-1.8106,-0.7418,-0.49933,
4.7421,5.6255,4.5819,4.9574,6.9634,5.3831,0.066989,-0.84904,-2.829,-1.9553,-1.0787,-7.4865,-1.6612,-2.3976,
4.4573,1.9137,-1.4779,-4.4989,6.5453,6.0242,-1.3831,1.6118,-6.0335,-1.8378,-1.4962,-7.0376,-4.9362,0.63858,
6.841,1.0755,-4.5227,-7.3624,4.4654,6.8676,2.7973,5.6124,-2.0561,-1.4865,2.6909,-0.10784,-0.54265,5.6615,
5.7078,-0.676,-4.974,-8.1257,2.5105,1.3941,3.8345,4.0706,0.71862,-4.0487,4.2169,3.5143,0.21304,4.5991,
4.1603,-2.3224,0.38591,-7.8794,3.083,0.10539,-1.939,0.69314,-2.4578,-3.0826,0.34874,1.6164,-2.4511,0.70753,
3.9105,0.22726,4.2189,-1.1399,6.7546,3.4733,0.58774,-1.7588,-5.2026,-1.4516,-1.1187,0.55535,-1.8218,-3.1911,
1.7476,3.5876,-0.85493,2.303,2.9749,1.8186,5.8547,-0.68895,-3.4446,0.081736,2.3229,0.52157,-0.74866,-0.58949,
0.67892,2.4085,-3.2138,-0.24533,-0.57807,-2.1469,0.20074,4.1726,-2.2736,1.5231,1.7016,-0.4736,0.74252,2.8203,
-1.531,-3.2796,3.487,0.010352,10.3029,1.1154,-5.8369,2.7174,-6.717,-5.0762,-0.087732,1.724,-4.8456,-0.48237,
-5.5367,-2.3597,1.5908,-1.6777,7.5153,0.80776,1.9854,-2.0251,-5.1084,-8.8688,4.0151,5.7181,-6.7238,-1.1766,
-8.3382,-2.9413,-10.315,-14.3513,-7.0356,-13.3407,8.3735,-0.21661,7.008,2.9913,7.3894,0.79552,0.66924,4.9198,
-3.9813,-3.7289,-5.358,-11.5622,-20.7135,-20.3737,4.015,6.5451,8.9979,7.1504,6.4639,-3.5908,4.4852,7.0345,
2.5243,-0.13093,8.461,3.2315,-5.3707,-5.0513,0.39983,4.7063,-4.0753,-7.3786,0.77362,-1.9293,-1.5682,0.8281,
5.2649,4.2152,4.5789,7.2554,8.8104,1.8797,2.304,-4.7351,-6.2413,-9.226,-1.6834,-2.7774,-2.9204,-1.1498,
6.8777,9.2654,1.8941,6.3386,-0.87682,1.285,-0.72627,0.36973,-0.56375,-0.95923,-1.1,-5.0209,-0.81652,2.7756,
5.5005,4.8529,13.8317,7.8863,-5.1628,2.172,-3.0935,9.5064,-1.4945,-8.1327,-1.9981,-2.3097,0.67805,1.163,
2.7603,3.1155,12.5199,3.5567,-2.4429,0.11349,1.9128,4.5977,-3.3325,-8.1267,2.9425,0.72138,2.566,-0.83495,
4.2819,5.5796,1.4044,1.1742,4.2116,-1.5805,1.5571,-4.1143,-4.3379,-1.1312,5.899,-6.7937,-0.72143,-0.54388,
3.3019,1.6297,1.0794,1.3444,2.2715,2.6119,0.25859,-2.6624,0.50191,-1.7864,2.4118,-13.8577,-1.4013,0.69381,
-5.0907,-1.8423,-4.7702,-3.0743,-11.8439,5.3474,-1.6849,2.8002,4.8103,1.695,-2.071,-3.8674,1.5751,4.9907,
-8.1595,-3.6602,-8.8221,-3.854,-9.2053,2.6162,-5.4404,-3.1522,-0.7807,4.486,-0.98265,2.6314,-0.44738,0.83513,
1.4884,-1.5126,5.8073,3.6079,5.4471,5.3516,-0.2935,-6.3377,-3.1447,-0.12214,6.3065,1.027,-2.8314,-3.0716,
0.67644,-3.5908,8.9535,-2.152,5.7229,1.4153,2.8574,-0.41407,0.65966,-0.35555,1.349,-2.1679,-1.9379,2.6561,
-2.9796,-3.1344,-2.4299,-9.977,-8.7205,-0.8388,3.4088,6.6007,7.1276,4.727,-3.3117,-2.7607,4.6859,9.4866,
1.7785,2.5973,-2.0432,0.50397,-5.6664,3.7908,0.071267,2.5892,-1.7358,-3.028,-2.8715,-5.7281,-1.1389,-0.00020847,
7.2154,7.985,3.623,10.3557,7.4476,5.7325,0.30796,-0.69965,-7.1752,-5.4978,-0.53055,-7.0721,-7.578,-5.0619,
6.0593,4.8546,0.75432,2.7442,6.7595,1.291,0.048285,2.4756,-2.1652,1.8217,-2.6676,-8.8167,-4.9544,-1.6249,
4.7319,0.22503,-3.1473,-5.1327,-0.87645,-2.6424,1.0097,3.7738,0.85723,3.1586,-2.5076,-11.1802,0.16355,1.3646,
5.1711,-0.99354,-4.6455,-7.4761,-2.9932,-5.1352,6.0106,1.378,4.9029,2.7279,7.0426,-9.7863,2.3231,2.9702,
3.4146,2.4405,-1.4747,-4.1355,4.8991,-4.8271,-0.61657,1.7772,1.2343,1.6004,7.5844,-1.0039,-4.0832,-0.10051,
-0.16496,1.3295,-2.3503,-3.8876,2.6768,-5.0201,-4.9186,5.5267,-0.76819,1.0222,2.3084,8.2151,-8.6587,-1.5405,
-3.0469,-3.5703,-13.7782,-11.3669,-11.5839,-10.9851,2.6076,4.7134,7.9552,7.7095,2.1706,2.9017,-5.7288,-0.0020466,
-3.5872,-2.6329,-14.639,-8.5155,-22.5782,-10.5668,4.6205,-0.63083,8.683,6.5243,3.2454,-4.262,-4.18,0.72121,
-3.6129,-3.6802,-1.9505,-2.4609,-7.1235,-8.246,3.6199,0.12992,1.6545,0.58876,6.1837,-1.3552,-7.5447,1.4008,
-2.4321,-5.8698,2.0231,-3.7593,-6.0933,-12.0893,1.9567,5.9069,0.10922,1.9999,8.223,-1.7556,-8.538,2.2813,
-1.0811,-4.3125,-5.0879,-3.293,-11.7539,-11.6052,2.5624,4.347,4.1998,3.5669,6.5246,-5.7483,-6.3387,1.9033,
-5.1138,-3.3306,-5.9877,-0.4441,-9.3612,-7.7756,4.0962,0.47099,4.189,0.70159,6.3743,-4.1979,-6.6811,0.10207,
-3.3609,2.1716,4.9762,2.9568,-7.3535,-5.863,1.922,1.4068,2.0092,-0.3046,4.0634,2.3203,-9.173,0.57765,
1.4202,5.1746,8.7752,2.5382,-5.7072,-5.7524,3.0117,-0.84697,1.6475,-2.4557,-0.75988,1.4579,-8.3814,-0.18014,
2.2989,5.8284,4.3923,5.2784,-1.9903,-3.4791,6.2055,-2.7243,-0.86149,-4.7185,1.2139,-2.0035,-7.3966,-1.1332,
0.23322,5.9607,4.1288,8.8181,-1.389,2.9966,2.9406,-0.63269,-4.1843,-2.9891,6.9256,1.0087,-8.399,-2.5115,
-4.8425,1.0237,0.26561,4.1916,-3.9567,5.4679,0.11308,-2.2815,-2.246,-0.64062,6.7511,4.0817,-7.1717,-0.67355,
-6.2389,1.2035,-3.3655,2.2531,-2.5138,-0.40355,1.3114,-3.8316,0.54057,0.12094,3.6951,-0.26033,-3.1258,2.9825,
-5.3824,2.0954,-0.2713,4.5283,-1.3993,-6.1641,0.26858,-0.70988,1.9542,1.0778,5.8833,-3.6194,-1.4922,0.87514,
-6.9877,-0.44092,3.6014,4.7385,0.13087,0.47268,-4.5678,-0.66729,-1.0556,-3.8071,6.0123,5.2749,-7.6696,-0.62363,
-7.5327,-0.41447,8.6879,4.9362,7.3539,8.1571,-5.7404,-3.0374,-3.4029,-4.543,2.2771,13.635,-8.1733,-2.0325,
-9.2504,-4.487,0.69485,-1.8679,0.88662,-2.6967,-3.2269,-6.9529,1.3811,5.6115,0.93516,4.8632,-0.21159,-3.5978,
-7.4898,-1.5664,-4.4083,-1.5147,-8.5663,-6.6324,-1.3458,-1.4739,3.4676,6.4799,0.63832,-3.8645,0.042302,1.1976,
-0.7737,6.2401,9.9562,8.6993,-0.33936,1.9604,3.5554,2.4707,-2.0433,-4.514,-0.36408,-6.5249,-5.7446,2.5718,
0.47756,5.1428,19.6022,12.2747,5.2246,4.0124,2.6192,-2.2568,-6.982,-4.4841,3.2732,-5.4101,-6.6052,-0.71553,
-4.3714,2.4241,4.9287,3.3435,0.57282,4.7356,-3.3225,-0.67514,-4.1529,1.0876,5.005,-4.1216,-3.3164,0.77366,
-1.9399,4.4478,2.9458,1.9376,6.564,8.5488,-0.47207,3.4627,1.1579,-5.0032,-0.83893,-4.1153,-2.8764,1.4501,
1.5507,7.0732,10.964,10.4987,14.3651,8.518,2.9309,0.36267,-5.6602,-8.0773,-4.6447,-5.7963,-7.5243,-3.4574,
3.1449,6.8898,9.1008,13.4837,11.3336,11.6223,0.10353,-0.86438,-7.9722,1.8069,1.6595,-3.2798,-7.3143,-2.0446,
3.4384,6.4762,7.5907,13.6388,8.2432,17.1917,-5.2051,-0.81229,-3.6372,0.25247,2.0416,0.29163,-4.947,-0.47591,
-3.0345,7.052,6.1714,13.7848,3.4107,16.1602,-2.9646,-0.28162,-1.4908,0.23732,2.4015,2.6843,-5.6141,-0.44736,
-12.9757,-1.5663,-4.3223,2.8344,-9.3278,6.9955,-3.7511,-1.711,-3.8119,2.1513,5.6314,2.0408,-13.9543,-2.3487,
-9.0639,-3.1593,-5.7499,-3.8434,-10.4552,6.335,-6.1773,3.9355,-0.44949,2.2634,3.1246,5.534,-14.3221,2.3717,
-5.1454,-4.8977,-2.9946,-4.5769,-8.8638,2.0983,-5.8064,1.289,1.9874,3.0917,-1.4014,0.38149,-8.6423,2.2292,
-0.98031,-3.64,2.0054,-0.4459,-6.4037,-2.8479,-1.6017,-4.5729,-0.060061,2.9062,2.539,-7.8361,-10.052,-0.31468,
9.9245,4.0504,9.3571,6.571,0.97012,1.9025,0.66382,0.281,-0.29719,0.56243,4.5561,-0.3763,-12.5821,1.8736,
6.4363,0.91465,8.3135,2.3201,-5.8368,3.7163,-1.3044,3.156,1.1667,0.046517,2.8362,5.913,-11.3455,-0.64918,
-5.2776,-1.7909,3.7173,-7.2191,-11.994,3.2524,-4.8416,-0.64835,-2.0364,-0.19678,4.3538,5.7992,-13.7978,-4.2257,
-7.3713,-2.648,-0.36233,-11.1245,-4.5257,4.0213,-9.8535,-3.5017,-10.5915,-7.416,1.2002,6.4154,-18.7547,-1.5618,
-2.5907,-2.0072,-1.7869,-5.6368,-2.8084,4.7439,-7.3341,0.082363,-10.9203,-9.8636,-5.6207,6.0304,-14.7374,-2.9143,
3.1084,6.0675,4.3464,6.512,-0.47025,9.521,2.024,4.1752,-3.7572,-2.2819,-2.6323,5.9096,-5.8989,-2.9804,
4.3681,7.6316,8.4239,11.4239,4.8606,11.3603,2.3845,1.5146,-2.5674,-2.6269,2.3463,1.6986,-8.4371,-0.39147,
1.4547,4.5224,4.3028,10.0154,1.9172,7.063,-5.2306,1.1825,-8.4392,-7.0488,2.4463,4.248,-14.9209,-1.573,
-3.4531,1.3588,0.18849,7.4865,-7.8386,1.3368,-6.8447,4.4858,-5.5225,-2.2874,2.2997,11.2237,-10.651,-1.9608,
-10.9587,-6.4355,-5.6074,-2.6041,-8.3321,-1.6359,-2.5777,2.2885,1.5573,2.6701,5.5362,8.1402,-2.2992,0.56741,
-9.578,-7.7369,-5.9941,-7.0274,3.0138,0.63165,-0.73601,-0.98211,3.6333,3.715,13.1575,5.4824,1.9359,3.1842,
-2.4958,-5.5854,2.3193,-4.4361,2.1101,-3.0217,0.031514,-5.9849,2.21,2.2873,10.6813,6.8407,-2.7595,-2.068,
2.9566,-0.43004,7.4828,0.65028,-2.3553,-1.8765,2.9217,-4.1795,4.0056,2.632,0.399,2.5738,-5.4865,-1.462,
6.1534,3.9343,14.7464,9.7701,3.5704,8.3592,1.3004,-2.4827,-0.091357,-1.8645,-2.5172,-0.95481,-8.0496,1.518,
3.6153,-1.3627,17.4772,10.3894,12.7564,10.0271,-3.3572,-7.3952,-11.4138,-10.1885,-0.67874,4.1639,-15.0382,-6.5271,
-5.7607,-4.1735,2.3286,0.60653,6.6884,7.0148,-3.1558,-5.5052,-10.729,-6.6852,-0.15608,6.3242,-11.2438,-8.0636,
-10.2358,-1.0306,-9.2596,-3.7677,-7.8129,4.1843,3.7825,6.8762,4.0147,6.2494,2.7458,0.64258,1.0004,2.5435,
-3.837,-1.4511,-0.50928,-4.0241,-15.4182,-0.40555,2.5912,10.32,0.76107,2.9824,-1.7577,-2.7704,-5.3266,0.94467,
8.4447,7.795,10.6085,3.4482,-0.39307,8.2959,1.9538,8.7369,-5.0692,-0.088601,-1.1699,3.6623,-6.4528,-3.4503,
7.4559,13.594,5.6334,5.6517,13.7305,5.3878,2.8007,3.3918,1.5017,2.3266,2.2745,-3.3061,-1.2456,-2.7616,
6.5268,9.8861,2.4031,4.8304,15.5578,-5.0586,3.5967,0.77837,4.7863,2.6692,1.6559,-12.2665,-3.0988,0.77877,
3.2422,-1.7943,-1.1155,-7.0286,10.7679,-7.1657,4.8267,-2.1609,2.0885,2.509,-0.37163,-7.1922,-2.9129,-0.23228,
-5.3875,-4.8197,-9.9662,-13.1143,8.4346,-4.5661,3.3323,-3.718,4.1324,5.9739,1.3379,4.5675,1.3592,1.4689,
-3.6185,-0.19217,-10.3325,-3.1689,4.0722,-1.882,-2.1703,0.36149,2.4382,3.6873,-0.18864,8.6318,-6.4351,1.3808,
2.8652,-1.6269,-4.4099,-3.9426,-3.8849,-7.0718,-0.11188,4.1962,1.81,2.0198,1.2689,0.40109,-10.8697,-0.14835,
3.4164,-0.80662,2.3619,-4.9116,0.92767,-9.7807,0.13557,3.2208,0.97823,2.6217,7.2181,-0.3461,-4.6737,-1.3445,
4.6579,4.5447,9.4513,4.0604,14.972,2.3755,-4.6926,-2.2744,-6.793,-5.7305,1.965,0.63876,-7.2855,-5.6024,
10.163,8.6108,9.8485,3.8168,21.666,10.9101,3.3017,1.2361,-1.0828,-2.0122,0.88278,-3.2555,-1.5458,-0.92747,
0.39418,-0.10105,-4.8424,-10.5122,6.266,-3.8445,7.442,1.6443,10.069,6.3032,-0.13406,-7.3989,4.3316,2.0202,
