"AF3","AF4","F3","F4","F7","F8","FC5","FC6","O1","O2","P7","P8","T7","T8",
-3.3742,-0.48216,8.6769,11.087,36.6359,-19.2822,-3.3742,-8.1949,-0.48216,-3.8566,1.928,11.5694,0.48216,8.1949,
-4.618,0.51109,6.2281,7.5297,39.2585,-17.1609,-3.6537,-8.1852,-0.45323,-5.071,2.2947,13.7673,-3.4032,6.7394,
-3.618,-1.6887,7.5416,2.4982,37.6259,-19.2647,-0.30145,-10.8275,-2.1133,0.29446,3.3618,8.8439,0.41646,6.0936,
-1.4728,-3.5156,7.571,1.8664,32.9582,-21.9652,-2.6935,-13.5523,-4.3966,0.27679,2.1963,3.4925,0.39147,4.7641,
2.472,-5.2329,8.0811,2.7187,28.0882,-20.1654,-1.0856,-11.2929,-1.2403,-1.668,1.1002,0.39094,-2.5245,3.9963,
5.9393,-5.642,9.7652,5.2069,28.0899,-17.7504,3.0766,-5.5539,-0.92513,1.0834,-3.063,-2.7658,-2.1319,3.9973,
4.8596,-5.0625,8.4564,5.1355,28.0917,-17.4083,0.72288,-5.4617,-2.5568,0.29549,-7.9409,-1.395,-1.763,2.0702,
2.881,-1.6255,4.8157,4.1042,27.1293,-13.2305,0.9207,-5.8571,-0.23405,-0.9273,-0.95672,1.822,0.029785,2.1872,
0.53877,1.1233,5.2499,4.5811,28.1529,-10.7492,0.62426,-5.7464,-1.4251,-2.0767,2.7159,-3.3488,-2.6233,2.7791,
3.399,1.0559,13.1296,7.1983,28.3919,-12.5149,4.9251,-4.9197,0.10624,0.93994,-1.3035,-6.5223,-0.055799,5.5044,
0.061539,-2.6228,8.2445,-0.70543,24.5192,-15.8613,2.4605,-5.3474,-2.0693,0.64258,-5.3226,-8.7821,0.67091,2.0407,
-5.0038,-2.7064,2.6881,-2.8323,28.1098,-10.3304,-0.33826,-2.3755,-4.5962,0.84499,0.54036,-3.1935,0.87162,1.6773,
-6.1496,-3.0262,4.9372,2.1582,17.7463,-14.5306,-0.3182,-4.6433,0.018092,-2.098,5.3284,1.3367,0.81955,4.9513,
-0.47824,-0.91668,7.5333,2.9928,5.5941,-14.1409,1.1469,-6.2931,0.9811,-6.3107,0.18823,0.29192,-1.158,5.1359,
5.8177,0.58481,4.6714,-0.56102,18.756,0.80756,1.0783,-6.3972,-1.4881,-2.5573,-1.751,1.7209,-1.0883,1.9359,
7.3963,1.0317,3.4268,-0.04543,26.3073,7.869,-2.8427,-12.2804,-3.327,-3.3682,0.76416,2.0996,-4.8799,1.3374,
6.712,5.0671,8.2828,6.9472,15.3293,0.88938,-2.9131,-12.7484,-3.3684,-7.2635,1.4412,-2.6057,-6.2739,1.4986,
6.791,2.8351,8.75,8.9407,7.6609,-0.61001,0.15393,-7.163,-3.6484,-3.9354,-2.5014,-1.0033,-2.5232,-0.037829,
7.3477,0.25466,1.4763,6.4758,10.5755,3.7651,1.1088,-5.7691,-2.4654,1.1212,-5.2436,11.1082,-0.92577,2.3748,
-0.565,-1.9298,-8.4947,-0.4202,6.8074,3.7802,0.8013,-11.4485,0.81598,1.2949,2.5428,10.2007,0.33506,6.3297,
-5.5926,-3.9834,-7.2619,-0.63618,0.37322,0.9016,-1.4162,-12.4491,1.9721,1.9403,7.4512,6.455,0.5557,4.7448,
-0.67748,-3.5032,-2.2466,7.8379,-0.37231,-1.8034,-4.4645,-6.1583,-0.79756,1.1008,4.8352,14.5036,-1.6466,0.36255,
0.56823,-5.4624,-4.7632,3.752,-0.59071,-1.4544,-2.5096,-8.4401,-4.8473,-1.6166,0.92992,13.3926,0.13922,-2.3105,
-1.8762,-4.1705,-3.9952,-4.6676,1.3732,3.4538,-0.43059,-9.8617,-3.5919,-1.0374,2.8021,7.2867,2.0593,1.2028,
0.16477,-6.3307,0.10066,-2.4596,2.2544,3.2463,-0.88692,-5.8957,0.96171,-1.4573,7.9368,1.5466,-0.95656,2.5766,
2.3238,-11.4942,0.81775,2.2675,0.43215,-3.4562,-3.967,-3.855,-0.30106,-2.575,2.8807,-1.6795,-2.5866,-2.1575,
-0.94864,-12.4918,0.045783,2.8548,-4.655,-3.4898,-4.4518,-2.4184,-1.4878,-0.2513,1.9854,4.4473,1.184,-0.82273,
-8.8455,-14.8753,-3.5724,-0.93191,-12.8118,-2.0751,-2.9794,-5.4068,3.1807,-0.47719,5.9636,9.2417,0.87199,2.3601,
-6.6277,-12.2958,-1.1887,4.1855,-9.8737,1.1827,-6.4163,-5.3231,4.1949,0.27457,5.3646,6.0359,-0.86733,0.53106,
-0.44549,-10.5942,4.1849,6.3445,-8.7994,1.1117,-6.9957,-0.66541,2.0151,2.1863,2.1502,-2.0391,-0.81529,0.017264,
-0.9007,-11.4043,2.006,1.6255,-9.2357,-1.3651,-1.2733,-1.1074,2.3761,1.5732,0.57538,-0.47046,-0.28444,1.4625,
-0.12352,-4.2124,-0.76566,7.0713,1.6825,3.7782,-3.3658,-2.2465,1.5104,-1.1725,-1.1466,5.5835,-0.9905,0.65161,
4.4632,0.13774,1.9314,11.2268,9.0534,5.2388,-4.3692,-0.90641,1.1788,-2.3075,-1.8007,4.0432,-0.6901,-0.59278,
6.1238,-3.7271,3.2615,6.6966,7.0641,4.4423,-1.6967,-3.2624,0.14398,-0.72254,-0.72856,0.90836,-0.64847,1.3712,
0.6947,-7.6009,-0.54959,2.1974,3.9887,2.9705,-4.7283,-6.2001,-1.5519,0.52565,-0.44388,-3.2435,-2.2968,0.56558,
-1.2754,-5.2164,-0.034447,3.0297,5.6778,0.38234,-2.5162,-1.0072,1.9159,0.49434,5.3676,-2.5672,0.73331,1.4957,
-2.4039,-4.1807,-3.1656,-0.76776,3.6502,0.1182,1.2499,0.74025,1.5598,-1.2228,2.3937,-4.1001,1.8944,3.093,
-3.2236,-4.4118,-7.7964,-1.2036,-0.90763,4.4494,2.6212,1.1778,3.8763,3.1894,-2.0882,-6.7462,3.227,4.8356,
-2.0658,-1.7365,-5.8824,4.1717,-0.37078,8.5212,-1.8744,3.5177,1.2336,0.58788,-0.9986,-4.8952,2.0695,3.0997,
1.1911,0.054428,-0.46775,5.1262,6.1589,10.6611,-0.55709,1.1375,-1.9739,-4.5091,-2.144,-1.4684,-0.2243,1.2265,
1.6016,-4.2872,-5.2604,-2.8941,0.48722,8.0932,3.8151,-0.37704,1.037,-2.3103,-2.9792,-2.8266,-1.1747,0.18901,
5.8441,1.7549,-5.4269,-4.167,2.386,12.4281,2.6217,4.948,1.457,-1.2076,-3.2826,-1.6929,-0.14013,2.5876,
6.4577,4.0597,0.20133,1.3862,3.2071,6.8622,1.5005,0.79473,-0.076693,-0.17129,-5.9777,1.7831,2.7603,3.8786,
0.28547,-4.3788,-4.6312,2.2671,-11.0853,-5.6009,-2.4457,-4.0734,-0.55425,5.1419,-6.5832,3.6046,1.1487,2.1998,
4.1247,-2.1879,-4.3534,3.5769,-12.7103,8.7144,-2.7813,0.99168,0.92526,5.7972,-2.3318,5.7984,-0.84843,3.996,
8.9389,0.11301,-2.4049,4.0856,-8.8142,22.2916,-1.8911,3.1013,-1.7813,-2.5044,-2.9152,0.3893,-2.0024,-0.34109,
6.7154,6.1313,-3.9479,5.0453,-22.3853,29.5105,-2.501,5.5664,-0.95157,-2.5955,1.357,5.9091,0.28649,-0.56205,
0.76883,1.6661,-5.8802,-2.7292,-35.1422,25.0883,-6.9302,2.0989,1.7566,1.1756,6.3373,13.0264,0.99266,2.1232,
1.2049,-6.1464,-2.1531,-6.4216,-47.1337,23.5832,-10.853,1.0093,-0.27674,-1.3048,1.6185,1.1578,-1.4773,0.067413,
6.435,2.4168,3.7609,2.6401,-40.0881,29.8808,-6.3456,7.215,1.1859,-1.7087,1.0392,-6.6247,1.5037,0.063138,
1.7103,3.7183,0.161,2.4819,-36.2363,28.5705,-4.5184,0.99779,-0.81322,-3.5341,-0.95108,-3.8169,0.93128,-3.3144,
3.2952,2.7721,0.39208,3.5381,-36.2315,28.5433,-0.63211,2.6249,-0.52369,-2.5994,-2.0991,3.4018,2.0805,0.98157,
5.7486,1.4009,2.5382,5.4954,-31.4061,27.0717,-1.3171,11.8674,-1.2152,-2.6839,-2.2141,1.9929,1.2327,2.128,
3.9574,4.2089,5.2779,9.9859,-20.3631,24.4831,-4.6125,11.1554,-2.5885,-1.0771,-1.1174,1.3909,-1.2514,-0.89223,
2.5151,7.0899,1.8282,14.9304,-23.7206,22.7736,-5.0587,7.835,0.21834,1.6391,-0.80938,3.4771,0.99289,1.3309,
2.6052,4.9773,-5.7537,7.5271,-35.5538,19.2375,-3.5503,5.6776,0.92814,-1.1108,-0.51985,-1.7932,1.6562,1.0096,
1.9667,3.2321,-2.9981,3.2188,-31.4926,19.0474,-4.3014,5.3367,-2.0198,-3.4545,0.95737,1.6886,0.11081,-0.9789,
-0.80263,-2.5052,-2.5771,5.677,-28.8799,18.6277,-8.1404,5.2577,-4.068,-2.0422,-2.2333,7.1306,2.7555,-1.1614,
-3.1646,-1.3905,-5.315,6.3007,-26.6647,19.4382,-3.7956,7.8348,1.4787,2.901,-0.65307,3.3288,7.8928,4.6929,
-8.0364,-0.10227,-9.0934,4.2355,-23.8595,14.6569,-2.3626,4.2312,1.6309,2.9679,0.59141,-4.3427,2.3576,5.6166,
-7.0721,1.3499,-8.5476,5.9093,-21.9463,11.8491,0.18907,1.567,1.0509,3.272,1.52,-1.1899,0.77007,1.9054,
-7.1299,1.7511,-10.4451,0.73426,-19.6654,9.6917,0.65989,5.3296,0.98809,3.0755,1.911,3.702,3.1342,-0.61928,
-11.0404,-4.6205,-11.2646,-7.9869,-19.4498,3.3256,-2.2722,4.5274,1.4107,2.891,1.3139,2.0336,0.053653,0.38174,
-4.3527,-6.9946,-8.9018,-7.7484,-20.9337,0.95712,-5.2691,3.0507,2.0492,2.9587,2.4402,-2.186,-0.6727,3.4921,
-1.9221,-3.4417,-7.1626,-7.0428,-17.9906,3.0686,-6.1581,2.6265,-0.24312,2.54,-1.3214,-5.67,1.0547,2.0775,
-7.5914,-5.6453,-9.143,-10.9585,-13.0548,1.9206,-1.9322,0.058759,2.1821,4.3158,0.68604,-6.7761,1.4738,-0.9392,
-6.8947,-6.5121,-9.7994,-5.7215,-13.9585,0.11795,-2.5394,2.7066,3.7381,2.3698,4.2601,-7.0926,1.1442,2.2504,
-8.6504,-3.4701,-6.5602,-2.245,-16.7367,0.35207,-3.1102,4.7136,0.38059,1.9864,0.87121,-4.0158,2.7625,5.2486,
-15.1213,-3.5028,-5.4436,-8.1358,-16.9378,2.0182,-2.6826,3.2254,0.59872,4.0364,-1.3502,-2.57,1.3919,1.8002,
-8.4292,0.56397,-3.1886,-3.3096,-7.7266,4.307,-1.0756,3.5141,2.4908,2.3482,2.5869,-4.8257,-1.102,1.6924,
-9.1287,-1.639,-4.6845,-2.3876,-6.0577,-1.4946,-0.2877,3.5442,1.1365,0.52008,4.6013,-3.8132,1.1333,1.8319,
-17.4986,-6.6024,-7.0545,-6.8237,-11.2378,-3.0921,-0.99334,1.6443,-0.61894,2.1761,4.5662,3.4054,1.7887,0.51666,
-10.4234,-0.66238,-3.9799,1.0573,-1.6457,4.083,0.75326,-0.62326,1.5876,0.84047,3.5691,4.8886,-0.48803,0.72686,
-3.7722,3.9564,-2.0541,7.5016,5.4431,6.9713,6.2514,1.5831,2.215,-0.41502,3.1138,3.3897,0.74632,1.8883,
-11.9815,2.0323,-2.6538,1.9903,2.9474,7.2764,5.6359,5.1035,-0.56899,1.779,2.6864,6.8022,2.3888,1.534,
-18.7349,-6.0439,-4.6642,-8.4935,-6.1475,1.2962,-1.2102,0.69993,0.67044,1.9133,0.83758,1.3324,-0.88805,-3.1377,
-14.9595,-4.9581,-1.733,-4.8506,-8.43,-3.8435,0.54937,-1.9934,3.7635,2.0397,2.4748,0.52888,-2.0398,-1.262,
-11.4108,1.8469,-3.3163,-0.94414,-1.8987,-0.96133,2.6856,-1.6328,-0.077755,0.71199,6.4236,2.6668,0.25172,0.98286,
-15.3052,0.049509,-4.8043,-4.0207,-0.097278,3.1939,1.8018,-2.2575,-0.79622,1.3924,5.7975,0.33783,2.8884,-0.76311,
-13.4231,0.046079,-2.5878,-2.8156,-2.502,1.556,1.2113,-2.1225,-0.74845,1.3089,4.9672,-0.16484,2.7146,0.24654,
-12.1355,0.52548,-0.5046,-1.2002,-5.2442,0.49858,0.17449,-2.4773,-0.22138,0.74817,4.187,-0.63711,2.552,0.71392,
-10.6842,0.25275,1.2131,-0.40506,-7.5809,-1.2188,-0.5591,-3.0514,0.032644,0.46254,3.2132,-1.322,2.1577,1.3942,
-9.561,0.71975,3.0683,1.0653,-9.5364,-2.1098,-1.4897,-3.3504,0.51285,-0.047377,2.5382,-1.7249,2.0284,1.7927,
-8.5054,0.19463,4.3305,1.4833,-11.8562,-3.9114,-2.3641,-3.6318,0.00014351,-0.52693,1.4216,-2.5852,1.4243,2.1671,
-8.7182,-1.0221,4.7938,1.6355,-15.242,-6.8095,-4.3917,-5.5828,-0.723,-2.1818,-0.83264,-4.1171,0.13428,0.832,
-7.2313,-1.9251,2.0956,3.4651,-9.5077,-5.9194,-1.7181,0.054322,-0.67962,3.7332,-0.30121,1.4321,-0.35617,0.78162,
-8.2432,-6.6299,9.6831,2.2938,-14.2394,-11.3484,-2.5788,-0.91235,-3.5309,1.0991,-3.1747,2.3105,-2.263,-0.71108,
-7.0259,-3.0993,12.7173,2.8788,-21.339,-13.8012,-3.6296,-2.5451,0.29615,-0.65434,0.63048,-1.9257,1.9699,1.0186,
-7.8092,-3.1538,-0.33783,-3.8014,-8.2481,-13.2141,-0.7603,-4.0796,2.9295,3.4827,3.2442,-5.9075,1.6112,0.7165,
-6.1354,-5.1337,-4.4149,-10.0812,6.3468,-9.2878,-0.95565,-7.4502,2.0308,3.9967,1.8447,-0.97332,0.30924,1.3969,
-4.8034,-7.2363,1.6346,-7.5482,11.8708,-12.105,-3.3084,-6.0389,2.3909,0.86481,-0.19416,3.9053,3.6651,4.2051,
-5.2381,-6.5612,0.33119,0.37652,-1.1335,-17.4042,-2.387,2.7591,2.9708,1.5358,1.0223,1.0199,3.6862,2.2656,
-6.1291,-1.5877,-1.3759,5.8975,5.442,-10.8163,-3.4491,3.7989,0.62293,0.72077,0.72002,-4.103,-1.1147,-1.4858,
-7.4483,-0.76935,5.6963,5.7849,6.8025,-7.9984,-6.8573,-2.4548,0.34481,0.43633,-1.9745,-6.5081,-2.2529,-2.6017,
-6.0376,-0.72365,5.8364,5.4378,0.12782,-9.4467,-5.482,-1.8256,-2.0865,1.374,-3.7842,-2.2612,-1.1534,-0.035457,
-1.3368,2.6944,-1.262,7.5219,1.0842,-5.5052,-0.33217,0.69427,-1.4791,0.80987,-2.5931,0.76673,-0.1201,2.377,
-0.051496,3.2559,2.429,7.7932,6.563,-1.5597,-1.5173,0.41142,-0.1853,-1.4081,-3.1606,0.47953,-1.318,1.0293,
-0.77131,3.3015,8.3088,4.1926,11.2305,1.1849,-3.1135,2.074,-0.89708,0.3636,-1.2838,-0.27214,-2.4442,-1.6835,
-4.5812,-1.717,-0.86663,-1.8433,4.7723,-2.2599,0.44754,-1.4247,0.12084,3.2341,2.1679,-2.6657,-1.3334,-4.4748,
-4.7887,-1.1321,-7.0811,-2.2151,5.4498,-3.0891,0.42069,0.10704,1.5598,1.5938,0.59115,2.3145,-2.6997,-3.2424,
1.0422,3.5156,-4.9691,0.086981,6.3281,-3.6267,-1.2918,5.6442,1.7072,1.7391,6.0998,3.8628,-2.7787,1.0495,
-2.1538,1.135,-5.8762,-1.6055,-2.0058,-7.0245,4.8113,1.6902,4.2559,5.2502,12.2413,-0.94867,-1.4067,4.12,
-3.2294,-3.9943,-7.2109,-7.0527,-3.0902,-4.9158,6.6918,-0.098476,8.5803,8.0687,9.3376,0.79547,-3.0095,7.9701,
3.9542,-2.5493,-6.5372,-10.245,3.1207,-2.4512,5.0854,4.9691,13.6091,10.2361,11.4285,3.8812,0.78651,11.1073,
3.2346,2.9058,-6.6269,-7.2197,-2.3692,-8.5711,3.334,6.5987,13.7564,12.9959,14.5991,2.684,0.25738,11.4052,
3.2815,3.9365,4.1348,6.9516,-5.8422,-8.78,7.2316,6.444,17.0286,18.2419,11.0719,9.5131,-3.8556,14.3361,
0.91543,-5.6994,7.0199,4.3651,-3.8047,-8.9763,4.6283,-2.8605,9.4992,3.4089,-3.6925,5.3267,-13.9884,4.0757,
4.9581,4.0423,0.57297,-1.9221,3.8956,-2.8939,4.5918,0.92632,3.3854,-1.3752,-1.9039,-0.054392,-11.4621,0.21598,
1.2862,6.2099,-5.7279,-8.0733,-2.1227,-4.1665,3.352,6.6553,2.2184,3.0457,10.2614,-5.8357,-8.8462,2.1312,
2.1731,1.0168,2.3288,-1.8046,-1.5136,-4.8806,2.6687,8.6664,2.5674,-1.4752,9.1636,-5.9677,-8.3152,4.4137,
4.9348,2.4021,7.4912,4.5702,8.7006,-4.5878,2.9905,6.2182,-2.4073,-8.1356,-4.8836,1.6212,-11.1907,1.7383,
5.1208,4.1864,0.29307,0.43984,13.4809,-1.4202,6.6677,3.4347,-0.33491,-3.3089,-3.6265,8.2726,-9.5552,1.1523,
3.1264,-0.64457,-6.7144,-0.79185,3.754,-3.0222,6.0266,4.4339,3.7825,1.9509,4.5448,9.9454,-4.8845,5.1805,
0.046715,-6.8724,-7.7573,-2.1901,-3.7016,-11.518,6.147,5.6142,5.4842,2.7981,1.3801,11.2769,-3.1452,6.7979,
-0.43802,-3.0856,-3.9174,-4.4693,2.3051,-7.9344,7.7064,3.3491,9.9754,4.5584,1.7792,12.0465,-1.5102,7.8363,
-0.41197,2.4019,0.17377,-2.7551,-4.1002,-5.048,6.2799,3.1479,12.7516,7.6592,12.2775,9.3953,3.4009,11.7046,
1.3,-2.8034,-3.4516,-2.8303,-14.2181,-11.2526,3.7339,6.0926,8.853,5.9948,12.2642,6.1805,1.5096,9.3151,
7.4887,1.221,0.61164,-0.73254,0.73502,-9.6138,1.5815,7.173,4.9476,4.1886,2.3691,4.3636,-4.3658,5.3815,
7.7625,1.8708,4.6725,-7.1963,14.7909,-14.5803,-4.5387,-5.5496,-2.3389,-5.4625,-9.5829,-8.1905,-11.0935,-2.4129,
14.7684,4.8918,9.4536,-3.1489,21.8572,-18.767,-1.1332,-7.3856,-0.51156,-6.3398,-7.321,-10.8323,-6.8122,-1.545,
13.1591,1.4651,5.7527,2.5834,22.2328,-25.5952,-2.7526,-11.04,-2.1683,-5.2363,-7.6048,-17.6544,-11.4654,-3.1398,
11.1645,-1.2742,3.2386,1.7053,25.4783,-32.4954,-2.8282,-14.4752,-2.7614,-3.2351,-5.4615,-25.0311,-11.0187,-3.6745,
13.146,2.4175,2.8031,-2.0127,25.6371,-36.5712,0.47475,-10.9554,-3.8007,-4.728,-3.9288,-18.9497,-6.26,-4.1772,
12.5984,3.9599,2.3942,-2.6146,25.7859,-30.2793,4.5438,-7.1648,-1.8852,-4.2036,-3.9338,-6.4843,-4.1969,-3.6854,
4.3707,-0.85744,-1.3649,-4.1449,21.1057,-26.2934,4.0302,-5.5296,0.39704,-2.2641,-4.4207,-2.4798,-5.6323,-2.2589,
1.4571,1.8453,-7.3088,-4.1374,18.6338,-24.4746,3.0653,-4.4747,1.0963,1.0054,-1.5041,-0.16207,-5.5356,1.0099,
0.88731,4.1447,-10.7266,-3.8892,16.5519,-24.4524,2.8814,-6.1344,1.5125,1.909,1.9601,-1.5986,-2.7933,1.4312,
1.7984,1.004,-2.8527,0.68249,14.1125,-23.9496,3.1904,-1.9104,3.3499,0.34817,1.8425,-2.4666,0.74873,1.8273,
4.1006,-0.020578,4.0674,2.0878,13.2658,-21.0663,2.0351,0.13285,-0.22551,-3.0472,-1.1601,-4.7287,-2.6706,-0.21057,
7.9522,3.1139,4.0645,3.6495,11.7467,-21.4896,-0.73875,-4.937,-3.3452,-2.6231,-2.7779,-7.0968,-8.5362,-4.7775,
9.4035,5.8198,2.3746,7.7696,10.5597,-21.6462,-3.5863,-3.6763,-2.6624,-2.9479,-5.5036,-5.7064,-10.9158,-4.9725,
8.1159,9.568,4.8833,9.4726,9.6852,-20.5884,-0.71999,0.15928,1.1128,-4.9402,-7.3425,-4.6411,-10.0199,-2.0231,
6.4239,10.199,4.3491,4.8066,9.3453,-22.0047,-1.3999,-5.8761,-3.0515,-1.9925,-13.8916,-4.6038,-14.9626,-4.553,
8.9307,6.6947,0.23197,1.6259,14.087,-14.8996,0.6125,-2.1488,-2.3863,5.8396,-9.6839,3.8673,-10.2082,-3.7977,
3.3334,-1.179,-10.6284,-1.1229,8.6622,-10.8724,0.81649,2.0777,-2.9662,3.8022,-2.1132,4.8404,-10.3188,-4.7749,
3.1334,4.1944,-12.4009,-1.538,5.7324,-11.1841,1.2494,4.3632,-2.7883,1.164,-0.058212,0.21161,-9.6997,-3.5245,
6.5606,2.7377,-9.4874,-6.5071,7.0754,-17.0208,4.3082,0.96812,1.9585,0.85295,0.18648,-3.8987,-3.5743,-1.6256,
6.1672,-3.2114,-9.8823,-7.5627,8.0969,-18.4097,3.5675,-0.054063,1.3589,-0.64426,-0.30688,-0.29007,-5.7698,-1.5283,
4.5921,-2.2956,-9.0481,-5.9039,6.4061,-14.6538,-0.26171,4.0468,-1.8559,-0.3644,-0.5292,5.2707,-7.111,0.25088,
6.4857,-3.8446,-6.3361,-8.6827,1.9243,-13.5336,2.887,3.0806,2.8352,-0.10157,1.1898,3.7496,-1.6227,3.8512,
5.3732,-3.3734,-10.0537,-10.3314,1.086,-14.8909,3.9191,-0.71966,0.013517,-3.229,-0.086901,-2.0194,-3.6945,1.9325,
4.3279,-1.0014,-5.3527,-4.6498,3.6719,-17.1307,0.55046,1.4927,-5.049,-2.7943,1.1231,-3.1031,-7.5702,-0.35263,
7.4423,-0.94177,1.7169,-2.4426,4.4155,-15.621,-3.8214,5.2595,-5.228,-3.1085,2.984,-2.9169,-6.1521,-1.2953,
7.2372,-2.0901,-1.5191,-2.0546,0.53558,-11.0681,-2.3863,4.221,-2.2627,-4.6093,0.15382,-1.0547,-0.23937,-1.4586,
2.2234,-0.75963,-1.6692,6.5041,-6.0043,-14.5016,5.2284,1.3165,2.4521,0.72875,-2.0248,5.0339,4.3545,2.2441,
4.7413,3.8659,3.4929,11.6577,-2.9927,-13.8722,2.2634,-1.8958,-4.2023,-2.4482,-6.0004,3.0449,-4.8246,-0.059454,
18.5568,11.5872,9.3084,9.7529,11.2869,1.0601,2.3686,3.2796,-6.1198,-5.9168,-5.8814,-2.6814,-8.6325,-1.7431,
22.3842,10.8922,6.34,0.49089,24.2275,10.2758,-0.66583,8.3853,-5.2704,-4.1157,-6.975,-5.8947,-4.2584,-2.1207,
7.0621,3.0081,-0.78908,-0.9846,8.6738,0.018299,-5.4459,5.4723,-4.472,0.47023,-3.6637,-2.6488,-3.5207,-0.065026,
2.7817,-0.065137,-6.0446,0.52051,-5.9466,-3.8394,0.6652,3.2155,3.0269,3.8158,2.3404,-2.972,-0.89911,5.2413,
2.3736,0.17997,-3.5125,-3.1259,-3.6614,-5.7782,1.8303,2.7814,2.1222,-0.028355,-1.8976,-9.3014,-1.5683,3.2394,
1.5083,-1.0361,5.6163,-2.2155,-6.0932,-9.0469,1.9615,3.3374,0.3076,-0.26762,-1.0604,-5.6098,-2.6795,-0.08803,
5.0332,1.1952,5.5203,-1.8416,-11.2713,-8.2632,4.013,2.4142,2.4583,0.47134,4.5464,-5.9966,3.0249,1.1221,
4.9722,2.3288,3.9838,-1.0077,-4.087,-2.7057,-0.32517,1.0641,1.5879,0.20209,2.1049,-9.7341,6.9408,3.2244,
0.81725,-3.5953,4.7088,0.01639,3.8707,-1.0973,-3.6803,-0.44578,-4.2917,-1.738,-2.8423,-12.0424,-1.1882,-0.8257,
10.6506,-1.2104,6.1135,3.1489,7.7363,-1.7544,4.0127,-0.17806,-4.7576,-4.7672,-3.8766,-12.5247,-8.1068,-3.4273,
18.6884,2.7184,6.7108,-0.89666,8.2358,-1.6493,7.6281,-0.16715,0.83029,-4.4814,-6.5363,-7.4351,-2.7999,-0.32933,
8.4081,4.002,4.38,-5.6631,1.9575,2.3062,2.3502,4.6636,3.673,3.0188,-5.6622,1.2062,3.635,4.5111,
1.6371,3.2795,-2.1493,-2.9132,-6.8371,2.6498,0.28099,5.8296,2.4887,5.2478,-1.948,0.16947,-0.92183,3.2762,
8.5283,1.8774,-2.2614,-2.497,-6.1859,1.7679,2.9152,4.275,6.4368,3.2457,3.2306,-2.4918,-0.62556,0.42803,
8.74,1.5238,-4.7772,-5.4806,-1.2354,4.3129,-4.7315,3.2951,1.4708,0.88133,0.38517,1.7551,0.61727,-1.7668,
5.0818,1.6736,-8.1062,-5.8749,-4.2946,6.2233,-6.617,1.8923,-0.78681,2.5159,3.0134,2.3729,-0.1429,0.99052,
7.9106,2.2963,-9.3064,-7.2094,-11.9904,4.6451,5.5904,6.8403,10.1069,8.3907,12.2328,-0.90274,6.3734,6.9569,
14.6666,5.0508,-8.7482,-10.6335,-6.4505,1.4741,4.2909,8.3583,9.5007,6.4413,4.7502,-1.8127,9.8476,5.5754,
21.9816,10.5321,0.93545,-7.1032,5.9874,4.2777,-1.2695,3.5182,-0.2286,-3.1045,-4.6941,-4.5967,5.4001,0.41989,
28.6166,16.4079,8.3514,-0.16929,5.8694,9.0825,1.9404,2.1021,-5.7583,-8.944,-5.1356,-11.3105,-0.94966,-1.2923,
40.9996,20.9673,4.717,3.4565,12.0249,12.6351,5.9216,3.6629,-6.1359,-5.7556,-6.0325,-8.4625,0.79478,-0.49163,
46.1317,16.0936,6.121,4.4537,25.4034,10.19,5.3251,2.2381,-10.8292,-6.6158,-11.6963,-5.3034,0.023963,-3.1135,
37.8204,16.3335,16.1178,10.2127,30.5074,12.7119,3.8005,1.3807,-13.7951,-9.834,-13.1635,-7.6365,-4.0751,-3.6493,
32.177,20.174,12.7404,10.5636,27.7129,14.3595,2.6084,2.2619,-9.5927,-8.2799,-9.4814,-9.1063,-3.8303,-3.4306,
28.5591,14.8662,3.5403,1.4941,25.8091,6.0261,2.2109,2.3672,-6.848,-5.132,-7.2253,-8.319,-1.9133,-2.9838,
14.3119,4.333,0.91753,-5.8266,15.1018,-5.4227,4.4886,4.6355,-3.5448,-0.0035793,-4.3819,-6.8557,4.4678,1.5338,
-0.64684,-0.98866,-5.1631,-9.5743,1.9031,-10.6411,2.5321,2.1882,3.1754,3.1301,-3.3956,-4.7572,7.3332,2.1647,
-8.4411,0.51692,-9.1916,-7.0712,-2.5494,-3.2535,-2.4406,5.9133,4.9135,2.4604,-2.7099,-1.0973,5.4474,2.9991,
-12.2729,-2.8886,-7.6762,-8.5752,-10.1092,-1.1301,-2.7761,7.9691,2.2081,0.8665,0.82712,-5.3698,3.6743,2.8192,
-8.6445,0.17728,-1.913,-7.5787,-13.8414,-0.58039,1.2469,1.7059,4.9681,4.189,1.2594,-5.048,7.3102,1.6857,
-9.813,5.7103,-0.11101,-0.61651,-17.5902,-0.78653,1.413,1.3626,5.8749,4.1786,-1.4672,-4.5037,8.5589,3.7542,
-18.6243,3.6804,1.1005,-0.33855,-21.5965,-4.8372,-0.8409,5.8601,1.907,0.31245,-1.1382,-12.1877,6.3576,2.3236,
-17.5068,2.0133,5.3728,1.61,-11.1417,-2.6187,-2.7191,4.5446,-3.5101,-1.6345,-4.4444,-12.9027,2.6017,-4.0828,
-11.1537,2.3745,6.4967,5.3697,-6.6168,2.3591,-1.5916,0.89752,-4.2634,-1.5364,-9.9623,-5.8616,0.0355,-3.8378,
-10.4847,5.1243,7.5529,6.4936,-12.0046,5.5918,-0.050098,4.2179,-3.0435,-1.9264,-8.8829,0.27448,-0.44879,3.1411,
-12.5068,6.0221,8.305,5.3811,-6.7046,4.5331,0.67627,8.0622,-5.5124,-2.5337,-3.7701,1.9452,-2.591,0.78351,
-12.7202,-1.57,3.9508,-0.24398,-3.4098,6.1898,0.63569,3.2406,-7.1094,-5.7561,-3.0615,-2.5098,-4.3633,-7.4582,
-10.2702,1.6576,1.0622,0.011169,-2.4823,14.736,1.8028,3.2867,-4.0317,-2.2773,0.73711,-5.0108,0.95972,-2.431,
-11.5822,4.4502,-0.4478,1.9387,-0.88708,11.4417,-0.23352,0.19739,-6.2,-1.1768,3.1035,-8.5665,0.4202,-2.7675,
-4.8617,2.0141,5.6046,5.9197,-1.5572,8.1037,-0.94287,-3.4299,-12.3359,-3.7573,3.1582,-9.2573,-1.2922,-5.7349,
0.97358,0.68793,12.2582,5.3236,-6.0431,10.7509,-1.1273,0.87327,-10.3909,-4.2552,-0.16475,-5.0869,-0.97373,-4.1855,
-5.8331,0.16495,12.4868,2.1123,-6.6446,8.1779,1.8327,3.2312,-4.9465,-1.5895,-2.0828,1.4855,2.4594,-3.9342,
-11.2681,0.1546,9.8094,4.8776,-5.764,2.3846,1.2408,1.5911,-7.5423,-0.047894,-1.4759,5.2523,2.3114,-4.6625,
-4.0841,0.86868,10.4261,5.7903,-3.7309,6.3389,-1.0028,2.219,-8.2946,-1.7322,-3.0746,3.7323,-2.8886,-4.1417,
-1.9108,0.81656,9.3182,4.4785,2.2775,13.1894,-2.3889,4.014,-11.1713,-5.9666,-6.7465,0.61585,-6.5716,-7.2672,
-5.1704,0.2854,6.3492,3.2457,5.0332,15.7722,-0.79956,5.2192,-15.3215,-6.5727,-4.8957,2.0254,-5.6956,-9.2416,
-3.173,-4.311,6.2092,-0.082041,2.0801,11.6929,2.8638,1.2907,-12.2331,-6.4193,-0.50414,2.1448,-2.7023,-6.0355,
-0.090527,-0.67789,5.8367,-2.4877,0.027085,5.6887,1.7281,-1.6793,-10.0528,-6.9985,0.48998,2.0161,-2.0583,-3.2637,
1.6024,2.496,0.425,-8.8457,-3.1078,4.1423,1.3833,3.4834,-10.1728,-2.481,1.6656,4.0646,-1.2116,-0.8985,
2.2289,0.17688,-3.6981,-10.4848,-4.6088,7.5089,7.326,9.2997,-5.9472,3.2112,0.36064,5.9896,3.4406,3.7349,
-2.0022,-0.55663,-3.2352,-1.4196,-4.5732,5.8536,5.6812,6.0906,-5.8314,-0.5964,-2.794,5.8717,2.5112,2.7879,
-3.5693,0.6816,-1.3539,2.281,-7.9143,5.2609,4.6174,2.5917,-5.7225,0.16229,0.024712,7.2061,4.5297,1.4154,
-7.6932,0.159,-4.6469,0.21619,-16.5982,8.32,3.8582,5.8109,-5.8613,3.5268,0.023,4.8458,2.8119,0.36634,
-7.714,2.0777,-3.4042,6.9517,-17.5305,7.3384,0.73419,7.39,-4.5453,1.387,1.9498,2.6269,-1.2136,-1.1019,
-3.3946,0.9889,-0.78959,6.5348,-14.0688,-1.2969,-0.75589,2.6085,-3.3085,-3.0348,3.2789,2.469,-0.17673,-2.9637,
-4.6372,1.4115,1.186,3.2502,-15.6348,-4.1111,1.2177,3.4158,-4.0743,-0.44258,0.19006,2.3209,3.2083,0.10614,
-10.8666,-0.84258,1.838,2.332,-19.2762,-3.6235,4.7602,3.4521,-1.1785,3.6816,-0.54447,-4.3261,4.2209,1.7872,
-9.7325,-1.2737,0.76358,-2.6284,-12.8168,-0.99549,2.5462,1.7989,1.3026,2.4966,0.45229,-5.9945,3.004,-1.2123,
-5.7745,2.6586,-0.24656,-7.2914,-8.1918,4.3664,0.94717,4.1011,-0.22184,0.90051,1.8714,1.1136,2.8233,1.2706,
-7.356,-0.39273,-2.1597,-4.4431,-11.0741,2.6584,4.747,6.2654,-2.1365,1.3286,1.7594,4.4215,3.6185,4.569,
-6.4327,-1.8154,-2.5121,2.572,-2.6969,7.3192,5.426,5.4071,-4.9008,0.76699,-2.203,8.0126,2.437,0.91996,
-7.0109,0.7034,-2.3616,2.8993,2.7674,16.0393,3.1725,2.1904,-3.6427,-0.24312,-2.553,10.9061,2.7725,-2.5095,
-7.0721,0.17926,-2.7018,3.6897,-2.2194,11.2205,3.4641,4.4691,-1.014,0.2534,2.4209,9.2874,2.1242,1.0156,
-6.1657,-2.7238,-3.5038,2.9862,-2.086,4.2806,2.7741,7.0937,-1.4349,-1.2078,2.7578,7.2841,-0.41313,1.4368,
-7.4832,-3.7654,-2.0885,-0.32626,-3.1664,6.1927,1.4026,3.0524,3.2303,5.3719,1.8692,8.0521,0.81626,0.14506,
-9.4445,-4.5036,-0.51718,-0.30692,-11.1713,1.9649,-1.5739,-3.3975,2.0724,9.3881,0.79293,5.6406,2.2138,1.1005,
-5.2622,-2.064,2.1652,4.7734,-6.8854,-2.7325,4.0639,2.3502,0.26104,4.2453,0.50416,-2.1694,5.6961,2.7219,
-2.2952,4.0852,2.7584,4.2458,1.4817,0.56473,4.5432,8.2345,0.96851,-1.5528,-2.6593,-8.0651,4.1493,0.38918,
-3.1215,5.2861,4.0389,2.0626,0.91064,7.7615,-0.54985,2.92,0.91017,-0.49552,-1.5357,-3.7245,0.52613,-0.59827,
-5.8263,-1.7795,-0.059802,-1.4351,-3.9642,4.8856,-0.9988,0.81703,1.8199,1.9448,0.0027137,-0.60854,-1.4336,-2.0082,
-2.5847,2.1836,-2.9487,2.5074,3.0221,7.0026,1.9532,8.4803,3.1569,3.2739,-1.4437,0.87377,2.0264,0.040054,
-2.4298,1.5705,-4.2178,-0.53536,3.8048,8.029,-0.091964,2.6691,0.55718,-0.29675,-3.2851,-1.5886,3.3513,-0.92599,
-2.766,0.030427,-0.59032,-1.9495,-5.1006,1.7626,2.8061,-0.38312,1.97,-2.2071,1.2504,1.3988,3.6321,-0.38849,
-3.3231,1.2337,-0.3137,-0.14507,-7.4454,-2.9226,0.95025,1.8088,1.1287,-3.2798,-1.476,6.3763,0.76289,-1.5702,
-3.8469,5.2568,-1.9823,0.58631,-0.49096,10.0269,0.6525,5.7979,2.266,1.0141,0.78198,10.0913,7.7072,3.1035,
-11.3288,1.085,-12.4687,-5.7154,-9.621,13.7637,-2.7611,2.0755,-0.76246,1.4352,3.6271,4.6652,7.7267,4.845,
-9.926,2.7073,-10.0331,-3.2031,-16.9975,7.8764,-0.90844,3.1561,1.4527,3.5185,3.1683,2.2163,4.1294,4.7955,
-4.9921,6.4013,1.6561,1.3274,-12.6029,9.8139,5.4126,8.2693,0.88358,2.3435,0.086136,2.5653,5.3279,2.5796,
-11.441,1.1965,3.003,-0.68041,-14.7393,11.6357,1.7138,6.8093,-4.4721,0.27472,0.5629,1.447,5.4906,0.014679,
-14.8519,-3.9365,0.17126,2.4939,-19.3985,3.9477,-1.0406,4.7135,1.8218,2.4274,4.1445,1.6016,3.9559,1.2186,
-10.1046,0.15583,0.64315,1.8621,-15.3421,4.193,-0.97789,5.8767,3.6409,1.7996,-0.44222,2.9516,4.6826,2.1101,
-7.5704,1.5925,1.0867,-9.3371,-13.9399,11.172,1.4907,6.4882,-0.43416,1.6914,-2.3441,1.8104,10.6684,2.9471,
-7.5981,-1.3951,-0.42474,-8.7769,-15.0315,10.0197,2.3656,5.617,0.55621,2.5542,1.6529,-1.6727,10.5102,2.2883,
-3.7678,-0.34753,-1.8455,0.42686,-12.2016,3.6335,-1.6328,6.2439,1.0048,0.47278,3.9639,-1.0904,5.5413,2.151,
-6.193,-6.8344,-7.7601,-6.1065,-16.5307,-5.0199,-2.7399,0.80778,6.9703,2.1319,10.2338,3.0726,8.824,2.2632,
-13.0521,-12.6906,-14.0432,-16.3451,-22.7697,-7.1291,-3.5396,-5.9894,9.9263,3.9319,12.0301,3.8523,9.7411,0.68136,
-11.5458,-3.4937,-8.6215,-5.0003,-12.9676,1.7346,-1.1578,0.39577,4.7512,1.5266,7.2107,2.4161,8.4335,2.8094,
-7.2379,3.2236,-2.0785,5.6638,1.9104,10.0664,1.0806,4.9515,-1.5597,-0.25198,1.7166,1.0661,3.8299,1.4358,
-7.7677,1.5842,-0.50772,3.3955,11.0753,15.2468,-2.3585,0.3159,-1.4659,0.72724,-1.2787,0.51998,1.6717,-2.9889,
-11.8809,-5.5008,-6.0209,-3.3157,2.4566,11.6809,-2.4579,-1.3903,3.2014,-1.0036,0.48527,-1.1985,5.1868,-2.0862,
-8.9989,-3.483,-12.649,-4.3216,-2.752,8.3289,0.82305,5.2011,4.6965,-0.22005,5.0354,0.078749,7.0452,1.6544,
-3.3975,-1.1051,-11.167,-7.6779,1.0283,10.4805,-0.91379,2.2377,0.31761,-0.92997,1.6001,-3.5416,3.4888,-3.9887,
3.0733,0.88938,1.0722,-1.4327,7.7155,13.2257,-0.85897,-4.1635,-1.1477,-5.213,-0.90608,-2.3648,2.7975,-6.1595,
5.54,5.4158,6.5515,10.4639,10.868,12.6735,-3.4585,1.1479,-6.6225,-10.4433,-0.61074,1.8744,0.4605,-6.0309,
7.1358,6.0551,2.784,9.3541,9.734,14.3233,-3.251,6.8636,-5.7427,-6.4423,2.8004,-1.1301,-0.531,-4.7048,
6.4667,3.0403,-1.9624,1.3206,6.9808,14.6687,-2.333,0.42628,-3.7114,-3.887,-0.98309,-8.0522,-2.6688,-2.2538,
6.5608,5.2678,3.4578,2.6874,10.4181,12.8245,-1.229,3.293,-2.0427,-3.1717,-3.8164,1.1078,-0.58021,1.7381,
1.5874,-1.0738,7.8296,2.2852,4.7313,8.922,-3.3244,4.3003,-5.0536,-8.043,-6.239,5.1387,-5.1251,-5.3561,
3.9023,-1.4914,7.3598,9.8608,3.0016,14.1712,-1.6787,3.0784,-2.8217,-7.0781,-0.56198,-0.95418,-4.8176,-5.0347,
5.3554,-1.1609,-1.5174,8.5463,5.4726,15.4901,-1.8189,2.6527,0.96299,-2.0741,3.0872,-4.5123,0.051172,-0.63482,
3.5881,1.801,-2.3905,0.32051,3.6982,15.0429,-5.0845,5.3858,2.3512,2.3889,1.4559,2.5071,1.9761,1.8132,
3.3728,4.5855,0.16308,-0.18065,0.1019,15.1042,-3.8151,2.6526,0.76391,1.2812,-1.0416,3.8029,-3.9271,-0.22382,
5.5808,-0.51012,-3.2209,-1.6158,0.57795,7.4493,-0.21194,-1.8452,-2.6561,-1.2055,-1.4612,-6.0665,-6.5837,-5.0309,
10.0662,0.0024252,-4.4739,-5.3753,7.2917,2.664,-1.1631,-0.28818,-4.425,1.7589,-0.89164,-7.1483,-4.7425,-3.7647,
12.3545,1.9302,-2.2775,-1.6785,10.7108,6.3603,-3.5037,-2.6812,-3.1954,0.2073,-1.8022,-1.8994,-3.9758,-1.1289,
11.1315,-1.0779,-1.1763,1.3145,7.1759,5.0146,-2.8113,-4.4488,-4.4497,-4.6256,1.1982,-2.749,-2.2912,-2.5072,
9.0174,-1.4951,2.2682,-4.0671,1.9246,-2.0347,-0.23248,0.15645,-2.7369,-0.0097619,6.9109,4.1644,1.2207,0.05335,
3.4149,-1.6462,1.8914,-12.7409,-2.288,-5.5278,-1.4236,0.87065,5.3813,2.6421,4.3273,13.3147,3.3169,1.7376,
2.4869,-3.2348,1.0548,-8.8427,0.018235,0.34721,-3.5076,0.095284,5.7815,-0.64964,0.9344,8.4183,4.8049,1.8745,
0.65042,-5.6918,1.7144,-4.6972,-2.152,-0.39698,2.7284,1.7763,4.7113,1.5585,4.4933,-1.9688,6.2038,3.4488,
-5.1734,-4.3862,4.0219,-9.7178,-5.8795,-8.5681,5.939,4.0801,7.3209,7.2493,7.116,1.5236,3.4212,4.6879,
-6.309,-1.2308,3.2984,-10.0988,-2.6345,-4.1974,-0.68367,0.46108,-0.34897,1.9939,2.8329,4.3245,-4.0151,0.068573,
-4.2433,1.0122,2.3776,-5.8774,2.5853,7.3826,2.9728,0.67438,-2.0153,1.1514,3.8677,0.9315,-3.0509,0.78736,
-13.3889,-0.25356,2.9581,-3.8378,1.707,1.8782,4.4814,-0.57114,1.2389,0.35915,0.98435,-1.2933,-3.5909,-0.94688,
-13.0673,0.24381,11.4575,2.1773,3.533,-4.9831,-0.60796,-1.9829,5.0212,-1.1084,1.8898,-0.73356,-0.48272,-3.3004,
-7.463,-0.73514,8.8418,2.5286,1.8748,-1.3097,-1.0534,0.064263,5.2019,-1.5239,5.6324,-2.6182,4.3665,-2.1385,
-9.6663,0.99619,0.83952,-1.2386,1.5213,2.8662,3.5891,1.2652,1.7563,-1.6739,1.1971,-0.29194,2.8992,0.15894,
-13.4251,-2.438,1.2711,-1.6462,1.4301,0.76607,2.8918,-2.6671,0.68702,-4.4655,-0.80294,-0.27443,-2.0955,-4.1889,
-8.522,-2.0506,4.3281,4.4779,2.0674,1.4432,-1.3793,-1.302,3.2971,-2.0282,3.8248,-0.016766,-0.76421,-3.2145,
-13.7953,-2.8918,-0.75187,2.281,2.9072,-0.57155,0.63165,1.6687,5.0275,-0.46067,1.1851,0.94857,1.2098,2.2811,
-18.0292,-3.9236,1.9443,0.45695,2.9738,-2.2245,6.6193,3.2558,4.9668,-0.674,-0.57319,-0.31364,1.3782,2.8671,
-14.0552,-0.31353,5.2019,0.9117,-3.9534,-2.5732,0.43779,1.6139,0.33024,-2.0796,-0.53903,-4.6334,-1.5968,-2.1254,
-9.1143,1.3923,4.6491,0.61626,-4.4393,-2.66,-0.79354,-2.0981,2.9618,0.69651,2.627,-3.1503,2.5962,1.1354,
-13.6287,-2.7886,1.2366,-2.0723,-2.0033,-6.1153,-0.023025,-6.0696,3.5074,2.3419,-2.1103,-2.7199,1.7175,2.7549,
-14.7391,-2.1394,0.68049,1.4265,-3.3294,-0.92817,-0.98551,-1.849,4.7428,5.5759,-6.322,-0.62848,-1.76,-0.30288,
-15.0601,-1.2876,-0.56563,3.992,-9.6375,4.6711,-1.6497,-4.8715,6.1454,1.6259,-4.7374,-0.3498,-0.93105,-2.9363,
-13.6743,0.23565,-0.53146,4.7171,-9.541,0.052313,-2.0325,-10.3636,4.8126,-0.882,-1.5609,-0.32904,-1.3573,-0.83166,
-7.3102,-0.98332,0.22332,1.3005,-7.7632,-6.4583,-1.1876,-11.429,5.7291,3.2683,-0.74433,-0.067874,-2.4812,-1.0227,
-1.087,1.9677,-0.27201,-0.22375,-0.549,-1.7325,-0.63442,-11.7076,5.3854,1.6259,-0.21774,1.8639,-1.8499,-2.4076,
-2.95,4.2598,-3.1477,4.6104,7.1967,0.78205,-1.0783,-6.6664,1.6878,-2.3276,2.6878,1.7526,-0.77507,-2.2632,
-6.3887,1.8348,-3.6825,6.0208,3.6317,-2.8805,0.19147,-1.6873,1.8277,-0.018982,2.2854,2.3701,1.4408,1.0059,
-3.354,0.51967,0.15413,1.08,-1.6482,-0.53876,-1.5075,-6.1656,0.030621,1.1872,-0.50307,4.8792,-0.81502,2.1506,
0.46264,1.6938,3.2779,-3.0822,1.5842,0.69886,2.6803,-9.893,-0.21218,0.87502,1.6963,0.0066944,-0.043217,3.2268,
-1.0111,4.4844,1.1533,-3.3794,2.9357,-3.1992,4.4479,-7.371,0.28271,1.3047,-2.2617,-4.3318,3.3341,4.9617,
1.7008,7.3486,-0.60293,2.3672,2.5183,3.018,-0.39846,-1.8673,-0.93932,1.9495,-5.2592,-1.4206,2.4109,3.4584,
9.5525,6.1848,0.15615,6.8045,9.839,8.3806,-1.0975,-0.068039,-0.16006,-0.81899,0.11756,2.762,-1.3492,-0.36449,
4.882,5.5728,-0.094186,1.8169,8.5258,4.2623,-0.79064,-5.1256,-3.7659,-3.4209,-0.6124,2.3553,-3.9193,-1.0655,
-1.6776,4.2738,1.3575,-4.5588,-4.5195,0.15042,3.113,-8.1923,-1.6115,2.0867,-1.5397,-2.1245,-1.7562,2.3726,
-1.577,-1.2848,1.276,-0.91086,-9.5505,-2.7507,1.9623,-4.8083,-0.068548,1.9615,-3.8575,-11.1561,-1.6508,1.2664,
2.1328,0.47931,1.9226,7.0973,-4.3984,-3.3092,-1.2887,-2.3508,1.6226,-1.2894,-2.421,-9.2817,-2.2749,1.4312,
7.5485,3.1021,1.0844,5.4666,2.3734,-2.8692,1.9221,-8.2353,1.2842,0.9571,0.37583,-0.77057,-2.8613,2.5506,
10.47,4.3622,3.4294,8.995,7.5337,4.5338,0.36054,-6.295,-7.4695,0.89967,-5.4313,1.2039,-6.546,-2.9046,
11.77,7.4745,11.9008,18.0963,7.0817,8.1181,-1.5893,0.83119,-7.5037,-3.9746,-7.516,3.5418,-7.5995,-3.2128,
7.2077,5.58,9.2583,9.7799,0.87195,2.3282,-1.0118,-3.5568,-2.7149,-5.1826,-2.2446,3.329,-6.1795,-1.0916,
-0.93781,0.90664,-2.3842,-3.3406,-5.4471,2.6706,-4.3257,-4.7899,-5.9267,-1.015,-0.18147,5.0577,-5.3265,-0.54437,
-2.3278,-3.0041,-6.5795,-6.0322,-11.3868,3.9567,-5.512,0.80018,-4.1244,1.456,1.2757,11.9851,-2.5968,-0.029311,
3.8376,-1.6188,-3.5338,-0.12691,-7.0884,2.0318,-3.0124,0.029044,-4.1181,-2.7289,0.95795,11.5067,-4.1285,-1.715,
5.5358,0.88866,3.4269,6.1474,3.9424,6.2484,-2.8314,-2.865,-9.1734,-6.9033,-4.8843,4.0676,-9.6651,-6.4326,
6.8904,3.0045,13.1036,5.5376,4.9107,10.4533,-0.97427,-0.041537,-3.5618,0.50033,-5.7961,2.1363,-5.4698,-2.4312,
9.3695,-0.067832,10.3892,-2.9893,4.6165,5.0054,1.0124,-6.788,-0.45558,1.9166,-3.5202,-0.88389,-3.2134,-0.35715,
5.4327,-3.4384,6.8731,-2.3283,4.8212,3.7409,3.8435,-9.7549,-1.8747,-2.055,0.065279,0.61517,-1.5746,-2.2641,
-1.4008,-4.437,2.8458,2.3912,-9.568,3.2755,0.47983,-4.5903,-2.4852,-2.6546,-1.6259,2.2655,-2.6849,-3.3331,
3.0218,-3.689,-3.1098,1.7655,-10.5607,0.66864,-0.51305,-4.3147,1.5201,2.3251,-2.0105,1.6474,-3.006,2.1693,
8.3841,0.14771,-0.75403,1.9006,4.1729,2.7977,3.1331,-5.2611,0.22407,1.9447,-2.6127,-0.62061,-2.1027,-2.5402,
8.122,3.7547,6.7635,2.9918,14.4076,3.8351,0.776,-5.1864,-6.2969,-3.7152,-7.0353,-4.1983,-4.1457,-9.8596,
8.5988,2.5653,9.7319,2.3302,6.7945,2.159,3.6217,-3.9111,-2.0629,-0.59998,-3.7209,-4.4286,0.9235,-2.5193,
7.3598,-0.72229,3.6041,0.98528,5.1813,1.3063,5.0914,-2.9533,1.1941,0.15869,-0.36435,-1.5116,2.0732,1.7294,
4.5078,-1.1611,-1.9145,-2.9304,7.7627,3.1559,1.4117,-3.7402,2.0866,0.1494,-1.3066,2.4353,-0.94352,1.1435,
4.7195,-4.9476,-2.7642,-6.1288,3.4403,1.0381,1.8087,-3.516,2.9255,3.0323,1.1817,-0.12118,1.0411,1.5566,
5.8826,-3.6864,-4.0442,-0.45847,3.2344,2.4225,4.5927,-2.8227,2.75,1.8865,4.0033,-3.006,1.9429,0.017397,
5.5294,1.8372,-3.3193,2.9433,6.8965,4.6871,4.3174,-3.1355,2.5852,0.32724,4.2453,0.066677,2.3085,0.016123,
5.1979,0.76285,-1.1922,-0.12562,7.4468,-0.41462,0.20172,-4.3934,-2.8723,-1.6204,-0.34798,-1.8657,1.2059,0.97971,
6.0911,-2.8981,-0.39756,1.0874,5.7949,-1.1124,1.8771,-2.4428,-3.9055,0.16386,-2.496,-3.4408,2.3391,1.1617,
4.5205,-4.8936,-1.5788,-0.18333,2.3139,4.9797,4.4153,-3.0193,0.4264,1.841,0.78652,1.3452,2.9214,0.85077,
3.2852,-2.672,-4.8583,-4.5109,1.6929,6.1269,0.29424,-4.7661,-1.0452,-0.67979,3.1497,4.6387,-1.1105,1.2819,
5.9804,0.38058,-5.5309,-4.24,4.0017,3.8313,0.75875,-2.5522,0.46353,-2.085,2.4785,0.021809,1.3665,-2.1692,
3.4522,1.5628,-1.5838,-0.85234,1.5922,3.3602,0.95396,-3.1222,4.0509,0.69139,0.1609,0.2617,4.4182,-0.3521,
-3.9858,-2.3873,-1.0069,-2.7294,-7.6623,-4.0722,-1.5134,-3.8987,-0.048534,0.64991,-1.7769,4.5843,3.6707,4.9717,
-1.3363,-6.5827,-5.285,-5.4579,-9.613,-6.7202,4.8441,-0.29059,4.7749,2.5389,4.114,1.8989,4.8965,1.7811,
1.6362,-4.7417,-8.8245,-6.0945,-5.662,-0.5326,3.5889,0.69094,6.8987,2.3868,3.385,-2.0717,3.1567,-5.0745,
2.2611,1.0867,-5.6433,-1.6313,-1.7066,6.9714,-3.1337,1.8545,1.4234,1.5204,-0.91521,2.6326,2.7265,-0.19047,
4.5358,3.9138,-2.4124,7.1435,-1.122,7.5172,-3.4278,0.77918,-3.4825,-0.49875,-3.7526,4.4026,0.1526,1.7494,
6.4328,2.956,1.3478,11.7765,1.1145,3.4507,-2.0168,-0.9548,-3.9965,-3.6023,-3.7684,0.52305,-1.0618,-4.3816,
2.4314,-0.83674,2.4718,2.1514,-3.0498,-3.7462,-1.6549,-4.9949,-1.588,-5.5553,0.55506,-2.1594,3.0992,-3.3958,
2.5268,-1.0277,-0.32788,-3.0391,-5.0362,-4.2441,-1.7968,-4.9364,0.67668,-0.16056,4.1369,0.13907,6.0465,3.3161,
6.4725,-2.1709,-3.9232,1.723,2.7378,3.4824,-3.3762,0.42149,-2.4969,-0.87383,-0.69056,2.3003,2.0688,-1.9445,
6.0842,-1.0768,-2.7239,5.9579,8.3581,9.058,-5.5837,0.3962,-11.5062,-9.9804,-9.3262,0.71607,-3.8404,-8.5768,
5.9601,1.6394,2.9831,3.9132,9.0619,6.8273,-6.454,-1.7967,-12.9854,-8.6587,-10.4539,-3.4243,-5.2967,-4.4467,
8.254,-0.62815,8.8302,-1.3828,8.2772,-0.089808,-4.8615,-1.448,-2.8058,-1.6312,-9.5852,-9.2443,-2.8098,-0.56451,
6.3125,-0.10852,4.9259,-2.7461,7.7806,-0.56681,-5.5337,-1.3611,-2.1555,-4.9078,-10.4564,-9.1716,-3.6051,-1.9764,
1.8362,3.5132,-0.9135,1.0339,5.1444,5.493,-0.14018,-1.0382,-2.7493,-3.4083,-2.8393,-1.6321,-2.6661,-1.1352,
0.76192,-0.55377,-4.2329,0.49013,-1.913,2.753,2.7605,0.4701,0.30791,4.0268,1.6696,-1.052,-0.095762,1.8252,
2.8856,-0.76174,-2.2919,-0.26241,-3.0032,0.41847,-4.3948,1.165,1.9764,4.9903,-4.9383,-0.74772,-0.81315,5.8133,
2.2303,1.2119,0.73786,-0.72883,-5.2334,0.39359,-4.6132,-2.2791,5.2325,3.2448,-6.0885,2.1894,-1.7285,2.0903,
0.16805,-0.78875,-0.2705,-3.5774,-9.258,-1.0761,0.0021096,-1.1783,2.5082,3.5323,-1.8666,-1.7986,-2.5888,-5.7482,
-0.5647,-2.4284,-1.4593,-5.0497,-12.3177,-0.77076,1.207,1.5438,1.1527,2.5972,-1.5134,-7.716,-1.2284,-1.7876,
1.1559,-1.5598,-2.5771,-1.1318,-15.194,0.96271,-2.4808,-0.23609,9.0372,4.1286,-3.1098,-0.74552,1.4964,4.3452,
2.5329,-0.98429,-4.3506,2.3106,-10.426,2.8331,-8.5989,1.7063,4.6386,1.4708,-2.4413,3.1556,-4.378,-1.2182,
6.7192,0.039089,-1.679,4.1001,-0.15947,4.5914,-1.816,8.3523,-2.3886,0.90014,3.9717,-0.40819,-3.6329,-2.1094,
0.2905,-3.0967,-8.0862,-4.0996,-11.4781,-2.1916,1.426,4.2358,-0.55806,1.5695,3.0105,0.82159,-0.76387,1.1506,
-0.20886,-3.3929,-13.3856,-6.7457,-12.2352,-2.542,-1.0697,2.0534,4.7781,3.8854,4.2761,10.4133,-1.2,3.4917,
4.6242,-7.5278,-13.5466,-4.413,2.5989,-3.836,-4.8617,0.4842,-1.7754,-1.6501,1.6092,3.5217,-7.8766,-2.9845,
13.5055,-1.7738,-2.6107,-0.774,16.543,-6.4981,0.2505,-0.027012,-4.5611,-0.58699,-0.8977,-0.063801,-4.5118,-2.3233,
11.7313,-0.22108,0.92044,-4.5839,19.1654,-11.4104,5.0557,-3.8818,-0.913,1.8584,-1.8077,1.8682,1.0616,0.70864,
5.0017,-1.8948,-5.6425,-6.9602,15.3641,-11.9313,6.9218,-0.51562,4.2032,2.9519,0.95208,3.4431,5.577,4.7632,
-0.84206,-7.3247,-7.4731,-9.1937,18.5401,-18.6873,5.3012,0.72061,5.1563,3.4982,1.6179,1.0674,6.4476,1.3444,
-1.2735,-10.2597,0.20566,-11.0527,15.0171,-21.9043,4.5012,-1.2508,5.8108,2.8059,3.449,-1.8887,3.6506,-3.557,
0.2492,-1.9313,-0.77055,-8.9433,18.9368,-8.539,2.7848,1.2344,2.5701,0.70933,3.724,2.081,1.5034,0.99478,
-3.8631,1.8,-7.7142,-5.7551,18.5235,-3.9288,3.3411,0.4374,1.2106,0.4258,4.2239,3.161,3.5824,5.5148,
-4.5956,1.692,-2.4306,1.3386,14.0376,-9.9601,5.5508,-0.55317,1.6199,1.3646,4.4524,-1.367,3.8494,1.8095,
-2.3915,-0.81992,4.4639,2.2224,9.8211,-12.7367,2.3254,-0.037818,-1.3696,0.80055,1.293,-2.731,0.24418,-3.1196,
-3.9355,-3.422,4.9187,-3.4543,4.6523,-10.2855,3.391,0.68758,2.8102,3.8858,2.9024,-0.88017,2.3985,-1.2454,
-9.9661,-2.7346,3.66,-3.7292,3.4091,-7.74,4.6335,-0.7997,4.5695,4.1348,1.7641,-4.2016,3.701,-1.6524,
-15.3936,-3.2938,2.2351,-1.8182,0.55346,-12.8192,5.0789,-0.51076,4.5368,3.6457,3.8275,-4.1905,4.2019,-6.6149,
-16.6394,-2.3731,-1.0323,-1.4679,-0.68481,-12.7731,3.5686,0.72495,2.5771,6.5602,5.7672,3.5326,3.2266,-6.9411,
-13.9538,-0.06108,1.6807,4.6457,6.3457,0.7677,0.70342,-2.452,-1.1929,3.5151,0.35948,3.5616,-0.099992,0.4652,
-11.4291,-1.7449,6.6414,4.6077,13.437,7.7113,2.3482,-5.4382,-0.88016,-0.31102,0.57911,-1.2316,-1.7814,2.1243,
-12.6718,-3.0862,4.7968,-2.8994,12.1486,3.3924,-0.20258,-3.6654,-0.82712,0.18981,4.401,-2.6038,-2.6382,-4.2695,
-14.0804,0.23222,-0.55242,-2.0023,7.3226,1.0195,-1.3955,0.16973,1.8738,0.41961,4.8601,-1.7244,1.1353,-2.8082,
-13.718,2.1465,-5.34,4.3844,2.0625,0.95834,-1.3122,-4.6612,-0.16725,-0.087955,2.6398,-2.1029,0.58477,-0.712,
-6.146,3.464,-1.1627,11.8345,3.385,4.2753,0.21278,-2.9352,-5.4594,-0.56461,0.07128,0.43341,-4.7525,-4.0433,
-1.1977,0.12286,4.4504,10.4013,9.6896,7.634,0.92314,0.37413,-4.8911,-2.7001,-3.0663,3.0587,-8.5649,-7.8983,
-3.777,-0.12548,4.9067,6.1618,9.3492,7.4169,-1.7833,-2.7813,-4.3567,-5.6711,-4.0876,1.6699,-9.2563,-4.2909,
-0.89926,2.5331,1.9608,1.2124,4.6909,8.1772,0.49282,-0.9277,-1.9261,-3.1617,-0.70883,-3.9739,-0.26482,1.5102,
1.5651,-0.029204,-1.5311,-4.6447,3.4449,8.6506,4.8018,4.4308,-1.3284,-2.0079,2.7079,-5.6634,6.0178,-1.4727,
-0.69847,-0.26842,-3.1264,-4.1251,2.9972,7.4082,3.3084,5.3698,-5.346,-4.0571,2.7864,-3.6364,-1.8155,-5.9641,
0.54873,0.95298,-2.216,-3.6366,0.64824,7.2052,3.8328,2.3965,-4.7843,-2.1264,-0.031864,-7.5156,-4.8396,-5.3653,
4.372,1.8594,5.6295,-1.4904,-4.6931,7.2546,3.6031,1.2887,0.80517,-1.5167,-5.3328,-11.8856,-0.21115,-4.5612,
5.3149,1.9893,13.7279,1.7325,-8.5088,6.5783,3.6278,0.48843,3.8904,2.1898,-3.3252,-4.1826,-0.43899,-6.4567,
5.7192,3.075,13.1454,-0.058475,-7.7571,8.353,4.6152,-1.2283,2.4519,2.2996,-0.95673,-1.7622,-1.1358,-5.8281,
3.93,3.3727,10.4283,-1.0191,-5.8457,9.7798,2.4104,1.2557,-1.0695,-2.177,-4.2736,-4.5488,-2.0317,-1.6223,
3.6942,4.6166,11.7312,6.2729,-5.9769,8.2291,3.712,1.1804,1.4048,-1.5644,-3.0528,-2.8296,-0.94596,-0.078655,
5.1598,5.5444,9.3397,10.9578,-6.8235,7.012,0.83772,-0.57767,-3.2592,-5.086,-5.5212,-3.8651,-3.0584,-2.2431,
6.2962,-0.57307,0.58481,6.9261,-4.0042,9.0017,-4.033,-0.060843,-12.2225,-9.6013,-10.4923,-9.418,-8.1773,-4.0369,
9.0519,-2.2255,2.237,7.7158,-0.63048,13.5232,-1.1395,4.0402,-8.3556,-6.8556,-7.2117,-6.2014,-6.4813,-5.9639,
6.8216,3.9336,9.5741,10.3859,-3.2437,11.0246,0.13371,2.1105,-5.6851,-4.7575,-7.02,-4.6245,-6.8158,-7.2933,
3.52,1.2872,7.0717,0.60393,-5.9414,6.507,3.5004,-0.9084,-2.4517,-2.0617,-5.6347,-9.6494,-2.0683,-2.9991,
4.2729,-4.0924,1.8269,-8.5911,-4.6208,9.0089,7.6284,2.5203,4.444,3.3644,2.4164,-6.6601,5.2864,2.0014,
2.3293,-3.1235,3.4045,-9.2809,-5.5489,8.7093,4.0377,2.1286,3.9364,3.8859,2.9943,2.1756,0.87185,4.0504,
0.9847,-1.7313,2.4773,-4.6267,-7.3851,6.0176,2.1082,-0.65067,5.8694,3.4118,-0.31836,6.1425,-2.3135,5.9766,
0.44323,-1.6274,-3.9383,-2.4209,-12.2446,5.1741,1.4993,0.83418,4.5529,2.7247,0.18221,2.8814,1.6812,3.2079,
-1.5116,-1.0478,0.1544,-0.82942,-11.51,7.7562,1.4098,3.6766,1.3877,0.63349,2.5819,1.2627,3.0266,1.0872,
-5.2773,-0.020609,9.7861,3.5587,-2.1423,15.4855,-3.0135,0.56399,-1.5876,0.59502,-3.3576,3.5971,-3.9034,-0.90623,
-2.3095,3.1137,11.3681,10.817,-0.32651,18.6538,-3.5556,-0.19321,0.19439,2.2465,-6.2897,3.1398,-4.8745,-4.9492,
-1.4478,2.2037,7.0708,12.8193,-9.7071,10.5449,-2.6192,3.916,-0.53994,-0.53957,-6.6354,-2.11,-4.3408,-1.519,
-2.3248,5.9279,8.5748,16.8708,-3.3401,13.2867,-1.9801,9.9475,-2.4357,-0.98913,-4.791,-0.05522,-6.0086,6.2849,
-4.3547,5.3315,6.3733,15.1354,1.4398,17.069,-3.0663,5.7355,-0.6026,-2.6168,-3.7804,1.1536,-6.8531,-0.11796,
-3.8522,3.3246,4.7858,8.2015,-8.0464,10.9834,-2.1592,-0.63443,1.121,0.67349,-3.3124,2.2895,-3.3087,0.13031,
-3.3799,0.47378,2.8112,6.0224,-13.1074,8.6369,-4.681,1.0911,-0.6337,2.3201,-3.3549,1.429,-4.3152,4.702,
-3.1776,0.92729,1.1963,8.5532,-7.9827,15.3495,-2.4719,4.8816,2.7788,0.25268,1.1848,1.3432,-4.0568,3.4556,
0.14657,4.0047,1.8479,5.3889,-5.816,16.5977,-1.1188,0.9737,2.3711,-1.4497,0.8727,2.4675,-1.6437,2.0434,
4.9583,1.354,-2.6016,-0.23733,-7.8779,8.8532,-0.087566,-3.4233,3.6748,0.56569,0.82011,0.87339,1.8291,3.8488,
3.6967,-2.5834,-7.2659,-2.633,-9.8151,0.60946,0.39985,-2.7357,4.4185,2.4597,3.6637,3.7133,0.27333,4.1,
-0.86369,-1.4643,-5.384,-1.029,-9.2264,2.0189,-1.5526,-4.5,-2.1134,0.8661,0.55108,5.9008,-4.564,0.47931,
2.5626,-0.41208,-3.1327,-1.4492,-7.2266,3.826,-1.459,-4.23,-2.9505,2.2604,-3.8198,-3.1299,-0.43333,0.93295,
4.578,2.7457,-8.006,-4.9776,-6.552,1.4273,-2.0948,-0.84271,-0.60428,0.91948,-5.2783,-9.45,1.7618,4.4924,
3.8214,5.4735,-5.1155,-3.2327,-8.0871,3.7518,-0.040893,-2.2384,3.2884,0.86431,0.34101,0.27603,0.6918,6.151,
1.4227,-0.88073,-2.1572,-1.3518,-12.1814,2.8035,0.68469,-5.7193,2.8499,2.0175,1.0437,4.839,-1.5186,1.2025,
2.5426,-2.0332,-5.6432,-1.994,-9.2813,-0.98012,0.40264,-0.79685,0.027783,5.5119,-1.1881,3.8253,-0.22269,3.2995,
0.46166,-0.4647,-6.7511,-7.6587,-11.6167,-7.1881,3.2708,-0.26687,1.9541,10.4836,2.2574,4.5599,3.6473,6.4757,
-2.6993,-3.0881,-0.32028,-7.9223,-14.5349,-9.4081,1.8695,-2.9022,3.5243,5.2755,3.8094,5.9737,1.741,0.5438,
1.319,-3.3852,4.5192,-0.21615,-11.2527,-7.8793,0.79297,-0.79986,4.7586,-3.2362,1.1703,4.651,-0.29166,-0.93509,
0.7582,-5.1101,-2.9826,-2.1316,-13.9518,-9.3349,2.6738,-3.1622,5.4372,0.33267,3.9923,2.444,1.1723,2.9776,
-9.8926,-4.8035,-10.5159,-5.8596,-17.9351,-12.6308,-1.8249,0.40196,2.2189,8.5074,9.5378,3.2612,2.5482,3.7628,
-12.6735,-1.1408,-6.511,-2.616,-13.0027,-7.5346,-4.608,7.6087,1.1219,7.515,5.5911,3.0655,3.8412,3.0551,
-0.34369,4.7124,-3.71,3.3258,0.79293,2.0763,0.0070686,4.2599,1.0544,-0.64886,-1.0111,2.8818,4.5752,4.3183,
2.3283,2.2603,-3.7286,1.9207,5.8068,0.2647,1.6936,-0.57523,-1.1783,-2.2969,-3.1198,4.3959,4.5415,3.3361,
-8.6579,-2.4548,-1.8179,-2.2921,-3.4594,-5.295,-2.5056,0.18195,-0.86639,-1.9184,-2.2095,3.409,3.0639,0.96608,
-11.0305,1.5488,-0.74446,-3.1185,1.0864,-1.1209,-1.8728,1.6173,1.5957,-4.2134,1.2975,0.79435,3.8439,2.3544,
-9.1638,-1.6776,-3.3509,-9.4388,13.7957,0.15161,4.747,-2.0952,3.6691,-1.3095,8.2091,2.9158,7.2287,2.9365,
-4.9986,-4.7104,-4.3551,-10.0778,15.1371,-0.58085,4.7032,-3.1743,3.208,3.3488,8.9218,2.4999,7.036,3.4832,
0.84516,-2.2584,-1.9244,-3.9297,13.5058,1.6234,-3.0506,0.63136,-2.0459,-1.9136,0.43255,0.18055,2.9986,1.5872,
3.2046,-0.67663,2.5294,-1.2834,10.7672,2.9723,-6.242,3.0041,-5.7795,-5.1732,-2.9674,3.0622,0.89051,-3.3283,
2.2894,-0.877,1.6542,-2.8936,4.0957,-2.2678,-4.1803,-0.30967,-4.7099,0.6808,0.34368,1.6732,2.5243,-1.4418,
1.6701,-5.6451,-3.2653,-10.4328,2.8856,-9.8445,2.3371,-4.1475,4.7318,7.8708,6.59,-0.35538,10.0856,5.8755,
1.8109,-7.9575,-5.7204,-12.9403,5.364,-12.8692,1.9559,-1.7295,8.0633,8.1214,8.3638,2.7994,8.2752,5.282,
1.2201,-3.1415,-3.4488,-1.0764,0.22168,-5.8303,-3.4639,-0.6616,-0.13307,2.3317,4.4877,3.5956,-0.4158,1.5909,
5.2442,2.1082,-2.519,4.5313,-0.51498,1.0274,-2.5332,-3.273,-3.2586,0.022677,1.085,-2.1638,-0.63227,0.29013,
9.5088,1.2588,-7.9119,-0.80223,12.7723,1.2063,-3.1041,-1.3899,-6.1965,-1.184,-7.8982,-5.1674,-0.8353,-2.8608,
10.3848,-1.2271,-8.8828,-3.6459,25.9859,2.5804,-1.4718,1.5863,-6.7888,-4.9691,-9.3523,-2.929,-2.2312,-4.6171,
12.413,2.4622,-2.8064,-1.7402,26.1138,1.2205,1.7502,-3.5703,-3.2478,-4.9121,-3.7297,-2.0301,1.0359,-5.0632,
13.8374,3.5193,-3.8433,-0.43047,18.039,-1.9862,-0.52441,-5.0438,-4.7406,-2.9302,-5.675,-5.0418,-2.1597,-5.9647,
13.0072,-1.0302,-6.0228,-0.88703,11.654,1.5074,-0.97488,0.079538,-4.9381,-0.82665,-9.1914,-4.7393,-8.2967,-5.6068,
11.2629,-0.96835,-1.8051,-3.7259,10.9552,1.8989,-2.8446,1.0391,-2.7136,-1.2585,-4.7831,-1.5624,-5.3887,-3.8241,
14.443,1.4999,-1.6968,-4.9486,12.2257,-2.5533,-1.2281,-1.4338,3.7157,-0.21914,3.6986,3.3516,3.6117,-1.6665,
13.0945,-0.51831,-7.3796,-8.0261,5.7075,-4.8103,-1.154,-3.276,3.4928,-0.68793,2.0305,4.5968,2.4307,-0.12025,
14.4785,-1.692,-1.8751,-7.3031,2.2321,0.54003,2.0488,0.53598,2.5603,4.415,1.6677,8.4183,3.9725,6.8768,
13.6097,-7.8575,1.1295,-8.3112,0.65188,-8.1695,3.854,-0.46005,4.3349,5.5959,0.60373,2.1286,4.698,5.018,
10.8647,-4.4933,-2.7945,-3.9559,3.9875,-12.0179,1.6944,1.4955,3.1107,2.3679,-3.2891,-2.3376,1.5239,1.8246,
7.0796,-0.60851,-9.135,-2.9959,-0.34938,-6.7173,-1.5406,2.6109,0.27271,3.4309,-0.44044,2.8641,2.1556,2.4383,
4.9674,-4.1876,-13.6483,-6.4313,-7.8005,-7.0374,-2.6532,-0.19712,0.015614,6.8407,6.0937,5.3435,4.6775,1.0864,
7.0795,-1.0439,-7.5268,-3.6353,-4.4399,-6.1332,-2.0121,-0.1853,-0.46772,3.5377,3.7999,2.1309,1.9863,0.53932,
7.378,-0.25834,-1.5316,0.68016,-1.0405,-2.6317,-1.6504,0.54918,0.76564,1.6382,-1.9717,-2.5767,-2.2302,1.2299,
5.7303,0.48029,-2.6447,0.88054,2.1552,-2.2331,-1.7925,-0.2069,0.96044,0.8168,-1.6127,-0.73512,-0.89135,0.4334,
4.6631,0.69244,-4.6552,1.0687,2.7492,-7.6427,-0.96163,0.046481,-1.7483,-4.2934,-1.2745,-4.7884,-0.5969,-3.6904,
5.8296,0.6509,-1.4838,5.8248,2.1024,-4.2916,1.0243,3.9001,0.28481,-3.5539,1.694,-1.6085,-1.043,-2.0227,
1.8646,-1.0752,-5.01,3.7883,4.6275,0.5454,-4.0986,-0.91344,-1.9012,-0.68933,1.3517,9.334,-3.1494,-1.1782,
0.78865,-3.421,-3.2634,-1.7414,4.8316,-3.3439,-1.4428,-5.6791,-3.2336,-1.1301,-0.17593,7.3279,-0.068577,-1.1073,
3.1517,-3.6979,5.6093,0.77345,2.6137,-5.0713,3.9466,-0.51789,-1.5931,-4.9185,-1.1295,-2.7529,1.864,0.40515,
-3.3044,-4.4399,4.3089,2.6548,3.4208,-3.3212,-0.14703,-0.48682,-0.051732,-4.1414,-2.9899,-4.9979,-2.5862,-2.0297,
-6.4803,-2.7275,0.67567,4.4239,7.5541,0.25276,0.34396,-3.3499,3.808,-0.51873,3.9382,0.60439,3.3533,0.98433,
-7.7787,-4.2506,-1.0516,4.8818,7.3423,-0.96724,0.56475,0.46652,1.8923,-6.0308,4.4252,1.7734,6.768,3.0949,
-6.8299,-2.5495,2.3857,2.6605,10.7579,2.947,-1.3976,1.8846,-2.5598,-5.6691,-1.6251,3.5954,0.095181,-3.8395,
-10.2767,1.4596,4.1705,2.0187,8.6659,5.18,-2.2778,-2.5671,-5.2985,-0.026582,-3.456,5.7896,-4.7315,-6.5019,
-17.6138,1.613,2.7154,5.9954,-5.954,-3.5664,1.4743,-2.1716,2.4912,2.6266,1.3311,5.6837,1.0965,2.3244,
-16.557,2.9625,-1.7858,5.1533,-16.8043,-0.94187,3.314,0.85074,8.1263,-0.42355,2.6975,-0.92433,4.8871,3.6312,
-9.5378,7.8462,-2.4018,2.6752,-9.7702,13.2146,-1.4643,2.9691,2.5773,0.80693,1.8125,-4.4841,-0.46759,0.76199,
-13.0629,4.7243,-2.0167,0.82742,-19.066,26.2806,-4.9919,3.9962,1.2178,2.4457,1.9447,1.8105,-5.5012,-0.0066314,
-14.4487,3.2356,-0.69041,2.9469,-32.022,27.8372,-5.8972,7.8538,2.3496,0.61177,-0.82304,7.2455,-4.4482,-2.1754,
-9.0023,6.1747,4.412,4.4571,-41.0677,40.267,-8.1952,5.2132,-4.2991,0.33387,-5.8356,0.785,-7.3146,-8.0706,
-8.2212,8.4558,9.209,5.395,-38.3624,44.9609,-6.0162,2.7312,-3.8002,2.4835,-2.8339,0.015002,-9.0453,-6.8635,
-10.62,10.8405,5.2824,6.9995,-31.2402,35.9967,-7.5834,4.4956,-1.1621,-3.4506,-0.73566,6.2806,-8.5026,-4.0411,
-2.7522,13.0823,-0.33739,8.9899,-25.0272,45.8882,-2.7899,8.0824,2.7643,-0.8332,3.647,8.7961,0.20293,0.53991,
-6.2025,3.3798,-8.2709,2.4249,-31.4795,41.9296,-1.4172,3.4997,-1.9809,0.90402,-2.5973,4.171,0.43172,-0.21585,
-7.2763,1.7305,-4.4004,-0.61332,-28.1447,33.629,-2.2963,4.7357,-1.3803,1.8139,-2.9237,8.7412,-1.0407,1.7251,
-6.3578,0.18042,-2.2082,-0.57652,-27.4199,31.1294,-1.6766,5.4159,3.0413,-0.22315,3.0363,3.8784,-3.3884,1.1396,
-3.0838,3.544,-1.1114,4.7607,-25.775,29.7435,-0.12971,3.6447,1.8945,-3.5842,3.3361,0.27123,-2.2212,0.58932,
-2.8988,7.1878,3.2936,5.4394,-22.3003,24.5849,-0.12192,4.3899,1.2989,-0.47664,0.24341,6.5215,3.2147,1.5178,
-12.848,1.4541,0.20372,-0.18984,-29.157,20.6995,-4.9351,4.1267,0.25686,2.4442,-1.2172,5.648,1.0939,-2.4294,
-16.1747,-1.7664,0.43269,1.9909,-34.8794,17.7705,-6.326,3.6384,1.9284,2.0564,0.54326,5.0684,-4.9975,-2.5248,
-12.3117,-2.6243,2.8169,1.8719,-35.1967,11.884,-4.5002,0.045626,0.84887,-0.47712,0.51067,2.3542,-6.1435,-1.891,
-10.8499,0.18404,2.889,0.072171,-26.5774,14.3038,-3.9894,1.248,-2.8177,-0.68969,-1.6894,-1.8847,-5.0522,-1.5368,
-14.2965,1.3781,1.9926,-0.17336,-21.3671,16.5793,-3.0269,2.8605,-0.96119,0.074825,-1.3468,-2.0128,-5.9541,-1.2034,
-16.331,-0.15065,-1.0193,2.2474,-24.4237,8.3534,-4.2913,-2.614,2.9526,0.070565,1.1444,-1.4099,-4.1509,-0.16706,
-13.6639,0.099353,-0.71715,7.6562,-17.4146,5.2011,-5.7211,-2.6981,2.5345,4.6456,1.3167,0.8439,-2.6965,1.5302,
-11.1571,-3.5218,3.9054,5.0274,-11.3083,5.6122,-7.5472,-2.7774,-2.679,5.09,-1.8956,3.4446,-5.186,-4.1055,
-6.3898,-0.65894,5.8402,0.62841,-14.245,5.9984,-8.2992,-2.8517,-4.2055,0.68726,-2.0228,2.515,-7.526,-6.5102,
-3.5968,6.611,1.6334,4.4471,-13.3908,8.5305,0.87538,4.0678,3.7596,0.16363,1.9545,-3.4209,-1.7722,3.5214,
-9.888,0.67071,-2.5619,0.082916,-13.31,3.9218,2.992,-1.7194,3.2931,-0.56863,-3.7059,-11.169,-0.4606,7.4079,
-2.7874,0.87166,6.0277,3.2112,-6.968,5.8554,0.16118,-2.3394,0.92609,4.5265,-2.7609,-2.5453,-1.1561,7.2041,
0.51352,-3.7602,4.461,3.2597,-5.3446,5.7453,-5.3919,-0.51156,-0.81647,-0.80656,-3.3179,1.705,-7.112,-6.0023,
1.2056,-3.2936,3.9519,-0.069347,1.0014,5.1592,-1.9353,-0.24035,0.91974,-0.99913,-4.8065,-0.084528,-5.4805,1.8292,
1.133,-0.68561,7.5714,-4.4037,1.9056,-2.381,2.0374,-1.672,-1.0639,2.9174,-4.5179,-7.3101,-1.7774,3.1659,
-2.0684,3.4524,12.6607,2.368,1.0679,-1.5152,4.0843,0.11558,2.1335,2.9829,-2.5596,-8.0768,2.4266,-11.1241,
-4.5952,4.9327,11.6599,10.6623,1.7272,5.5658,0.706,2.76,3.6924,4.0094,-0.23665,-1.5664,3.9684,-24.5566,
-6.9708,-0.42468,4.4526,4.4787,0.41828,-1.7583,-4.3978,0.42498,-0.14429,6.4202,0.98261,4.071,3.0072,-37.1832,
-9.2036,0.32416,5.8726,-1.8156,1.1165,-2.8576,-3.411,-0.32342,0.10533,6.276,-0.28164,5.514,3.0682,-49.0522,
-5.0362,2.4736,9.1359,-1.9479,5.1467,-0.51722,-1.037,-0.54521,2.2684,4.6943,-1.9517,-0.84265,0.71425,-60.2091,
3.2199,1.1202,7.8646,2.2666,9.4176,-6.5115,2.1585,0.69257,3.3374,6.0997,3.7087,-3.4434,0.91259,-70.6965,
0.13396,2.499,4.9824,6.4692,4.9959,-14.7977,2.9931,2.0975,0.24483,0.43127,4.4503,-2.2727,0.37567,-80.5547,
-3.9712,3.5541,3.4784,2.9477,1.5629,-14.151,4.5005,1.2485,2.8815,-3.6922,2.0139,-1.8952,1.5582,-89.8215,
-2.7688,-2.4435,-2.5151,-5.9064,0.50506,-12.3379,0.3743,-1.2367,3.6727,-0.096432,2.3752,-1.2993,0.01867,-95.2784,
1.0127,-3.5022,-6.9435,-6.275,-1.6944,-13.2848,-5.1918,0.042752,3.6933,1.1146,3.92,-0.98036,-0.22342,-86.4282,
6.0134,-0.15879,-3.3936,-5.1753,0.57619,-11.7646,-0.78314,2.6911,7.0869,-2.0855,6.818,-4.5372,1.9589,-74.2531,
9.7502,2.5021,-1.5025,-3.6597,7.5317,-8.8893,1.9156,4.6994,2.0826,-3.1654,3.2757,-1.6132,-0.32755,-66.6642,
4.8264,1.87,-4.3049,-2.9582,8.5261,-8.356,3.7284,2.4888,0.51139,-1.5292,-0.77725,5.714,1.6203,-56.88,
-2.2121,-1.6166,-2.6008,-7.1191,4.6398,-7.8551,2.5409,1.3752,6.7472,3.3828,0.71564,12.1196,6.8257,-39.9699,
-0.63288,-3.93,-1.4802,-3.7996,7.7359,-8.3474,-0.021955,3.2211,6.3422,5.5902,1.6368,12.8389,3.042,-31.7869,
3.0207,-2.9711,-6.4529,0.044003,9.4411,-11.9441,2.1488,0.85888,2.3464,2.6034,1.2974,7.9715,-0.27381,-33.0129,
3.8036,1.0638,-7.0298,-5.7434,5.5004,-14.1198,1.5377,-0.15675,2.6878,0.51926,0.73785,6.5291,1.6706,-28.1398,
5.7443,1.7226,-2.5109,-6.122,7.3393,-9.6574,0.24034,2.9855,4.6955,5.5491,2.3806,8.7882,3.7397,-17.5339,
6.123,-1.5137,-2.6012,0.27136,9.0686,-6.9083,-0.015046,3.0478,3.2089,3.0474,-0.41335,8.0204,1.3462,-12.384,
3.1038,-0.69978,-3.1682,-2.8786,11.1753,-8.1813,1.1909,1.1774,2.2932,-2.6792,-2.5579,6.8156,4.3987,-7.0617,
3.1588,0.065332,-2.7369,-8.2493,11.7104,-11.7875,4.2527,4.7224,6.2532,4.4716,0.72879,4.2377,8.2323,-0.13004,
4.4153,-2.3489,-4.0192,-2.4519,-0.56189,-16.3832,1.1053,5.4032,2.9853,7.0951,1.6492,1.0907,2.9175,1.3236,
5.8379,-1.0029,-0.16242,3.7205,-0.28721,-12.7489,1.7621,2.4277,-0.80902,-0.3202,0.82708,2.7127,4.4299,1.0032,
7.4158,-1.4247,0.32926,-0.84105,13.83,-6.6813,3.1022,5.1741,-1.2424,-5.6036,-3.0789,3.5138,8.0205,1.4249,
8.1761,-3.0264,-2.3416,-5.3699,27.1002,-6.0394,1.7112,6.5513,-3.337,-3.5802,-5.0634,2.5801,2.4776,5.9192,
5.5159,-4.5321,1.8963,-8.1812,22.3407,-9.7744,6.6697,2.5424,0.96055,0.73197,0.30167,3.1482,3.0518,13.5178,
-0.84057,-4.0192,0.095257,-7.9313,14.9747,-10.8752,8.4392,1.185,5.4822,1.8933,2.9351,-0.17373,6.4841,16.3221,
-6.5749,-8.1166,-10.5155,-3.1168,11.184,-13.5974,4.0762,1.1137,5.6354,2.2619,3.2412,-5.9481,4.1671,14.3787,
-0.63638,-7.3882,-10.6075,2.1319,6.4156,-15.9145,3.1087,-2.5681,2.6462,1.8852,1.8414,-4.3859,0.78359,13.275,
6.8734,0.044763,-4.4277,4.6553,15.9128,-7.4881,0.27089,-5.5478,-1.6101,-0.87921,-1.8843,4.3131,-2.8786,15.6118,
0.43543,0.76498,-4.403,5.0988,14.7171,-1.0128,-1.9145,-3.0457,1.62,2.3066,-2.9765,6.2235,-2.4649,17.8085,
-7.3037,-2.1732,-7.0311,1.4187,1.7827,-6.7368,1.5746,-4.791,2.4869,5.5429,-1.3514,-0.89859,0.57525,19.1502,
-2.2862,-0.83752,-6.8506,-6.1387,4.3268,-10.9124,5.5775,-5.7088,5.9526,3.5231,4.2728,-3.4962,5.12,18.724,
0.26134,-3.1976,-2.583,-12.0367,10.8159,-11.7037,3.7968,-2.474,8.9701,0.90132,4.9805,-3.2862,5.7769,17.1187,
1.2098,-2.5236,-0.49958,-6.494,16.9156,-10.5193,1.6405,-1.3614,5.5396,1.8113,3.7176,-0.6787,5.9125,21.8764,
1.6193,-1.89,-5.7725,-3.212,17.8291,-10.3703,2.0243,-6.5822,4.2432,1.7029,5.423,2.2543,7.9681,23.938,
0.79905,-1.5359,-7.5951,-2.7781,12.6618,-12.8813,2.144,-6.9104,4.7117,3.2877,5.3383,0.91399,7.2488,24.6711,
2.9203,-1.2028,-2.0781,-0.44228,7.3228,-14.2776,2.7383,-4.3266,5.6338,7.1878,1.885,0.13579,4.6447,25.36,
4.6732,-1.1306,0.45713,-1.3801,3.9909,-14.8672,4.9846,-5.5132,7.224,5.7927,1.7719,-0.35429,4.366,25.2847,
1.9827,-0.098442,-5.8373,-3.2255,1.3413,-15.9034,3.2392,-4.7001,5.8267,1.1063,3.1119,2.0771,4.586,24.2495,
2.8279,-2.5029,-6.9331,-4.9599,2.2249,-16.3952,4.009,-2.4901,6.4412,2.9684,6.2994,8.2192,5.7573,24.2406,
6.9967,-4.7631,-4.1072,-3.6987,1.1273,-14.9298,0.87569,-1.8585,4.1263,4.2363,3.993,8.6902,3.0015,23.7502,
7.782,0.10223,-0.24464,3.0314,1.7828,-12.8285,-6.648,-4.8803,-2.6285,-0.5974,0.13821,5.5179,2.0983,25.9409,
-0.15674,1.3009,6.2771,4.5363,6.7371,-9.4077,-5.5267,-8.2029,-5.1224,-1.2849,0.37089,2.0529,4.1416,25.1073,
-8.1011,0.018038,4.2137,-0.31516,8.9844,-5.7097,3.2411,-2.649,-2.1639,3.3719,-1.8205,1.6887,4.6164,23.8419,
-8.0972,-2.3934,-3.2698,-7.0449,8.9275,-6.8132,6.9032,-1.0441,-0.58762,0.75972,-3.1573,-0.82249,6.2674,25.3036,
-5.6829,0.16056,-1.6275,-4.6938,14.6586,-5.4403,3.1144,-3.3918,-2.9627,-3.6244,-1.5219,-5.1117,4.9273,24.2676,
-5.3422,2.0793,3.2906,4.7466,20.0454,-3.1859,-0.44673,-4.6343,-7.6054,-0.51466,-0.94838,-5.2872,-4.0452,19.9192,
-3.0937,-2.384,1.1647,9.7642,19.3248,-4.4408,0.062235,-5.3203,-5.7031,-3.8585,2.4827,-3.5239,-5.7309,17.2776,
4.5642,1.8564,3.7464,10.3837,20.3345,-2.4871,-0.18247,-3.7963,-4.1556,-13.5089,2.0928,-5.4816,-2.2536,17.9282,
2.8443,5.6017,7.8602,9.2785,11.8838,-2.3381,2.2388,-2.6039,-3.9065,-7.3955,-1.8894,-8.5269,-1.6362,20.2272,
-2.3882,0.20365,2.8086,8.4806,3.6987,-2.439,-1.9931,-2.6889,-1.5027,1.9656,0.39338,-4.8821,-1.2973,21.6644,
0.40661,-2.9416,-1.9392,6.7669,12.8768,-1.0874,-8.8634,-3.7329,-1.6535,-5.6237,1.0927,-0.97373,-4.8344,20.6059,
4.4796,-0.11401,-1.5819,0.3349,25.3606,-1.745,-1.3417,-6.6424,-2.7596,-6.9735,-2.5883,-1.6387,-3.8215,22.5026,
-0.85066,-1.7942,-2.2097,-3.3004,22.152,-3.8097,0.42581,-9.859,-5.7273,-1.0117,-5.0839,0.62904,-0.94086,24.2862,
-2.2459,-5.061,1.2969,-0.20984,13.592,-4.0631,-2.4918,-4.9287,-1.5273,-1.4329,0.041419,4.9301,-0.8844,25.7211,
-2.3523,-4.9985,-2.878,-1.4023,5.7868,-8.3988,-1.1372,-3.9103,-0.23056,-3.5163,-1.1661,0.53669,-4.447,20.0802,
-5.1035,-3.7345,-12.8289,-5.1748,7.3676,-6.4489,0.37704,-4.1579,-1.1808,2.9614,-2.5427,-4.316,-0.80595,16.4651,
2.1926,-5.1977,-9.8896,-7.5154,11.0234,-4.8566,-0.36849,-6.5595,1.0592,6.3991,2.1897,-5.2623,2.3764,18.1287,
9.7738,-3.9215,2.7549,-9.4746,6.5056,-9.8679,-2.7565,-9.5404,-1.8964,0.71254,2.5402,-4.9466,-1.6231,18.0053,
5.8132,-5.1322,5,-9.8702,4.6692,-7.3474,-0.66315,-6.5576,-1.7824,2.5982,-1.4684,-2.2394,-0.56113,15.479,
4.2591,-9.404,-0.36172,-5.663,8.4864,-4.7374,1.0639,-8.3333,2.4214,5.0934,-0.65736,1.0284,1.1593,14.7907,
7.378,-4.9834,1.1062,-3.3951,6.531,-9.7558,-1.4101,-11.2077,-1.0979,-3.4069,1.3103,1.4486,-3.2486,13.4214,
5.0071,1.5826,2.4861,-3.1909,5.1752,-7.7242,3.0128,-4.2683,0.41428,-4.6487,0.74972,-0.084532,-0.64307,15.0267,
-6.8625,-1.4049,-6.8221,-3.9638,5.8286,-3.4043,1.3858,0.80805,0.87136,-2.4416,-4.116,-1.5257,-0.60495,15.0889,
-8.1384,-4.936,-8.5824,-4.4493,4.2736,-5.3697,-0.86651,1.0005,1.542,-0.12597,1.1927,4.5914,2.5648,15.8708,
-7.1677,-8.4962,-3.7286,-8.5207,-2.2494,-7.9396,0.14981,-1.4696,3.3776,0.84591,5.9418,3.834,5.7854,15.8829,
-10.3528,-6.2995,0.59265,-4.3942,-1.8737,-5.2938,3.2741,-0.17639,4.3801,2.9641,5.826,-1.9395,3.2689,18.0632,
-12.6242,-3.5109,-2.3354,-0.75613,1.1313,-6.4224,4.0415,-2.5759,3.6353,3.2686,6.4408,-4.2332,1.1446,15.0507,
-8.4925,-3.3005,-7.4977,-3.6031,1.0636,-6.5193,0.90672,-6.278,1.4888,3.0723,2.1977,-3.0151,1.0761,11.7378,
-4.3673,-1.8974,-1.9864,-3.6276,0.27669,-3.9587,0.12919,-4.2139,1.1587,4.5754,1.3428,1.7453,3.6629,13.2029,
-6.0335,-2.7474,5.8456,-2.928,-0.70424,-6.1313,-0.3605,-3.961,-0.839,1.4084,1.2622,2.6044,0.55058,9.5182,
-4.7074,-1.1365,8.3871,3.032,3.1946,-6.2456,-1.303,-2.2773,-3.681,-1.0865,-1.7058,0.037816,-2.8571,8.9469,
-6.3533,-6.3712,8.366,4.7785,-0.37173,-6.835,1.1851,-3.1052,-2.0141,3.7992,-3.5319,-1.8929,1.1709,9.3742,
-7.6591,-9.1222,4.7308,-0.087713,2.3019,-3.7735,0.87327,-5.0879,-3.5807,2.8481,-5.4889,-0.57378,2.3057,8.571,
2.2004,2.2718,5.1699,3.051,13.9744,7.7811,-1.8302,-1.6491,-4.5707,-0.45581,-2.0261,5.4862,-0.001788,18.4206,
2.3091,3.3401,8.9573,8.4114,1.8075,2.7347,-3.8898,-3.2376,-3.5733,0.7766,-0.69947,2.0238,-5.0631,17.5566,
-0.72148,1.6939,14.2044,12.2455,2.1814,-1.7677,-1.7282,-3.0429,-1.4307,-0.23387,-4.9958,-7.2567,-3.795,6.8622,
1.4907,4.2436,11.1828,5.9669,16.1505,0.025342,-0.41946,-3.1015,0.34213,-6.728,-6.8655,-11.4008,1.4941,4.2811,
0.67839,4.23,5.9325,0.54765,15.543,-3.1092,-1.5991,-5.0846,0.56303,-5.119,-2.3562,-5.6551,3.0917,8.604,
-5.3879,-3.4956,1.9611,-0.6905,1.8359,-2.6821,-0.78028,-4.5385,1.2521,3.1419,-1.4919,-3.6285,-2.1555,12.667,
-4.3417,-7.3833,1.6025,-2.8182,10.1614,3.0224,3.8458,1.2774,4.31,6.5688,0.28483,-2.6879,-2.2671,14.5581,
-3.1171,-5.0123,-0.90401,-4.5776,17.2648,-1.497,-1.2054,-4.1021,-0.28665,0.39028,1.7142,-1.5626,0.76121,11.2747,
-6.0633,-4.4704,1.3196,-2.6155,8.7573,-4.0585,-2.8201,-10.8457,-0.51065,1.09,1.8521,-0.74568,3.3669,9.8751,
-5.6995,-6.1303,1.2404,-3.4228,1.9649,-1.8868,-0.24075,-6.3385,2.4121,2.9523,-1.6335,-2.1472,0.27233,7.8363,
-2.4653,-2.8702,0.68386,-6.5917,5.7032,-1.2919,1.2197,-5.4761,5.1596,0.36529,-3.9454,-1.5362,-1.19,5.4377,
-0.62989,-1.4929,3.7761,-4.0273,8.0123,-4.8296,7.6543,-8.2807,9.912,0.58412,1.3528,-2.6491,4.4247,5.8346,
0.85416,-1.8853,3.5495,2.4813,2.7113,-7.4319,4.7849,-6.8196,5.4608,-0.89673,-0.65655,-6.8285,1.7491,4.5206,
6.1053,-1.7724,5.7469,7.1529,0.6202,-3.6117,-1.2866,-6.8926,-2.5798,-6.1458,-8.8121,-7.3829,-4.1402,0.39279,
11.2826,3.878,13.8382,10.3392,7.5733,0.22038,2.406,-4.3099,-2.666,-6.5,-7.0781,-9.109,0.2056,3.5027,
10.1237,4.6092,12.0436,4.4162,6.1546,-5.0955,5.6357,-2.605,0.38649,-4.1818,1.0594,-9.5268,4.5316,5.2207,
9.5159,-1.9343,6.0183,-5.0078,-3.8561,-11.5387,4.3337,-6.3055,3.7373,-1.0388,2.924,-2.6887,4.7416,0.086782,
6.5348,-0.37202,6.6211,-5.1897,-2.1785,-8.4362,3.1093,-4.9629,4.4769,2.398,0.33799,0.84707,3.9752,2.4917,
-2.7754,0.85514,3.0908,-5.6013,0.12139,-5.2785,4.1281,-2.496,2.5215,0.084942,3.4512,-2.8192,3.4957,11.7422,
-1.6448,-1.1241,0.013073,-6.7112,-1.8139,-4.4796,3.8801,-5.7204,2.852,-3.2944,6.1364,-1.6859,-0.088714,11.0379,
6.1672,2.7997,7.7251,0.44037,2.6333,-2.2826,-0.20905,-5.8591,-3.5857,-5.0249,-3.3908,0.34342,-4.4217,2.1809,
8.4482,5.7652,12.8052,7.8853,6.5726,-1.9047,2.937,2.4462,-4.0934,-3.0362,-5.8385,-0.88248,0.42334,3.7373,
1.4334,0.35761,3.1188,2.351,-1.7755,-4.9239,2.5198,-1.316,-2.1606,-3.5774,-1.8727,-0.5881,-0.32542,10.5025,
-4.6779,-2.3152,0.76228,0.040508,-3.8383,-6.7974,-2.2109,-8.7091,-1.3078,-3.1215,-2.0016,-0.79401,-2.9572,7.7034,
-2.951,1.1982,6.5016,4.3769,5.551,-7.3539,0.81426,-3.8478,2.1451,-0.52412,-1.8815,-6.049,1.559,0.97467,
2.2873,2.8135,1.0498,6.2829,6.4232,-7.636,3.4165,-0.96582,-0.15324,-1.2156,-4.9021,-6.4094,-0.22177,2.121,
9.863,5.537,-3.8337,8.3163,5.0738,-1.875,4.6575,-2.8363,-2.5544,0.30339,-3.6438,-1.6863,-1.173,10.1887,
5.4151,6.1689,-4.5677,6.8537,7.6616,1.6122,-0.92433,-3.1478,-7.2212,-2.1247,-0.050527,-3.5131,-1.102,4.7569,
-2.3821,1.219,-2.1245,0.41648,5.9966,1.274,-1.1103,1.1384,-4.6192,-0.79239,1.6393,0.3131,0.65093,-2.5184,
-3.2032,-3.1922,-0.55102,-7.8034,-0.14752,-4.1048,4.2592,-3.2684,4.3353,1.1836,3.4693,-0.18785,4.4685,1.4893,
-0.35949,2.5429,0.2054,-6.6119,1.0662,-5.0638,1.8345,-6.6878,4.3161,-1.539,6.3947,-9.5766,2.0308,4.533,
-3.4714,1.1851,-1.0122,-4.046,3.1718,-3.0728,-0.44474,-4.5993,1.4061,-0.72329,4.8057,-6.8328,-2.6704,0.16366,
-3.7455,-4.1887,3.3868,-4.7676,5.8736,0.48605,2.9559,-2.8771,2.2856,2.6941,1.1429,2.2542,1.8282,2.082,
-0.62803,-3.4552,6.5583,-5.4456,6.4853,-0.98915,4.2251,-4.6324,3.5945,-0.35984,2.5208,-1.2552,4.1288,3.4036,
-2.5185,-3.7298,1.3441,-8.9748,-3.5448,-6.7144,2.0434,-8.693,4.3431,2.0723,7.1903,-4.5544,-0.45721,0.78926,
-0.1985,-2.7834,-1.8698,-6.7498,-3.5733,-5.1069,0.23331,-7.4488,1.9132,7.4914,5.5533,0.78034,0.77528,-1.9099,
6.0804,-2.134,-2.7219,-2.006,10.7411,1.9484,0.70171,-4.5915,-2.54,-1.6352,0.39988,-4.5691,2.657,-3.2411,
6.9209,5.4659,-3.7635,7.0324,20.3407,10.75,1.3825,-0.21817,-3.1105,-6.1164,1.0988,-4.5355,-1.5998,3.9433,
3.6131,8.5119,-7.8764,10.9488,11.407,11.0684,-4.485,-2.1337,-3.8882,2.4453,-0.4134,-0.40743,-5.3602,6.5983,
5.8067,5.1094,-8.8499,6.9176,7.3484,8.4764,-4.6981,-3.9337,-2.6908,4.227,-2.3166,0.099179,-1.182,2.8286,
4.9761,3.8387,-5.4266,2.646,4.9795,6.0398,-1.0415,1.6048,-2.0472,-4.7035,-2.6597,3.4675,-1.1113,6.997,
0.57971,1.9212,-1.9675,-0.16389,-0.86335,-1.3124,4.0822,3.6776,1.6906,-0.8063,1.1153,3.0184,-2.2499,8.2644,
1.5093,-0.12231,0.078735,-3.0466,3.5272,-3.6438,4.8016,-0.88134,4.9636,9.3654,1.0484,2.8373,1.2595,1.9839,
-1.7146,0.12577,-2.5773,-6.479,4.5207,0.19,1.3798,-2.0335,2.0145,5.6698,-1.1839,6.7642,0.94277,0.65984,
-4.5037,0.11822,-1.9407,-4.644,-2.4995,-1.2677,4.6714,0.016683,3.8223,1.4737,1.7796,8.287,-0.55959,2.0665,
-4.4745,-4.4682,-0.13707,-5.5706,-8.857,-9.1453,1.7401,-4.0817,2.3877,5.0007,-0.014379,4.1744,-0.28505,-2.1548,
-1.5554,-6.3697,2.5222,-6.4417,-5.6745,-7.8737,-1.4978,-6.0064,1.521,9.2799,0.22745,2.2367,3.8294,-3.2308,
-3.3898,-4.5408,5.2634,-2.6807,-0.031368,-0.65239,0.038302,-1.3072,0.94784,3.4205,-1.2325,2.1025,1.1895,-4.4832,
-3.6683,-3.3045,5.912,0.37264,-4.3678,-1.0952,0.51794,0.21747,-1.5192,0.32319,-2.1224,0.53008,-3.7026,-1.8037,
0.64888,-3.8293,6.7623,-1.8191,-6.7571,-5.609,2.1743,-2.9288,1.7052,2.4732,3.0664,-1.1887,0.61717,0.47348,
2.7796,-0.46609,4.1874,-0.50467,1.1202,-3.5852,-1.5716,-3.9584,-2.0125,-1.773,0.23134,1.5337,0.33917,-1.7241,
2.8535,3.6595,-2.5716,6.9972,1.2942,-0.71878,-4.6105,-1.0696,-4.5431,-0.9435,-4.3621,5.0573,-1.3686,-0.41558,
3.8876,3.1989,-6.0327,6.8183,-5.2914,-0.43469,-2.6467,1.6457,-0.65506,2.7285,-0.96731,2.1023,-0.081225,0.33272,
4.1363,2.0427,-7.117,2.0709,-4.0096,0.073325,-2.4879,-1.3451,-1.5796,2.0829,-2.837,1.4943,-1.5222,-2.0974,
5.0934,2.643,-3.0745,0.25942,0.32831,-0.17204,1.2764,-1.0234,0.68432,5.5733,-0.49808,4.5381,-0.22599,0.19717,
2.8594,-0.40741,-4.3361,-0.72024,-1.6194,-3.5359,-1.692,-1.9261,-3.2129,-0.54588,1.9422,-0.07275,-3.5867,-4.6347,
4.375,-2.0702,-3.835,3.4203,0.64697,3.6656,-4.724,-1.5696,-3.7435,-5.0924,1.5847,3.0651,-4.0948,-3.6337,
6.0407,-3.8742,-1.1947,-1.1232,-2.2844,5.3743,-5.4044,-0.51109,-0.62636,0.033843,0.043782,5.2913,-1.9205,1.887,
7.1245,-3.1598,7.0717,-8.7686,-5.5218,-3.1433,-2.1881,0.48344,-0.10684,-1.4149,1.9689,-1.7751,0.12249,0.32749,
8.3843,-3.6936,13.6372,-9.4478,-0.12878,-5.6058,3.0044,-2.1967,-0.3414,-7.3556,4.9842,-6.2478,1.3204,-3.7895,
10.0504,-3.7129,8.7216,-4.7836,3.9763,-2.6183,-2.2371,-1.8239,-2.9725,-5.227,0.58783,-5.1501,-2.8561,-3.8036,
13.545,1.0894,7.4752,1.5292,3.4965,2.1183,-6.6824,6.7214,-4.4811,1.1124,-3.0631,-0.26155,-3.8898,-1.406,
8.8754,-2.3504,3.6522,0.95555,0.39468,0.54492,-4.8352,4.39,-5.6585,1.0457,-2.3969,1.6823,-2.6926,-0.83967,
3.5226,-0.28122,-1.8695,4.7546,1.8173,3.4047,-3.5812,2.6803,-3.8727,0.98291,0.63897,1.0995,-1.5667,-2.2351,
4.7573,4.5561,-5.1316,6.8792,0.26173,2.2359,-2.8842,2.5193,-0.26615,-0.040158,0.6004,-1.8588,-1.4729,-8.8501,
9.7748,4.283,-1.449,0.68212,-1.6819,-2.2363,-3.6752,-1.97,-1.2143,-1.9657,-3.7737,-6.0858,-3.3125,-7.8365,
14.0087,3.5439,5.3866,-0.80484,2.2751,3.2003,-3.4549,2.0044,-2.1055,-0.88413,-2.1013,-3.7922,-0.70387,-1.582,
9.7938,-1.489,-2.6494,-0.75655,-3.6455,3.0082,-5.6578,3.8128,-3.425,-4.2051,0.91733,1.2555,-2.1074,-7.7536,
8.0013,-0.67679,-8.5159,0.49414,-2.2219,0.65859,-6.0412,2.3787,-2.9785,-3.7118,1.5852,3.3498,-3.6682,-5.6011,
10.4133,-1.1181,-2.7028,-1.4642,7.0704,3.5111,-3.7505,0.78972,-1.8359,-1.5609,0.52576,1.2202,-2.9662,0.037142,
8.3425,-0.56886,0.83405,-3.3043,3.272,3.7831,-2.0795,0.26017,-2.2079,-2.9133,-0.46943,1.1472,-3.2704,-4.3032,
7.6007,1.6342,-2.8316,-3.3468,-4.8783,-0.54148,1.1786,1.4496,1.0582,-3.4616,-0.20052,0.83718,-1.8686,-3.3219,
8.3497,0.33108,-3.3849,-4.351,-0.96997,-2.196,1.349,-0.32435,1.2355,-3.0127,2.4628,-4.7564,-1.0334,-0.47122,
6.8847,0.79338,0.19244,0.24814,1.0162,-0.13627,-4.9986,-1.269,-3.6591,-4.2784,2.7972,0.83136,-1.9359,0.038756,
3.3381,0.50481,-1.0239,3.8487,-13.1448,-5.6717,-5.904,1.9406,-2.2343,-2.3345,1.906,8.2533,-3.0246,0.2774,
5.307,2.6437,-1.6859,3.8587,-14.646,-11.8393,-1.452,7.3678,0.068932,0.93904,3.4789,-0.19565,-1.6383,0.50172,
7.3991,5.8595,-2.5486,4.5915,0.33279,-12.0928,-0.40098,3.0689,-6.6841,-3.938,1.342,-9.8249,-1.54,-4.8306,
6.473,5.0258,0.49663,4.7977,14.4128,-8.9574,3.9616,-0.97139,-5.319,-4.1839,-0.18458,-4.4149,0.96275,-3.5771,
7.2899,3.5189,4.0822,0.89445,6.7994,-6.2503,2.0367,2.7023,-2.3483,-2.7276,-0.41447,-1.4989,0.66402,-1.6752,
10.2268,5.7182,6.7296,-0.60525,8.8013,-8.2857,-2.424,4.9501,-1.7257,-3.528,1.0564,-6.2295,-0.33992,-4.949,
8.6488,7.3033,7.2897,1.3593,9.7195,-13.0912,-0.83235,-0.64958,-2.1041,-2.8344,-1.4171,-4.4094,0.64434,-4.652,
4.7554,4.9369,8.7805,2.724,3.8337,-12.7876,1.6277,-2.5388,-4.8703,-4.5925,-2.7783,-1.2528,-3.2507,-3.891,
5.1935,2.9534,11.8691,-1.0549,2.8808,-9.8512,2.7354,0.74702,-0.96224,-2.1478,0.039932,-6.2389,-4.2605,-3.8985,
4.8821,4.7047,7.3008,-1.9557,0.77995,-10.2242,-0.32106,-0.2619,-0.42281,-0.090522,-4.7829,-9.2392,-2.0769,-3.6643,
4.8297,6.5911,3.2473,3.7053,0.49173,-7.4416,-0.060829,-0.48715,-3.5309,-3.2186,-6.1837,-6.5157,0.21687,-3.6859,
5.5045,5.232,1.6065,4.447,1.9087,-2.1742,1.3889,5.3269,-3.3188,-4.4715,-4.8481,-5.1602,3.0966,-4.4284,
5.1742,5.4,0.063809,4.6621,-0.61594,-3.49,-3.0328,6.9355,-1.6734,0.13512,-6.4854,-5.8149,0.50022,-1.7526,
5.8274,6.0401,-1.3865,7.7566,-2.0255,-4.2451,-5.2612,-0.71173,-2.0552,0.60917,-8.5071,-8.8407,-7.7247,-1.6476,
13.9141,11.2215,2.7943,11.3888,8.9425,2.9997,-0.84793,0.53649,-3.6189,-1.5968,-5.8268,-9.0329,-6.5381,-3.2358,
16.6944,10.307,4.3141,4.1978,13.9494,0.16836,-0.073928,2.1913,-3.643,-2.2241,-3.3083,-6.804,-0.60198,-5.211,
10.3901,8.2424,-0.28356,-1.3563,4.4358,-4.1801,-1.5158,0.13163,-1.0138,-0.64439,-1.1816,-5.4314,2.8086,-4.416,
3.9819,8.23,-5.087,-2.2394,-4.9896,-5.8577,-1.907,-2.7686,0.975,-1.5698,-1.1109,-10.4084,-1.2165,-3.1874,
3.2613,3.3976,-5.7459,-10.7819,-8.5464,-11.773,1.5821,-4.5304,4.7731,-0.99347,-0.56164,-14.6039,-3.072,-2.9959,
3.3066,-0.42165,-4.1959,-15.1963,-9.2389,-13.7177,-0.68242,-2.5718,3.7634,2.6816,-0.76937,-12.0409,-2.1643,-1.1289,
3.1082,2.0138,-3.4622,-8.9823,-10.1308,-11.9307,-1.1234,-0.97125,3.5376,10.2334,2.1693,-2.6414,-1.0706,1.3489,
2.9217,-0.035244,-5.6646,-6.0328,-11.9331,-9.7686,1.8365,0.53329,6.2178,8.6551,6.3775,6.6762,-0.5244,1.7504,
1.3004,-1.4792,-6.7707,-5.1886,-5.9147,-4.844,-0.2021,2.4293,3.4344,1.3871,3.1025,8.2036,-4.3491,1.1632,
0.017048,-0.66751,-3.7134,-1.7443,-1.4625,-4.7948,0.050997,5.417,2.505,6.8475,2.6754,4.0959,-1.4371,2.2983,
-1.9122,0.33687,-3.4906,-0.19337,-8.6056,-7.8811,-0.91593,7.5021,-0.055442,6.4367,2.9968,0.95811,0.57736,1.1965,
0.37172,3.4497,-2.5582,1.0231,-8.8121,0.0636,-0.13807,8.2573,-0.77502,-3.8315,1.1298,3.5517,-1.6264,-0.56252,
-2.0605,3.2429,1.9338,3.372,-5.3911,5.3622,-0.61195,4.3876,0.23558,-9.8683,0.097908,3.8208,-3.9388,-2.9391,
-4.8294,7.3867,4.7103,9.9186,-2.6575,5.5224,-0.57524,5.0882,-1.7067,-3.4916,2.9846,5.0378,-2.2566,0.61167,
-8.6372,7.1847,2.2583,5.7083,-3.7031,3.9865,3.5569,5.9884,-4.7376,-3.041,1.6004,0.63794,-0.91571,1.2981,
-9.3238,7.9589,-0.52831,0.78607,1.0988,3.0239,8.4051,7.3164,0.12594,-5.5096,2.2273,1.805,1.3084,0.97925,
-9.4877,10.1324,-3.1482,0.97987,3.202,-4.1474,3.803,5.1897,1.3237,-4.938,1.8527,4.8297,0.50653,-2.213,
-12.0517,8.3194,2.5841,3.5724,-4.9441,-7.9961,2.8517,1.7451,1.0031,-2.9548,-1.3922,-3.4141,1.6812,-2.8033,
-15.9081,10.4711,10.383,11.3116,-10.1913,-2.4549,8.7064,5.7375,4.5581,0.35578,-0.10314,-5.8605,4.7136,4.8364,
-22.1845,7.4327,2.5292,8.2227,-19.2208,-4.7178,4.3276,6.3576,4.2846,-3.522,3.7594,-0.20627,2.9845,3.1004,
-21.5765,4.3355,-4.6122,2.6679,-21.6827,-10.46,-1.4754,7.1812,4.2687,-0.65932,3.7746,2.9398,1.1184,-2.1475,
-20.5227,3.3527,-0.23787,2.2671,-12.9097,-6.2172,-0.18185,8.9197,3.2895,5.406,-3.4411,2.0403,1.7745,3.5252,
-17.3634,0.74114,4.115,4.0591,-4.9045,1.8688,1.757,6.4565,0.1998,1.707,-6.6093,1.4357,-0.25996,6.206,
-5.4753,5.7579,7.9654,10.323,2.8611,6.336,-0.99949,5.3458,-2.4637,-1.0465,-3.5616,4.965,-2.414,4.1464,
-5.1466,4.4488,7.4877,6.3298,4.1364,3.064,-1.9036,3.0971,-3.7615,2.8729,-4.3116,5.6312,-1.3046,3.4159,
-13.0329,-1.6032,1.7353,-4.1733,0.5133,-0.9767,2.067,1.9469,-3.0543,5.5926,-4.5353,5.2933,0.21949,1.2823,
-16.8305,-5.6041,-3.4298,-9.9482,-0.24017,-1.6412,0.73791,3.0356,-1.1836,0.19556,-3.54,7.627,-2.4445,-3.3737,
-15.3385,-3.8218,-5.6343,-10.7978,0.25594,-2.9888,3.5859,4.7815,4.1898,-0.29834,-2.3635,5.241,1.0763,-1.2433,
-4.0543,5.8075,-2.6452,-7.9808,-0.48231,-3.0504,9.3963,6.6637,6.59,3.8169,-2.4627,-1.099,7.5192,5.8212,
4.1432,6.1819,5.9492,-4.8508,-6.4794,-6.0009,8.1096,6.9868,6.9175,3.8289,0.33618,-1.274,7.3091,6.6767,
-4.5418,-2.143,6.3154,-0.94415,-15.9728,-9.2565,3.5255,6.3264,5.2974,4.3223,2.4854,-1.9207,3.7368,2.6609,
-11.018,-3.4604,-3.2223,2.4867,-19.8349,-2.9163,-0.54267,5.4651,2.0872,1.1706,-2.9666,-8.0722,-0.8255,-1.3553,
-2.1615,0.12189,-3.9931,3.3021,-16.7159,5.4536,0.93638,6.1013,5.8186,1.1006,-2.306,-2.7669,1.1525,0.17247,
1.3424,-0.36759,-0.37929,2.6218,-16.6775,2.2341,-1.0482,3.8073,2.5772,-0.89383,-1.2035,2.2196,-1.809,0.64429,
1.2614,3.5109,4.9461,6.3204,-9.8923,4.5102,1.4248,4.5427,-0.46994,1.5699,1.2784,-3.2167,-4.111,-0.84109,
1.1862,6.1927,6.0956,6.4236,-7.3701,7.6145,1.8217,4.2701,-0.44174,4.8506,-0.24415,-4.9515,-3.382,-1.754,
-0.8134,4.3751,1.3913,7.0023,-13.677,7.1574,-3.1081,6.4243,-2.8256,2.1492,-7.4601,4.0225,-2.215,-0.20276,
0.44069,0.01481,-4.7177,4.413,-19.8458,5.0407,-1.2344,7.2441,-2.897,0.33307,-5.8077,4.0221,1.051,2.4605,
4.9935,0.73682,-5.6399,-3.3236,-17.4502,1.6048,0.52645,1.2654,-1.036,2.4822,-0.39753,2.0936,1.7108,2.0719,
3.0069,5.7545,-4.0965,-2.4015,-12.3056,1.7493,-3.1203,-1.4618,-0.73308,2.574,-1.0968,3.173,3.7775,-0.2218,
2.3446,7.3374,-3.3683,4.0095,-11.5673,5.5011,-1.9688,3.9285,1.7215,-3.365,-3.4411,-1.8376,5.4791,-0.69043,
2.9268,1.3531,-3.4076,-2.257,-14.9711,1.0733,-0.64582,4.8981,-0.55142,-9.1886,-4.44,-10.1635,-1.8395,-2.8186,
2.9924,-2.8252,1.8587,-9.5932,-16.2417,-4.5345,2.5262,4.363,4.5436,-0.20141,0.8879,-8.8306,0.92217,1.4481,
0.64369,-1.4504,2.4701,-9.7405,-14.5441,-6.9135,3.098,4.8246,8.3683,7.7649,3.0042,-2.7571,7.8567,4.9766,
-3.7339,0.082671,-2.4986,-10.1202,-12.2252,-7.9452,1.4656,5.4992,5.4559,9.2269,2.3418,2.2288,6.4212,2.2677,
-6.8841,0.55987,-4.759,-4.6925,-9.5637,-3.6119,1.3779,6.1334,4.6463,10.1194,0.75482,6.4336,3.1436,-0.2783,
-8.1583,-0.19708,-5.1964,1.1327,-6.3388,-0.74408,-1.8383,2.6319,0.75215,3.4867,-2.9059,6.2886,1.7497,-0.98496,
-5.9814,-2.8366,-4.1615,-1.1047,-6.6812,-3.3508,0.44143,1.7508,2.8764,1.59,1.3661,8.0802,4.7785,1.2435,
-9.7203,-4.8355,-4.1532,-1.7613,-11.342,-5.8008,-0.30842,3.333,2.9448,5.11,2.007,7.8363,2.3221,0.44556,
-11.306,-0.92976,-2.6985,3.8878,-13.7947,-3.7653,-5.3509,2.4099,-1.329,2.6345,-2.6925,4.7153,3.3883,0.17809,
-7.4944,-0.63278,-0.36719,3.8957,-4.5311,-0.40613,-2.8609,2.5065,0.43772,-0.17491,-2.2902,0.81719,5.8364,2.3368,
-8.2496,-2.7644,-0.58658,-0.91733,2.2482,0.34114,-2.4483,2.1151,1.6167,0.076555,-2.8757,-1.8834,1.8708,0.99129,
-11.1293,-4.527,-1.9974,-0.38058,-3.6715,-1.1258,-1.8192,1.5061,1.0376,0.071732,-1.7395,-5.1451,2.2402,-0.51467,
-7.0868,-0.88069,-1.8773,5.909,-4.8968,-0.57565,-2.1918,2.3798,-1.917,-5.7169,0.29374,-10.1383,2.5884,-0.9655,
2.7382,10.5006,6.1888,13.9904,7.2069,7.8948,-1.3376,4.8883,-2.0427,-6.579,0.034921,-6.8792,-0.7006,2.2257,
2.3329,10.1115,9.9153,11.9461,9.908,11.5185,0.91181,0.49768,-2.1616,-3.0507,-3.1007,-2.3691,-2.3458,1.3692,
0.74667,5.6484,10.7662,10.265,11.7237,10.3454,-0.5887,0.94975,-2.9957,0.98869,0.45983,1.6299,0.68748,2.251,
0.94329,3.1404,5.5409,10.3725,10.7793,5.6273,-6.097,2.58,-2.575,1.6523,1.1556,-2.0833,-1.5229,1.8749,
-2.2468,4.6387,-0.81754,9.9906,5.5532,6.4945,-4.5263,4.1124,2.6407,2.758,-1.5653,0.21087,-0.22672,2.4853,
-6.4508,2.9141,-9.4451,8.4273,0.39933,7.0687,-2.8085,2.4194,1.036,1.1462,-1.9538,8.3929,-1.1774,-0.073909,
1.8905,3.4626,-6.2269,11.0552,5.919,5.9217,-0.95276,0.58703,-1.1949,0.83694,1.2974,9.5766,-3.7579,-0.79237,
7.0795,6.1472,4.7518,12.8022,5.5641,3.1565,-2.3416,1.034,-3.0516,-0.17737,-4.0833,5.1458,-4.4961,-0.26267,
2.3164,3.8501,8.805,7.6953,-8.8698,-4.2642,-3.1655,3.864,-1.4222,3.2073,-7.6947,0.98023,-2.2986,-0.7293,
1.6955,2.1733,5.8666,0.0027467,-13.0376,-7.8643,-2.9755,2.6683,-0.37257,4.4611,-3.8586,-5.3451,-0.71438,-2.6133,
7.3781,3.9709,3.5862,0.0023526,1.8447,2.7303,-2.3148,0.097829,-0.83284,0.33681,-0.25283,-3.5784,-1.1537,-1.4928,
4.7662,-3.2572,-2.1726,-0.2383,5.7109,7.6281,0.47515,-2.0772,0.42242,-2.8164,-0.47863,1.2161,-1.8074,-1.6442,
-0.82238,-4.99,-6.3806,-1.1883,-1.8626,4.7599,2.8568,2.3858,1.3614,-2.1655,3.4065,0.66073,2.1575,0.86454,
-3.1834,-2.2802,-3.1055,-2.5631,-4.6432,1.1,1.2393,1.2785,-2.5769,-5.8917,4.1662,-4.1994,4.9203,-0.15143,
5.2028,0.74865,8.65,5.3035,4.3125,6.8191,2.6112,0.23793,-2.4223,-3.1281,1.988,2.8015,2.6969,-1.5881,
5.1313,-0.018944,9.3361,9.0829,11.0434,9.0608,-2.125,0.94679,-7.3384,-5.1098,-3.1927,5.2847,-7.3471,-3.6622,
-0.47895,-4.8387,6.8475,8.5377,10.3806,8.5174,1.8587,5.2281,-3.0419,-5.2854,2.7832,3.0392,-3.0496,0.89604,
-9.1273,-9.3687,-2.7224,3.6871,-3.7396,5.1138,2.2296,2.9862,-1.8951,-1.1119,3.0981,1.893,0.025398,2.7705,
-7.6158,-5.9145,-5.4511,1.5377,-10.7461,4.807,-1.7606,5.6995,-3.7096,2.3293,0.50213,4.1895,0.50581,6.4606,
0.072212,-6.5233,0.17885,0.96325,-6.2447,1.6267,-3.101,6.8036,-2.5229,-0.22036,0.47223,4.4203,1.44,7.519,
4.6474,-7.8193,4.7472,3.5568,-1.2905,-0.15832,0.21833,2.2983,-1.6484,-1.4122,0.2027,2.4681,0.14855,3.9346,
3.4045,-4.9398,3.4982,0.93301,-0.24897,1.2972,3.0975,-1.6963,-0.5854,1.0824,-0.29162,1.8379,0.62134,-2.5682,
3.2004,-4.1613,-0.08587,-4.9073,2.6583,-0.70859,-1.4269,1.7797,-1.5144,1.4996,-0.2739,3.1736,1.5482,0.47819,
0.839,-10.9017,-3.214,-8.7105,6.5959,1.0209,-1.5825,7.2168,2.1917,1.1685,3.8401,3.2244,3.1427,10.3317,
-7.8882,-15.0681,-5.4315,-13.0083,2.8259,0.47751,2.851,3.4091,7.845,1.0986,10.3584,2.5488,6.3284,7.7833,
-8.3792,-13.1997,-4.6237,-11.264,-1.682,-5.3357,0.26984,0.79444,3.5179,-0.41359,8.2906,1.9139,4.9844,0.56789,
1.7647,-14.3361,-0.0077,-3.357,0.82885,-4.0515,-1.6748,4.6034,2.3427,4.4317,3.4546,2.7632,5.1675,2.9442,
5.7562,-11.7887,5.5364,-2.9151,-1.39,1.2533,-2.7796,2.1576,3.8889,1.9967,1.5601,0.42776,6.5446,4.4543,
3.2414,-5.0556,2.5529,2.3217,-0.58351,3.3475,-2.8535,0.82305,0.5228,-1.7383,-1.6667,4.0177,2.0544,1.5362,
1.6011,-7.1624,-7.7232,9.4132,3.7903,7.4849,-0.75413,2.7023,0.0094974,4.1505,0.84386,9.5613,0.0033783,2.8903,
0.78171,-9.8661,-5.0907,4.7511,2.8395,7.7588,-3.36,-0.11137,-1.6783,2.6962,3.9263,1.5158,2.6543,3.4397,
6.5196,-4.9356,7.2661,0.60941,4.1152,2.9547,-1.2304,0.85941,-1.0959,-4.6962,1.2803,-2.4318,2.9767,1.7869,
7.8154,-4.8807,1.7682,-3.0428,0.735,3.9825,-0.9154,0.56664,-2.2352,-6.1019,-4.8223,2.2936,-3.2272,-1.9355,
3.2492,-3.8645,-4.8453,-5.0289,-5.3346,6.877,-3.0296,1.256,1.0324,3.1823,-1.3994,0.95119,-2.7926,-4.9524,
4.9824,-3.6331,-2.6264,-4.2457,-5.0146,3.0899,-0.43773,3.1084,3.3806,4.4372,3.5048,-5.3729,-1.6612,-4.6557,
13.3603,-3.8968,-5.8431,-3.0264,-3.7496,2.4228,-1.3756,0.030046,-1.6427,-1.131,-2.4899,4.1088,-3.0075,1.8903,
13.5228,-2.6989,-7.9028,-4.7733,-2.0786,6.6155,-2.2571,-2.864,-2.0263,5.2031,-2.3402,9.6466,1.5115,4.6692,
2.8293,-2.2962,-5.2593,-6.1739,0.69745,6.4598,-2.8448,-0.040881,-0.6997,7.5423,2.3797,1.1143,1.662,-1.1543,
4.8289,0.49288,-4.7025,-7.4904,2.3431,6.3134,-3.3973,3.0948,-2.8266,-0.38184,2.4776,4.6626,-1.571,-0.36193,
14.4216,-0.25959,-6.5895,-10.1745,2.4434,4.2474,0.42199,1.7038,-0.0059534,-0.59989,1.1242,9.9265,3.1025,4.7215,
8.4941,-4.8238,-7.8818,-10.2874,1.0915,-0.5872,0.63764,1.3606,-0.24656,1.6053,-0.14859,1.8591,4.6036,-0.14157,
0.27171,-5.0163,-6.9265,-10.1521,-4.2766,-0.55197,1.0813,0.79708,-1.678,-1.8655,4.1986,3.1938,4.3274,-4.9538,
2.4248,-1.5816,-4.3416,-8.3374,-8.1171,-2.6878,-1.6344,-1.9021,1.5564,-2.4767,7.0804,8.5456,3.8266,-4.4154,
4.9306,0.68225,-6.2505,-2.2938,-6.425,-6.6241,-9.0079,-0.58288,0.25792,-5.4614,3.04,3.9357,-0.98209,-1.9811,
5.8396,1.3642,-11.9014,-0.95133,-2.4246,0.28083,-2.4424,4.5133,-2.4091,-4.8927,1.6523,2.0119,2.2099,4.1634,
6.4536,0.80042,-14.5613,-5.7145,0.61342,4.1208,2.5249,4.243,-5.1566,-3.6348,-1.8209,-1.4828,4.9698,0.057167,
10.8871,3.6449,-5.493,-3.9254,8.2898,1.9454,0.44519,3.0241,-0.99084,-3.4167,-1.2297,-2.8401,4.1892,-7.659,
14.0902,3.9082,0.13927,-5.1361,2.4894,-0.099994,-0.063912,3.8065,2.4426,-3.6941,-1.1559,-0.74152,2.4916,-4.3074,
7.9419,2.7096,-2.7614,-8.6846,-3.4444,1.8344,2.8322,2.614,-2.5244,-1.0621,-3.015,-0.21487,1.378,-1.6386,
-0.72905,0.61903,-0.66727,-8.1633,1.5828,-3.0961,7.0013,-2.3629,-1.4089,0.4481,1.0226,-1.1661,2.7418,-3.4683,
-2.8549,-3.034,0.5776,-8.3968,-5.984,-12.3104,3.9297,-1.4982,1.8087,-4.1585,3.1304,2.5189,0.40769,-0.12715,
-0.031847,-4.057,-5.0004,-11.9901,-9.2401,-6.9922,0.56062,5.0994,3.3876,-1.7396,2.2194,8.8759,1.1068,3.9781,
-1.2352,-5.0184,-12.6546,-15.3681,5.4143,3.3092,2.6961,0.69609,0.05134,-0.43042,0.39902,5.2098,2.7272,2.0521,
0.28491,0.10316,-11.4132,-9.6255,19.1894,6.003,3.0165,-1.756,-3.8084,-1.8506,-3.4811,-2.8153,2.0818,1.9292,
-0.21434,1.543,-3.4978,-3.2636,9.8429,2.7505,1.8714,2.6879,-1.1695,-0.77549,-3.7544,-4.0929,0.51044,-0.59686,
0.28068,0.48633,5.3894,1.7531,5.3962,-0.30635,-0.65119,2.0444,-1.5815,-0.72873,-2.0826,-2.4008,-2.412,-3.9353,
7.7356,0.69811,8.681,1.4065,15.9182,-1.4933,-1.8174,-3.6218,-5.102,-3.8185,-1.7172,-4.9083,-5.4008,-0.084197,
9.9228,-0.54884,6.9551,-1.8111,12.7942,-2.1268,2.3892,-4.1277,-2.6265,-2.3843,3.9297,-3.4087,-2.9078,2.5722,
1.1325,-1.9619,1.2354,-2.6666,2.8677,-1.9994,2.728,-3.3978,-1.5048,-1.7591,4.1761,-0.79386,-4.6613,-4.3308,
1.0648,1.0481,0.67909,0.86765,5.1055,-0.91535,4.0104,-2.2299,2.4416,-0.20752,2.479,-1.2284,-4.3819,-2.6249,
3.8932,0.50302,1.1205,-4.4868,12.0303,-2.7884,0.39553,-4.024,1.3315,1.7334,2.8125,-2.1183,-3.1548,0.4253,
0.52636,-4.1067,1.7764,-10.2434,8.1752,-4.7905,-4.2077,-4.9877,0.046077,2.8344,5.295,-1.2686,-3.6887,0.15858,
0.012612,-5.7887,2.152,-9.1466,1.8999,-4.0209,-0.58103,-3.7248,4.8638,1.2179,4.9771,-0.71028,-2.5033,0.14884,
3.3858,-2.5489,-1.8335,-3.7771,9.9806,-0.88758,-0.54617,-2.5369,1.1975,-2.7116,-2.07,1.2605,-5.7275,0.13991,
6.5572,0.49659,-4.1341,1.2698,17.5769,3.0221,-0.99534,1.4717,-1.2845,3.2361,-0.98191,8.8977,-9.7222,2.5421,
3.7536,-0.97946,-8.2244,-1.6985,9.2915,-1.9795,-0.93562,-1.0268,-2.1713,1.5957,2.4515,5.9537,-11.0671,0.94331,
0.39489,0.2846,-8.4538,0.090657,6.0824,-3.548,1.7716,-2.6524,0.61011,-4.0436,3.5097,-0.91147,-7.2695,-1.2824,
-6.1363,-2.866,-4.3312,4.1826,3.0664,-1.6479,1.4244,-1.288,0.33253,-2.5957,2.0938,-4.9541,-7.5563,-5.3029,
-8.6606,0.19806,2.1952,5.3774,-0.97398,-0.10273,-1.0712,-0.72874,-0.65174,0.45207,2.4501,-0.8005,-9.5135,-3.5389,
-5.4894,1.3915,5.1965,1.4394,-2.1208,-6.6045,1.6441,-4.7828,4.931,-0.29842,3.5084,-0.99344,-4.8453,-0.67499,
-2.5087,-1.3433,2.2339,2.0761,-1.2705,-10.3058,6.125,-4.7366,8.2508,-0.039314,4.9849,-5.9953,-0.45702,-2.8039,
-5.7327,-0.29842,1.1355,4.8441,0.73397,-5.3487,1.4192,0.36831,-1.4033,-2.4471,5.1682,-1.2972,-3.3217,-2.6357,
-7.7991,2.6118,8.7804,4.0713,3.1003,-0.20729,-4.9327,1.3103,-7.1035,-2.7824,0.51954,3.6011,-5.0508,-0.54909,
-6.1261,3.6601,6.5661,5.9964,-1.1833,1.0102,-4.3956,0.5081,-3.0621,-1.4104,-4.0911,1.698,-6.9171,-3.6499,
-5.5173,1.2711,-1.7818,8.2875,-7.1381,1.6727,-0.99857,2.647,-0.70941,-1.567,-1.6767,5.2113,-6.7433,-0.77955,
-5.9092,3.3645,3.8692,11.4061,-2.1301,6.634,-0.69768,8.0323,-1.8717,-2.6778,0.59347,8.5145,-4.651,6.2571,
-6.7599,6.2956,12.0727,15.301,2.577,5.9946,-1.3787,7.7908,-2.4827,-1.7942,-5.4677,8.7265,-4.6134,4.1944,
-8.0413,-0.10787,6.7688,12.214,-5.0492,-4.2468,-0.090937,0.33374,-2.0926,-0.48105,-3.9346,5.5516,-5.5416,-3.5288,
-3.2207,1.827,5.8805,11.9629,-4.7464,3.2386,-0.56764,2.2417,-4.8593,-2.3806,-0.80619,-2.0125,-6.1732,-3.7992,
0.10576,9.189,10.1072,11.9682,-0.36408,17.1443,-0.29239,7.1691,-5.7728,-5.853,-4.8554,-4.5431,-6.0436,-1.4019,
-5.9259,5.5044,6.3675,5.2244,-8.2962,15.0311,0.93022,4.0876,-4.2214,-4.2967,-5.2872,-3.5474,-6.4041,-6.3797,
-7.0166,0.8358,5.0216,8.7678,-9.7266,5.9345,-0.089921,0.46791,-3.9681,-2.1107,0.33267,-3.8165,-6.5018,-4.0683,
-2.98,0.062523,8.3355,14.7494,-4.5631,8.7117,1.121,0.68103,-3.9708,-2.2253,0.5539,-3.8282,-3.4604,0.27297,
-1.8373,5.3614,9.2816,11.9362,0.049053,14.4555,0.089411,5.4609,-2.7686,-4.02,-4.782,-2.1527,-3.7351,-2.1535,
-1.7273,10.3422,7.2782,8.3273,5.8305,14.5523,-0.88005,6.0969,-1.6384,-5.2248,-3.531,-3.4696,-9.2958,-0.09636,
-3.3104,6.5886,4.6728,8.0691,4.7577,10.0637,-0.10435,3.08,-1.7811,-3.706,0.29632,-7.8407,-10.4248,4.4892,
-5.5219,6.6752,3.9105,9.9951,1.5802,12.8343,-0.58002,2.8952,-1.6742,-0.59159,0.27854,-3.0319,-7.3892,2.2916,
-8.8063,6.5154,0.54219,6.2621,-1.6483,16.1619,-2.7146,0.55206,-1.333,-3.2074,-1.9076,1.7295,-9.5972,-3.3897,
-8.2779,4.1963,-0.93661,3.4758,-8.7803,10.8534,-4.9619,-0.44493,-2.2169,-6.8714,-2.275,3.5539,-13.3597,0.67005,
-3.6839,0.81151,-2.5676,2.0624,-11.8689,8.9973,-3.4589,2.7153,-0.39668,-1.8793,0.030619,1.6534,-10.8709,6.1735,
-7.8011,-4.0579,-7.7162,-5.2922,-6.818,12.7958,-1.8055,2.0699,1.5553,2.5717,2.4389,3,-6.3622,2.911,
-11.6716,-3.3323,-7.253,-13.1696,-0.62453,12.0278,-0.2507,0.98165,1.4618,3.3815,6.1492,4.7485,-4.5345,4.1824,
-6.6328,-3.1326,-6.8176,-15.7536,-4.9256,3.1117,0.72844,-0.52328,3.7844,0.28636,7.2263,-7.1054,-4.2622,1.5211,
-0.93239,-1.0166,-9.3013,-8.0602,-7.5224,1.9604,0.20257,0.47176,5.9673,0.26895,1.9722,-9.0899,-6.4173,-0.98055,
-3.5275,-2.6424,-5.6097,-2.9968,-4.9014,3.5305,-3.425,0.68488,0.548,3.8682,-4.6536,-0.10834,-10.6111,-3.0904,
-4.7624,-2.966,3.8861,-4.263,-3.6432,-1.9842,-0.80915,-1.7666,-0.44898,3.6364,-1.0002,0.38032,-9.0108,-5.3154,
-8.333,0.104,0.76042,-6.8998,-6.3171,-1.8652,1.6495,-6.9632,-0.90398,1.0076,0.023713,1.8033,-5.5776,-1.1405,
-10.2429,2.5086,-5.0696,-7.9318,-7.3841,4.0316,2.997,-7.0271,2.0426,10.1064,0.50445,10.3724,-0.90438,5.1951,
-5.0488,1.6349,-4.5246,-2.8764,-6.218,-1.2718,-1.2804,-5.8824,2.1612,11.1875,1.1973,5.6525,-1.5732,0.78584,
-0.88976,3.9467,-3.771,3.5629,-3.435,-2.642,-0.23944,-6.0116,-0.86122,2.3208,3.0534,0.49287,-3.8892,-3.5999,
-9.2723,1.541,-9.5705,-4.6048,-4.9159,0.16787,4.3544,-8.3022,-1.5322,-1.4336,2.6295,0.22256,-5.3429,-1.2145,
-7.5111,2.1714,-8.2734,-8.9078,-5.3443,-0.083167,2.4059,-5.6349,0.72887,2.7498,1.2664,2.8603,-1.4073,2.4733,
3.5451,3.4872,-4.4023,-1.6247,-9.3617,-4.8987,-0.14877,-4.3327,0.20298,0.65681,2.1545,2.6885,1.5699,-0.084949,
1.8861,1.3498,-3.1743,-2.9734,-7.8362,-2.6765,5.6447,-5.519,2.6009,-4.2033,2.5072,0.59895,-1.4168,0.88401,
-7.1451,1.5097,-4.1887,-11.2312,-1.8224,0.61753,5.547,-5.4289,5.0964,-2.7458,3.5621,-1.1242,-1.0909,1.5543,
-5.5113,1.178,-6.5891,-10.7985,-7.2569,-3.5171,1.1166,-5.8263,5.5133,1.5161,5.5173,-0.81556,4.518,0.73748,
-0.84211,4.9639,-3.7834,-4.3658,-9.7133,-3.7882,2.978,-2.5844,2.7726,0.461,2.2944,1.1613,3.2828,2.6217,
-5.853,2.0147,2.4694,-3.8626,-9.8539,-3.8017,5.4507,-0.25994,2.847,-0.28979,-0.012648,-3.0055,-0.047431,1.2593,
-6.2248,-3.1674,5.4547,-1.4617,-10.9496,-3.815,6.3289,-1.4496,7.7379,7.1994,4.0855,-2.1022,3.0889,1.4247,
-3.2002,0.6381,0.065718,-0.16872,-8.1235,-4.7909,2.3338,-3.5318,1.248,7.0089,-1.7028,0.19351,3.6269,1.5806,
-0.59804,3.9738,0.061775,0.80527,-3.7797,-1.129,3.6396,-1.3917,-1.7194,2.2496,-3.5293,3.074,4.3732,1.9677,
-1.7674,0.11996,-0.1829,2.9261,-4.2758,2.5537,1.252,-3.4774,-2.3391,-1.9828,-2.1123,0.23797,0.9773,-0.31994,
-2.8662,-0.61014,-0.41289,5.4021,-0.40384,1.1956,-0.99226,-4.474,1.8986,-0.17658,-2.2265,-4.8375,2.6059,-1.5056,
-5.1044,1.3547,0.093815,3.1498,2.9944,-0.80431,-0.45079,-3.2413,2.2666,1.2803,-3.0572,-4.5473,3.4139,-0.93331,
-2.8699,3.2016,0.57012,5.3709,3.2971,5.5105,-0.90568,-3.5287,-4.1359,-2.171,-3.3557,-0.89999,-3.0579,-2.8055,
1.3994,1.3225,1.259,6.2537,2.3762,6.3849,2.7639,-4.5225,-2.2007,0.61059,-1.4674,-1.5691,-2.6333,-2.396,
1.7976,3.6535,-0.26253,0.094153,-1.1406,0.69938,2.5983,-2.8047,-0.14028,3.9482,-0.41478,-2.921,2.3452,0.15814,
5.064,5.8442,1.6812,-2.3219,0.85577,3.0673,1.4783,-0.2265,-1.096,0.3366,0.57374,-2.746,1.2404,-0.81591,
9.8218,4.7706,-2.0346,0.46855,8.2762,7.463,2.1125,-2.3821,-1.2712,-1.8523,-1.6298,-2.3402,-1.9675,-3.9,
2.725,4.7254,-10.3487,-0.76439,4.1642,2.436,-1.1473,-2.962,-2.4002,3.3201,-5.147,1.4156,-0.16223,-1.4968,
-4.9105,2.7548,-8.5227,-2.406,-5.4854,-2.7717,2.0548,-0.61493,-0.086791,5.2902,-1.223,4.4639,4.427,2.2082,
-4.1337,-0.78513,1.6298,-2.2614,-4.6746,-2.6056,5.3057,-1.5421,3.2926,-1.2939,0.77834,3.7139,3.1973,0.14772,
-3.6445,-2.907,6.5935,-4.777,-1.7423,-3.6543,0.89025,-2.6547,1.89,-1.457,0.97284,-0.12411,1.8004,0.38006,
-1.7391,0.88288,2.5825,-4.2494,0.048999,-4.158,0.11348,1.1196,-0.87448,0.31718,3.5656,-4.696,3.8615,1.5621,
5.1142,5.1682,1.9456,2.7544,0.52845,-2.9446,2.0349,2.0167,-2.2683,-5.486,5.7622,-3.9323,2.666,-0.45983,
6.0126,-1.1674,2.0698,4.7583,-4.083,-1.0807,-1.2207,-5.5761,-1.8912,-6.8445,2.283,-4.9016,-2.5557,-5.0115,
7.0979,-1.5795,2.4278,0.13427,-4.3202,6.2147,-2.5935,-2.8312,-1.2956,1.7611,0.69999,-2.1972,-0.47436,-2.7829,
7.154,3.8179,0.35394,-3.7302,-7.9174,6.3243,-0.99163,2.159,-5.0742,3.5836,0.65799,1.7911,2.4466,0.27662,
6.4837,2.3835,-0.87259,-0.85527,-12.9859,0.40119,2.2014,0.82459,-5.0107,-1.6926,-0.58679,0.96069,2.0589,0.019055,
8.5051,2.2407,1.1082,4.9809,-8.8321,2.3051,2.069,0.77488,-4.7103,-3.0375,-2.4795,-0.54344,0.97123,-0.94619,
7.5126,4.0343,-1.3687,6.128,-2.9998,6.0229,-0.46546,-0.23571,-6.3561,-2.8551,-2.331,4.7916,-0.05114,-3.2998,
7.544,6.2026,-0.80484,6.7245,1.0364,7.108,-0.4373,0.74253,-2.6001,-3.1659,-1.227,9.807,3.8081,-2.1377,
14.081,3.661,0.44897,0.7776,1.6973,7.4047,-3.0624,0.93918,-4.1315,-2.2528,-2.3585,2.7108,2.3745,-1.2863,
14.9232,0.3081,0.18084,-11.5618,-1.0558,2.8628,-0.22732,-2.2509,-4.6068,-1.3945,2.8445,-5.8877,4.4015,-2.4146,
6.3152,2.218,0.65215,-9.9035,-0.51031,-1.6475,4.1249,-2.1156,-1.92,-1.793,8.4586,-6.4986,9.4398,-0.34134,
4.0079,-1.2897,1.0952,0.33141,-2.4077,-2.5127,-0.46117,-2.4708,-2.2865,-3.6134,3.6126,-8.0371,5.9811,-1.7669,
12.9267,1.6804,7.7782,11.399,-2.2634,7.7616,-4.7721,-1.8404,-2.6315,-1.9506,0.98544,-4.1802,1.7661,-3.5888,
15.0434,8.3283,13.5782,15.0536,3.6572,13.5622,-3.0397,-0.28396,-1.5095,-3.762,0.92654,-0.55512,-0.2683,-5.3019,
8.1148,0.83869,7.2199,5.2323,-0.66006,2.3846,-0.20576,-2.918,-0.69602,-4.2591,-4.1907,-6.0654,-1.4575,-5.7072,
7.1459,-4.9962,0.037799,0.097658,-8.8152,-1.6149,-3.5679,-3.7068,-2.5825,-0.14721,-8.2776,-7.6297,-3.2978,-3.4361,
10.0916,-0.84005,0.035531,4.9125,-4.9118,4.7485,-4.3177,0.37199,0.94695,1.7898,-2.9602,-0.90494,-0.20786,-0.8198,
9.2452,-0.066751,-2.1358,4.3768,-0.51974,-0.59805,-3.8176,-1.3376,1.613,0.47714,1.3143,1.3185,1.9738,-1.9759,
14.4748,1.8652,-1.0435,6.5241,7.224,-1.5263,-3.1069,-2.2219,1.0341,2.3769,1.7176,0.27485,1.3732,-0.41132,
11.9191,-1.3797,-0.73994,4.9273,7.9958,0.73447,-2.1976,-1.8476,1.6954,2.4753,-0.55464,0.017391,3.46,-0.62761,
4.4557,-4.1892,-2.1416,-2.1165,1.2498,-2.6838,-3.0293,-0.29024,-0.81668,2.327,-1.4855,2.4267,4.6988,-1.554,
7.5622,-3.4562,-1.5314,-7.2924,2.1385,-5.4151,-1.4016,0.69127,1.6427,9.8999,1.9779,0.83507,2.0066,0.46716,
11.9294,-5.1768,-0.95733,-9.7467,3.9386,-4.608,0.61096,0.16764,2.9901,10.27,0.89513,-1.143,0.92207,0.43936,
10.7317,-4.8662,0.064436,-6.7518,4.1842,2.8989,-2.8002,2.0858,-1.0457,-0.46908,-4.4612,4.2278,4.2412,1.3773,
7.6772,-1.1997,1.9888,-2.4903,4.8975,3.6892,-3.5965,0.51482,-1.4648,-3.3335,0.14523,2.0459,4.9506,1.2947,
4.3245,-0.64582,0.42318,-1.377,-1.6629,-8.1013,-1.9344,-3.3725,0.069306,-1.2053,4.9568,-4.8253,-1.131,-3.1213,
5.2703,-0.84804,-0.80751,2.3211,-8.0711,-11.2306,-1.0955,-2.4472,1.27,-2.3378,2.9721,3.8999,-3.7143,-4.1393,
9.2922,1.1308,-0.27689,6.5203,-2.7663,0.048288,-1.9938,-0.37241,1.194,-2.6797,-0.58042,9.4503,-4.4555,-1.4811,
8.9759,4.1967,-2.9116,6.8523,2.4611,1.7324,-1.633,-0.5908,-3.4571,-1.3138,-3.6789,2.376,-5.3932,-0.66908,
9.4014,3.4627,-0.32655,7.8871,1.3494,-4.1559,3.2855,2.3365,-2.768,0.21103,-2.9764,-1.1413,1.1966,0.8171,
11.7294,0.36243,2.5851,7.4139,1.2684,-4.8709,0.67821,3.1606,-0.19135,-2.6937,-3.2798,-3.001,0.64292,0.76807,
10.5437,2.2689,1.4661,6.9691,1.6742,-5.0606,-2.7369,3.4529,1.7483,-2.5321,1.7377,-3.3028,-1.3239,1.6863,
4.3677,0.92768,-3.2014,1.0076,-3.0053,-6.4439,-3.7778,2.5231,1.4022,0.75311,4.2848,-2.8635,1.8888,1.8263,
2.6591,-2.5022,-3.0095,-5.3196,1.0312,-2.6831,-2.587,3.3353,-1.0923,3.6002,1.1354,5.0209,1.7757,0.75265,
4.6692,-4.5212,-0.65931,-9.0978,5.5486,-2.763,-0.26264,2.4123,-0.7853,2.1789,-1.5843,10.2632,-0.018036,-0.97973,
7.0399,-1.1167,0.58531,-3.0086,3.0468,-3.8023,-1.4519,-0.8657,0.94882,-0.60315,-1.7299,2.1759,0.70618,-0.68021,
9.2688,1.1192,0.79093,2.7153,2.1408,0.041003,-6.9087,1.8376,-1.2775,-2.7363,-1.3854,-0.60601,-2.4699,0.56566,
6.7847,-4.2499,-4.0766,-3.2319,2.0126,1.0031,-7.9397,3.6557,-4.5746,-3.0539,-2.7479,2.805,-3.7673,-2.842,
5.1728,-4.7182,-5.0373,-4.7252,2.1328,-1.7086,-7.2224,2.2311,-5.5054,-1.1834,-4.7526,1.4314,0.5561,-3.3949,
9.6827,-1.5426,-0.87863,-2.0316,0.076649,-1.1242,-2.4507,1.6153,0.60947,1.2977,-2.0573,-1.065,2.9329,0.6652,
15.1273,-2.1734,-0.10301,0.25991,-1.1332,-0.33338,1.7937,1.7594,1.7777,-3.3594,-1.6925,-2.6879,1.0697,0.38432,
18.317,1.5724,2.0723,8.1981,9.2991,1.8558,-0.48309,2.3767,-0.49808,-2.9169,-2.7962,-3.7319,2.2108,0.1203,
11.1924,1.719,0.74316,8.911,10.4279,1.503,-2.1413,0.54686,1.219,0.39114,-2.3875,-2.3032,2.3191,-1.0922,
1.3621,-3.6865,-3.64,1.6277,-0.80284,-0.99707,-1.0488,-0.45005,2.11,-1.5603,-1.2801,2.1736,0.25153,-2.4727,
1.7621,-8.2858,-1.9756,-5.2187,4.0658,-3.3476,1.9065,1.5054,3.4294,-0.50258,1.207,2.5253,3.1287,-0.87832,
5.031,-4.8964,0.55334,-5.8692,7.6785,-2.1826,-3.9923,1.4153,3.7058,3.3842,-0.31141,-0.51849,3.9056,0.62087,
-2.2607,0.941,-2.131,0.99045,-6.8822,-2.2927,-10.7431,-0.83925,2.2782,3.4221,-1.9799,-0.24641,-1.3905,-0.62168,
-3.0894,-0.079783,-0.075367,3.8231,-15.749,-4.5657,-2.3857,1.1393,4.5516,4.6626,1.0309,-0.71356,-0.82509,-1.5487,
6.9781,-3.2083,-1.2759,-0.50389,-0.7041,-3.0867,3.3013,-0.13412,-2.2292,2.2134,-1.2003,-5.7327,-1.9811,-2.6608,
15.9599,-1.3285,-0.95793,-2.1604,13.4382,-2.1781,4.3085,-2.2952,-4.2641,-1.5343,-0.88689,-7.0755,-2.1028,-3.706,
20.3043,0.67915,5.3658,-1.5491,26.7319,-10.7243,4.0497,-2.6397,-2.0803,-7.2271,1.0943,-8.5794,-1.9768,-9.2685,
26.7992,3.5309,7.4545,-0.97375,39.2279,-12.491,7.6631,-1.9994,-3.4018,-6.3111,1.0286,-9.0285,-1.3763,-8.7124,
23.2629,3.8012,1.2224,-0.91556,50.9743,-9.3312,9.6137,-2.843,-3.6794,-2.5582,-1.443,-9.9328,0.15279,-5.2973,
11.744,5.0192,1.6312,1.5497,36.7083,-10.2178,5.6627,-1.2264,0.39755,-2.8868,-0.8747,-5.9626,0.1434,-2.5691,
6.2188,2.3081,2.9794,0.010718,28.7215,-17.7992,1.4663,-3.0813,0.85586,-5.6059,-1.7863,-3.6764,-4.2033,-4.3434,
7.2922,-0.7231,3.7647,3.8662,31.3363,-19.1416,2.3424,-4.3424,-1.1239,-5.2693,1.2132,-2.9741,-3.9513,-7.457,
5.6494,3.9,7.6366,8.214,33.5539,-11.0037,2.4428,-2.8766,-3.2256,-5.6765,2.8276,0.81974,-0.58076,-8.6968,
0.97187,4.1482,7.6601,-0.95617,25.7559,-10.8256,3.2604,-5.5967,-1.1037,-6.3,0.72951,1.2527,1.382,-6.729,
-1.0146,1.9711,7.6825,-3.3089,22.7643,-15.4783,4.0291,-2.8503,-0.073593,-3.0295,1.1681,0.21323,0.81719,-1.9869,
-5.0513,-3.2091,7.4627,1.9511,20.6753,-12.3806,1.136,-1.4743,-1.7562,-3.5709,0.85685,-3.8967,-3.3294,-2.1085,
-9.8095,-5.1857,4.8458,3.5212,15.3374,-8.0224,2.7551,-9.3395,-1.4098,-4.5619,2.0107,-3.9043,-3.3706,-6.5617,
-6.5698,2.1153,5.2779,2.5871,10.8017,-8.2639,4.7589,-9.5025,-2.5305,-2.119,0.20286,-3.4286,-0.5173,-4.9627,
-1.8369,3.9166,6.8899,0.50364,13.0462,-9.6963,3.5095,-7.0042,-3.8245,-2.4738,-3.6657,-3.7048,-3.3783,-3.2187,
1.4066,4.8867,9.6098,5.0529,20.2169,-4.535,7.878,-10.6811,-0.94371,-2.0842,0.16943,0.61457,-3.8987,-4.2306,
-2.5344,1.7012,8.0691,6.1958,13.2195,-1.8525,8.3699,-11.0043,-1.8512,-4.3695,2.0877,1.5418,-2.2188,-5.9052,
-9.6132,-4.6674,5.1744,-0.44247,8.57,-4.6339,5.4571,-6.97,-3.6688,-2.1791,0.9981,1.9312,1.2888,-1.6945,
-9.0364,-3.4235,-0.43829,-5.7186,9.984,-6.2841,-1.1368,-9.9258,-5.3764,0.36173,-2.4358,3.2616,-2.6449,-2.5567,
0.9058,0.87973,0.79285,-1.76,9.144,-4.7017,-0.82766,-9.0893,-0.95644,-2.3111,-3.9769,1.8606,-0.31707,-4.5725,
-0.11242,0.82694,7.9761,1.2381,9.0773,-4.9016,-0.29607,-6.1338,-1.381,-0.24421,-5.1845,-1.1431,3.0764,1.4865,
-9.5059,-4.7665,5.8101,-2.9338,7.8095,-8.7051,-3.4116,-8.8991,-4.4318,3.3856,-4.1503,-3.7258,-1.2058,-0.29018,
-4.3563,-6.1678,-0.56406,-4.445,6.1356,-10.8343,1.3724,-12.4629,0.41335,4.8697,-2.6965,-6.6358,-2.8206,-4.3701,
4.5822,0.46929,-1.0121,3.5345,10.1063,-3.4353,1.2905,-9.7865,-2.5035,-1.207,-6.873,-2.8632,-3.1333,-2.6617,
0.45067,3.333,-0.95165,8.1429,19.1406,4.0014,0.24855,-7.2713,-8.1381,-5.4732,-7.9066,2.1291,-4.3914,-3.4661,
-1.0224,4.0975,2.4801,3.3158,22.8127,6.6536,6.5004,-4.9066,-2.3469,-0.80623,-0.68356,-1.3729,2.1389,-2.294,
-4.8172,-0.48686,3.2954,-3.6318,7.3439,-0.012362,4.1824,-6.0587,2.1324,-0.27569,0.32155,-6.5934,7.3129,0.73594,
-10.072,-4.5552,-0.51795,-0.76261,-7.1963,-5.0731,1.7621,-4.9721,0.79941,0.94591,-1.8671,-1.6178,5.1872,0.45059,
-3.9239,-3.0769,-2.1739,0.9706,7.3355,-5.0094,1.8975,-5.3969,-4.3105,1.6123,-4.4064,-0.79805,-0.6679,-4.6379,
4.9882,-3.3742,-2.0434,-2.9445,20.9954,-0.85247,6.122,-8.9295,-2.1236,0.069289,-0.76759,-5.0885,2.7466,-1.9495,
2.52,-0.52041,-6.5004,-2.0447,18.048,7.1522,7.4417,-3.8142,3.0652,2.7165,3.376,0.27828,6.679,6.6034,
-1.4876,3.8491,-7.5566,-0.95767,11.181,6.2411,-0.23521,-1.1747,-1.457,3.0354,-3.5754,3.1541,-0.95217,1.8689,
0.28888,1.931,2.2968,1.2689,12.6793,-0.15889,0.019873,-3.7558,-2.0925,0.20218,-4.5657,-2.5788,-4.9924,-3.7869,
-4.7904,-1.3182,4.3284,4.808,8.7848,-1.3544,0.74181,1.531,-1.2438,-4.8714,1.2516,-0.73704,-3.4878,-0.90836,
-8.6003,-3.4082,-3.4031,-1.988,4.1604,-3.4423,-4.8463,-0.24763,-3.8207,-8.1945,-3.4028,5.3327,-4.9657,-2.0587,
-0.85343,-2.2399,-2.2351,-7.6533,2.9469,-1.3076,-1.6635,-5.0535,-2.1452,-1.4363,-3.1991,6.941,-2.7396,-1.9356,
-1.0432,-0.41824,-0.41374,-3.5786,2.0467,3.8321,1.5698,-2.5811,-3.2218,0.81899,3.9827,0.49896,-1.8523,0.35013,
-2.6678,0.81214,-1.1118,1.6978,6.5036,7.218,-0.21159,-0.25663,-2.3051,-1.3993,3.0209,-5.0741,-1.0178,-2.3224,
4.9638,4.861,1.6062,6.1749,6.8366,7.0257,-0.92203,-0.96482,0.0020995,-0.11028,-6.0782,-4.047,-0.71602,-1.9419,
0.32767,-0.25137,1.9918,0.50226,-4.6609,-0.14475,2.5077,-1.8708,-1.9262,-2.0319,-6.1959,-3.8042,-1.155,0.10282,
-6.6819,-3.3698,4.5234,-6.5177,-1.7301,-0.37703,6.9366,1.3745,2.7691,0.25921,6.9503,-3.335,4.9399,-0.14478,
-7.2448,-3.6495,4.252,-6.1267,6.5684,3.502,2.1821,-4.4926,1.6386,-0.23828,6.5333,-5.0631,6.5717,-2.5462,
-7.2921,-1.9843,4.4792,-1.9027,1.836,0.3998,1.5692,-10.0076,-0.86982,-1.1878,3.2492,-4.7593,5.2135,-2.3934,
-4.2032,1.268,5.8975,-4.9218,-0.44357,-3.2398,6.5365,-2.8994,-0.094498,-0.87584,5.2232,-0.85808,7.0696,-1.0448,
-3.4691,-1.7001,4.0974,-9.9291,1.9936,-0.63486,7.5906,2.0952,0.8755,0.62297,6.3561,2.0855,12.4305,0.94656,
-10.9737,-5.9369,4.8159,-9.3334,-2.9467,-2.5254,1.3501,-3.8151,-0.14136,3.96,5.9747,0.032143,11.6842,4.2638,
-13.2078,-2.2062,5.4908,-3.4707,-3.7338,-4.3021,-3.5512,-4.0685,-1.0972,3.2401,3.2061,3.8866,5.1986,3.0441,
-9.5226,-4.4842,-0.62303,-2.2984,-0.61745,-3.5613,-2.8559,1.9604,-1.995,-1.2924,0.12144,7.992,1.9948,-3.4053,
-7.2645,-6.8663,-1.309,-0.95565,-1.7857,-0.69657,-3.4079,3.53,-1.6348,-0.492,2.7652,5.3433,1.6337,-1.0318,
-5.3823,-3.5622,3.1083,0.54794,-4.5706,-1.1372,-5.6136,-0.056266,0.39194,2.43,3.5637,-2.6901,0.089413,3.3684,
-1.685,-2.3842,0.51169,-0.4488,-1.4043,-2.5147,-0.93845,-4.3912,0.36842,1.3199,-0.024617,-5.9031,-3.2899,0.27423,
-2.307,-0.55411,-0.24214,5.1215,4.7057,1.7333,4.1798,-0.030155,-2.305,-0.44628,-0.26434,-0.4875,-3.8157,-0.94729,
-6.2661,-2.2079,1.4594,-0.24723,0.32579,-0.53966,2.7239,0.69478,-2.8898,1.2675,2.4028,-2.1452,-0.45348,-0.16732,
-3.962,-3.5216,1.8538,-7.4632,-0.17569,-8.7024,3.0424,-2.7214,-0.78825,2.6377,4.6688,-2.9809,3.4301,-1.1216,
0.13212,-1.8641,1.2606,-4.1229,9.9578,-7.6979,2.8599,-4.4863,1.6692,1.5151,2.9429,-0.87381,2.2604,0.39195,
2.0524,-0.30598,2.6312,-1.4654,11.7709,-0.48758,3.6521,-3.7352,3.4972,0.94228,1.802,-4.6778,1.6424,-0.59589,
2.6524,4.7738,5.1247,-4.0288,2.1463,-1.1815,3.1918,-1.3421,1.6004,3.0551,2.417,-6.0841,4.1952,-4.1753,
1.047,0.63055,3.3709,-8.6078,-4.7314,-7.3771,1.5541,-3.6717,1.5039,7.2101,2.272,-3.7913,4.4254,-3.9248,
3.6357,-1.576,4.8559,-3.5116,-3.2422,4.3937,3.6304,-2.2461,4.5472,7.9828,0.44842,1.9802,5.3652,2.3362,
-1.1622,-3.1687,-4.3535,-3.0599,-13.4115,12.0839,-4.0592,-1.8704,-2.7151,0.99592,-6.5684,-4.1641,-2.9105,-0.93698,
-1.8151,-1.2915,-11.082,-1.1893,-21.0427,11.1181,-3.5745,5.7139,2.0273,7.9263,1.7797,-2.2273,3.2899,-0.64002,
1.1858,1.6785,-9.4532,-2.5638,-20.2621,6.5946,1.9422,6.8168,5.2797,8.4146,7.9394,3.209,11.7692,0.84464,
4.4889,-0.35066,-2.6192,-3.8564,-17.6003,1.3785,3.7541,2.0693,3.0349,-1.7315,3.125,1.5704,8.1707,-0.65207,
9.7634,-0.08842,0.18924,6.739,-11.4829,5.3929,-0.56874,6.0427,0.68346,-2.8327,-3.0883,0.27068,1.1728,3.0022,
11.1056,3.773,-4.1607,9.227,-9.8298,10.8541,-7.2833,3.7522,-5.1419,-2.1806,-7.7235,-3.1198,-5.6463,-0.55211,
10.9216,5.4753,-0.53657,0.47867,-14.5427,10.2029,-1.0613,-0.81127,-0.49507,-1.5678,-2.4394,-5.3427,1.4414,-9.678,
11.2302,3.2181,3.8339,-3.4064,-15.5983,7.1801,2.3764,1.6471,4.8373,-0.027467,2.5273,-1.6477,9.5496,-2.8308,
9.3511,-0.59037,-0.011511,-1.5148,-14.9034,6.5083,-0.89966,4.1998,3.3418,1.1795,0.20647,4.4767,5.8432,6.2571,
6.8623,1.8556,-0.97469,-1.9059,-15.455,7.5641,-0.36328,1.5377,2.1774,1.5906,2.1223,-0.61216,6.9389,1.5433,
7.4142,4.6366,-0.43404,0.13645,-14.046,4.6999,-0.34172,1.9271,-0.84555,-0.43322,4.8872,-8.7708,9.8967,-3.3697,
5.2821,-0.22135,-5.9516,0.36923,-12.9622,1.7668,-1.0441,4.945,-0.55385,-1.1301,3.3887,-3.1829,6.6518,3.3399,
-1.5425,-0.44926,-9.6921,-6.1606,-8.5693,4.794,-1.7046,4.8895,3.0946,0.14274,1.9803,6.8902,5.5296,7.2371,
-3.8601,-1.8681,-8.1462,-6.2729,-10.4653,4.0245,-1.1204,5.56,4.3552,0.13418,3.3078,5.5125,8.0903,2.4641,
4.3255,-2.9611,-7.4167,4.4675,-12.9706,3.0599,1.1162,9.324,3.8526,2.7775,5.2782,4.4586,7.3637,4.4857,
5.753,-2.0603,-6.2486,6.3689,-9.5411,2.1532,-3.5303,4.185,-4.8144,1.4057,0.8644,2.986,1.3785,4.9396,
4.9258,-1.4547,2.8034,-0.76216,-7.0404,0.09577,-1.8722,-1.3683,-4.0432,-0.6068,-0.63372,-1.049,3.224,0.78688,
6.3175,-2.5727,7.2145,-1.4393,-9.2691,-1.5972,0.4093,2.8112,3.1888,2.0807,2.0559,1.1831,4.7178,-0.94756,
4.0103,-7.2391,-1.8955,-0.3891,-14.9799,-4.8758,-4.9179,1.1958,2.0332,5.8122,0.96818,6.8962,2.0241,-1.855,
4.9747,-4.6349,-1.5405,2.768,-14.3218,-4.824,-5.8279,-1.0449,1.1885,6.1871,2.1152,8.6518,5.0364,3.3182,
6.1223,-0.018717,2.8904,4.0479,-9.6064,-0.67841,-5.9604,-1.4644,-1.2931,0.513,1.0241,4.7585,2.8058,0.70873,
5.0325,-0.25856,-0.41602,2.1178,-3.9683,4.9064,-3.9155,-0.17121,-2.4204,-1.205,-2.1703,1.3399,-0.49558,-4.8774,
4.0072,-0.0020813,-0.15009,-0.17842,-1.5606,5.8168,-3.4396,0.56242,-3.4805,-2.3375,-9.5119,-3.3202,-0.70727,-1.9332,
4.4894,3.6132,4.438,-3.3014,-1.2267,2.8165,0.38193,1.7333,1.3074,-0.028357,-2.9159,-2.8803,5.8429,6.1363,
-3.2517,0.26341,-3.782,-7.6826,-8.6244,-2.4142,2.0462,2.8346,3.3986,0.21431,7.141,-1.0202,3.3231,5.0448,
-7.8769,4.5859,-12.2318,2.4193,-12.4453,6.8897,-4.343,7.4852,0.78456,3.094,1.8923,2.4155,-3.1428,2.8143,
-1.8607,10.8187,-7.8829,12.1561,-12.4219,16.3582,-6.2516,8.7229,3.3886,9.8977,0.57346,5.404,1.1432,6.7428,
-5.6054,1.9744,-8.8557,1.7857,-19.3894,6.7001,-5.3946,2.4149,1.2571,4.9656,5.3598,1.7053,-0.37169,2.9638,
-7.4383,-0.3132,-7.1195,-2.9007,-14.6106,6.5391,-1.4555,3.9573,2.8689,2.0165,8.6536,3.2902,0.85591,3.5089,
-8.4384,0.18775,-7.6565,-1.7626,-14.6981,9.039,-1.8503,4.6839,3.1784,-1.9611,1.3852,0.68246,2.7325,3.7805,
-7.45,1.6225,-9.125,1.7174,-17.1909,8.0145,-3.1853,6.3313,-0.38648,-1.3612,-2.554,5.462,-0.80566,1.6257,
-3.3876,0.32033,-7.3723,-0.07285,-12.5435,5.8464,-3.7171,0.88974,-1.5681,1.8539,-2.6418,11.1603,-2.4445,-1.1229,
5.7338,2.9522,-2.8326,-3.2015,-6.2473,5.7371,-0.843,-0.36848,2.6233,6.322,-0.31409,3.9827,5.6559,-0.33265,
7.3182,1.811,-0.25225,-8.7942,-8.7648,0.089959,0.17168,3.9922,1.5018,2.5684,0.66886,-9.7538,5.7987,-0.31292,
6.3964,-0.2261,1.2085,-5.8562,-7.2752,-1.3615,1.6074,2.7881,2.3758,-1.9242,3.0391,-5.3124,4.9686,-1.7402,
9.1464,3.4031,-1.033,-0.44339,-2.7411,1.3715,-0.17603,-1.4763,0.063866,-4.4601,2.1336,3.9246,5.8755,-0.91263,
8.1152,3.1985,-0.971,-3.7912,-4.5049,-0.15701,-0.16547,2.4682,2.9521,-2.2643,2.9695,2.7248,6.9693,2.9981,
-1.0486,-1.8135,-5.2513,-9.8305,-8.5731,-1.5936,-3.0478,5.2128,4.2215,2.692,2.7915,1.5972,7.0333,1.8545,
-6.2881,-3.1511,-13.6131,-8.2766,-8.5409,2.3582,-5.7573,2.0078,-1.8166,1.5664,0.21367,6.3219,3.719,0.29677,
-7.5978,-4.1671,-11.5912,-4.6463,-11.1617,3.4217,-1.7966,2.1281,-2.9127,-0.21456,1.4059,11.0045,4.219,2.9307,
-8.8292,-5.6039,-1.9777,0.69372,-13.1431,0.56533,-0.96547,6.0982,-0.56832,-0.44265,0.59866,12.9953,8.0632,2.9959,
-7.3353,-6.7137,1.0333,5.955,-10.4261,-2.8428,-1.3897,4.7682,-0.53445,-1.3802,-0.88329,13.1801,7.0972,0.88769,
-5.6899,-3.1778,-0.71597,6.3206,-2.3287,-0.98502,1.3452,2.7949,-1.7072,-3.4665,-0.10739,9.7378,4.0203,0.59347,
-8.241,-1.059,-2.1188,3.0493,-0.26079,1.9661,-0.66368,2.1453,-4.9792,-5.1867,-2.5111,0.4764,2.3328,1.0403,
-5.0955,-2.6827,1.6233,1.6606,-6.7531,2.5711,0.098585,1.7751,-3.4757,-6.5632,-3.0838,-4.1319,2.4338,-3.12,
8.2257,2.2986,11.6492,4.4535,-0.56332,5.7913,1.5389,3.1149,-3.2671,-8.0976,0.47571,-2.4378,1.8059,-7.7535,
16.4092,7.4633,11.9142,5.1506,13.5705,5.9257,0.00079315,0.51785,-5.9631,-7.6118,-1.481,-8.558,0.73319,-7.7702,
20.7273,10.8723,5.8971,1.9495,26.1333,3.1605,-1.4455,-3.8515,-6.5692,-7.6365,-6.6944,-9.4903,-1.2385,-5.8577,
33.5837,18.4147,3.6151,0.86819,29.868,13.5757,-1.3588,0.71787,-8.1037,-11.5171,-7.257,-6.0288,-5.9849,-5.5063,
45.6687,25.9869,4.3621,2.2624,42.1759,26.8612,0.65094,5.0131,-7.1351,-7.4516,-3.4471,-7.1129,-2.2514,-9.0323,
44.857,29.0072,7.2336,5.2599,48.4429,24.8881,-0.11125,-0.83105,-5.9839,-2.907,-6.3736,-9.3375,1.4989,-11.1417,
39.0321,26.0615,7.5229,6.1496,42.4029,23.1538,1.1007,0.90604,-5.3839,-2.4916,-5.2683,-8.0543,0.20366,-9.2679,
33.3155,22.5694,8.0352,7.2262,36.484,21.2824,1.9988,1.8153,-4.5791,-2.8247,-4.9524,-7.0893,-0.77266,-7.7482,
27.9421,19.287,8.0355,7.275,30.4386,19.5235,2.3608,2.6707,-4.7863,-3.1372,-4.6552,-6.664,-2.6545,-6.8009,
21.9275,15.2375,7.5531,7.3207,24.2737,16.9056,2.2194,2.5102,-5.4632,-3.913,-5.34,-7.2282,-4.4232,-6.3931,
16.0323,11.6719,6.3768,6.6402,18.2382,14.2043,1.845,2.6008,-6.3405,-5.3652,-5.7423,-7.5172,-6.8091,-6.2502,
10.7316,8.0791,5.9942,6.7237,12.8052,11.9058,1.7343,2.4448,-6.4425,-6.0076,-6.3621,-7.5486,-8.3292,-5.8757,
4.5443,4.4616,4.9114,6.0796,6.4935,9.5044,1.389,2.5393,-7.261,-7.8161,-7.1854,-8.3007,-11.4447,-5.7639,
-2.4773,2.2652,6.5449,5.2324,0.80123,7.9698,-1.1044,4.3151,-7.7892,-5.9014,-3.8622,-4.4282,-10.758,-2.0436,
-4.2568,2.6112,2.7778,7.811,-2.1394,7.4917,-1.5201,5.0201,-6.358,-3.1367,-5.0768,3.0678,-8.1843,-1.439,
-7.6166,0.76757,-1.968,4.691,-8.0363,4.3908,-2.152,4.4781,-5.7353,-4.1535,-10.3155,4.5712,-9.8622,-0.62956,
-18.729,-3.6166,-4.2602,-2.8211,-10.9284,-0.21071,-4.4332,6.1374,-4.4271,-5.3504,-7.7682,3.3329,-9.7526,-1.5559,
-25.0771,-7.4974,-7.62,-5.7853,-10.996,-5.7421,3.3046,6.0101,1.8641,-0.45006,3.5437,2.8919,-1.6956,2.6348,
-21.403,-8.7345,-11.7424,-7.6071,-12.0233,-7.0846,6.7219,4.4445,4.886,3.6745,5.9829,5.3697,2.9856,7.0563,
-24.2162,-12.7902,-10.7968,-7.874,-11.0609,-6.9005,3.1851,3.4549,6.7615,4.6589,4.4186,9.6268,0.15492,4.9457,
-28.5478,-10.0942,-3.8821,0.31118,-9.4334,-5.0402,2.0297,2.7657,5.8739,0.041039,0.77903,10.9779,-5.1566,1.2749,
-27.3173,-7.0784,-2.6853,3.667,-18.5083,-5.7021,1.426,3.5636,0.2188,-6.2279,-3.606,6.4624,-6.7754,-1.2122,
-26.6422,-8.5823,-4.4523,0.072492,-22.2186,-5.8419,1.3404,5.278,1.6519,-0.55207,0.94865,7.0385,-0.10233,2.235,
-30.587,-8.7901,-6.3546,0.30934,-13.4134,-4.2864,-1.3913,5.2025,4.2041,3.0967,3.0611,12.6424,-0.33739,5.2342,
-28.752,-7.7805,-6.937,0.77294,-11.1621,-1.6188,-0.34375,5.8544,6.3622,0.50054,1.9134,13.3299,-3.209,2.5102,
-22.2067,-8.278,-4.593,2.1724,-15.7955,3.2986,3.5333,7.9133,5.4981,1.9168,2.2805,11.0838,0.83949,3.8054,
-21.8379,-8.7454,-3.3529,6.8625,-13.4013,4.0652,3.3215,9.3669,4.2046,2.7659,3.1078,13.7935,3.6819,8.3976,
-21.4919,-9.1846,-2.1878,3.5587,-13.0791,-0.035088,0.22968,5.4305,7.3263,1.6356,3.8852,11.5196,0.086507,6.4479,
-21.1665,-9.5976,-5.4308,-5.3317,-12.2946,-1.4795,-2.6764,3.1762,6.887,4.9121,4.1342,6.4899,-2.329,4.6146,
-27.3686,-13.1193,-8.7206,-11.52,-9.388,-5.4883,2.5456,1.7806,5.7506,6.7863,6.5375,8.7514,4.8003,8.9172,
-28.8595,-11.6092,-7.9564,-10.1054,-7.6194,-10.7026,4.0801,-0.01349,8.5386,4.6919,6.3862,7.0214,8.1277,8.1412,
-19.6559,-3.9226,-4.8277,-2.027,-2.5827,-2.1065,-1.2261,0.22852,5.8574,2.7234,-0.022289,2.0206,-3.206,2.1093,
-16.7898,-4.8925,-2.8508,1.7095,-1.2225,6.938,-1.8759,0.93771,2.8544,0.39085,0.21956,0.69412,-9.5215,2.2237,
-18.9159,-7.2505,-3.4031,-1.0441,-4.7646,1.46,0.88819,0.64048,5.3347,-0.35596,5.2681,-0.55283,-0.51457,5.7053,
-14.647,-6.0921,-2.9575,-7.489,-5.2016,-3.2069,1.5583,-0.12085,6.2199,2.7989,3.7471,-0.27823,5.0604,4.1581,
-9.671,-4.0396,3.2453,-8.2451,-1.7562,1.5651,2.6694,0.12714,3.6773,2.8721,-0.57527,5.2818,-0.78709,1.7393,
-9.8139,-1.6278,8.5944,-0.76033,-1.4101,3.1582,1.3041,-2.0494,0.80533,-0.91583,0.18238,7.6163,-6.2832,2.358,
-11.3942,-4.6637,8.8016,3.3826,-8.3149,-2.0926,-1.4252,0.2427,-1.4122,0.34441,-0.55192,2.58,-3.7371,1.4936,
-12.88,-7.0352,3.694,3.9028,-11.4317,-1.2443,-2.5448,9.6279,-1.0867,1.5288,-5.5803,4.5941,-3.2721,-1.2473,
-11.1428,-5.6487,0.098388,1.7404,-9.7815,3.1691,-0.94581,12.4247,3.3173,1.919,-1.871,8.1753,-4.5216,1.7196,
-10.7155,-8.925,-1.1126,-4.8717,-15.7023,-3.5287,-2.0941,3.7252,3.8414,2.527,3.3027,-1.7154,-2.5633,2.822,
-9.1082,-6.4613,1.3643,-2.1693,-17.1703,-5.7272,-3.8967,2.0559,4.5748,2.3754,1.6588,-3.5407,0.001077,2.6526,
-8.0798,-3.6635,-2.5739,1.3353,-8.9097,0.40106,-3.6629,5.3066,8.6391,-0.17727,3.005,4.3845,-0.48138,2.0111,
-6.8721,-2.7208,-9.8913,-1.3963,-0.42135,4.4743,-3.2026,6.1935,3.059,0.074336,4.512,7.2549,-0.69346,2.1314,
-6.4595,-3.0397,-4.9593,1.0978,-5.2161,2.7599,-1.082,7.2679,-0.98112,1.9983,-1.0612,6.8194,2.2404,2.9681,
-9.4462,-8.1597,0.15876,2.478,-13.0981,-4.1549,-0.052992,2.9757,3.8982,0.9143,-7.7462,7.8567,-0.30435,-0.58471,
-0.92591,-5.5008,-0.091964,2.0886,-1.9481,-1.7362,-0.77294,1.5921,1.4954,2.0645,-5.112,9.5543,-4.3832,2.5841,
5.8788,-2.2784,-1.0505,0.034821,1.543,-3.078,-1.6907,1.4963,-7.2712,-1.916,-4.3236,-2.106,-5.0843,-1.9095,
9.3822,6.5351,4.3149,5.8175,-0.95991,-6.75,1.785,7.1913,-1.0506,-4.2114,-1.1719,-6.8001,1.0051,-9.026,
8.8195,8.0715,0.68179,2.0943,5.3644,-7.3086,-1.6959,3.8676,-0.022976,-2.9941,-2.0652,-8.3201,-0.018849,-7.038,
9.2542,3.2484,0.15895,-8.6367,13.2373,-3.978,-0.14831,-2.6315,-0.50399,-0.40436,-0.013569,-9.2671,-0.98204,-0.34916,
5.8069,-0.3205,2.5595,-9.0824,3.2845,-7.1138,0.34298,-1.5093,-0.47375,-2.7902,3.3617,-7.2648,1.0051,-2.7383,
-1.2904,-1.7475,2.8884,-5.163,-4.1435,-11.9892,-2.0882,0.99143,-0.44533,-1.6589,3.16,0.40143,2.391,-3.056,
-1.6952,0.28528,2.7148,-0.033154,0.44325,-8.378,-2.927,3.8242,-2.347,0.85095,-0.88622,1.8234,0.80108,2.9117,
3.4682,0.99153,-1.0635,10.8151,0.17614,-1.3674,-3.9562,4.3181,-3.893,0.55892,-1.5559,-2.3834,-1.4161,4.4243,
2.2958,-1.4786,-6.3023,14.0226,-3.2089,-0.8034,-2.273,3.0947,-0.76734,1.9712,-0.49826,-3.2042,0.59701,2.2306,
-1.9391,-2.5949,-5.683,8.1198,-2.7756,-0.99639,-1.8955,6.0423,0.48377,2.0941,-3.6016,2.5314,3.2125,4.2662,
1.3105,-2.6804,-1.7268,-1.2853,-3.3322,-0.69541,-2.0229,5.439,-0.75032,2.2097,-3.1448,4.5489,4.7068,4.7329,
1.955,-2.7603,1.0281,-2.4132,-3.373,-3.7869,-1.1784,-2.3594,-1.428,3.2821,1.6234,-4.6419,6.1118,0.8337,
-2.501,-2.5947,3.8585,3.0338,-1.2429,-11.273,-0.62578,-3.1821,-0.37843,2.6028,-2.8128,-11.1123,3.8169,-0.18065,
3.4336,-2.439,7.0014,3.8161,-1.6498,-10.5961,3.2682,1.8295,3.0187,1.9647,-6.9823,-9.9636,1.6597,0.79452,
8.0485,1.5635,8.9917,-2.1977,0.37716,-4.176,1.1441,-3.5827,-0.53708,-0.56306,-6.5632,-12.74,0.11409,-3.1098,
0.81647,1.4699,11.3445,-3.0299,9.5133,-6.3358,1.0752,-4.3318,0.45925,0.91676,-2.7951,-13.4221,4.9273,-2.441,
-5.2581,-2.2337,8.9766,-3.0891,11.5936,-6.6786,1.7336,6.292,2.6009,3.5128,0.02366,-6.5908,5.8369,2.2847,
-4.4606,-2.0997,5.064,-4.35,8.9703,0.47107,-1.2625,5.4325,-1.4116,-1.0362,0.98657,0.071199,-3.1899,1.1838,
-5.3978,-2.2147,0.66235,-1.4375,6.2629,5.0221,-1.4277,-2.3652,-1.5679,-3.6252,-0.27746,-0.17404,-6.614,-2.9846,
-7.2431,0.5693,-2.0285,4.6743,6.61,7.8543,-1.583,1.874,0.21344,1.1716,-1.948,0.077369,-2.1198,-0.15443,
-5.6037,0.29417,-1.6658,2.7066,0.66981,0.87506,-1.247,6.8233,1.8879,3.7524,0.338,-0.65017,2.1048,1.0601,
-4.0622,-2.8565,-0.36056,-0.10685,-2.5034,-6.6488,4.3714,3.7628,7.8001,0.87619,4.897,-1.3341,5.112,-0.69071,
-8.157,-1.2391,-1.303,-3.9571,-0.90763,-3.358,7.4833,2.5725,5.8861,0.82339,3.1572,-1.7362,8.6614,0.31483,
-6.7035,-2.1288,-4.1171,-6.13,-5.6737,-1.2281,6.0702,0.49014,3.6045,2.7024,1.0393,-3.0785,8.142,-3.5607,
-0.99887,-2.9652,-3.3884,-0.9417,-7.2612,-5.493,0.88554,-3.3959,2.9065,1.5762,0.012851,0.48089,3.3149,-3.8287,
-0.9387,0.58694,-3.1849,1.0432,-1.5231,-4.6812,-0.61362,-5.602,3.2138,0.99943,-1.4339,1.8981,3.1158,3.6316,
-0.64142,1.7566,-7.0916,-4.0811,-1.6727,-6.0876,3.5205,-4.543,4.7082,0.6985,-1.5889,-0.38543,7.9905,4.6185,
3.7358,-1.7228,-9.5582,-4.3181,-7.8388,-8.6144,2.8274,1.9965,2.0156,0.65659,0.91704,1.5663,7.9935,-1.9246,
2.0654,-5.9582,-8.5027,-8.3974,-10.743,-9.5438,-1.1986,6.2151,1.8947,1.5815,5.6823,0.99043,4.6213,-6.1479,
-1.192,-4.8774,-5.8234,-11.027,-7.4473,-9.2126,-1.3677,5.1188,3.4682,6.0659,7.5105,0.20764,3.6207,-2.1636,
1.5309,-3.3797,-5.2328,-3.8577,-4.3491,-2.1517,-1.0449,3.1247,0.60881,6.4251,4.4085,5.739,2.6808,2.5457,
4.8132,-6.5511,-5.401,2.1581,2.6605,5.208,-3.8745,3.4194,-1.8381,1.2191,1.2517,3.9482,-0.85475,1.4289,
7.417,-3.266,-1.7025,2.993,6.3572,3.4493,-4.6059,4.66,-1.2459,-1.7466,2.6229,-0.14508,-5.6237,-2.5133,
8.6592,-0.90088,0.56882,1.1262,-1.0136,-3.2651,-1.6784,2.6932,0.51612,1.4917,2.7065,2.5152,-7.9378,-0.67524,
3.0777,-0.60563,-0.18844,0.81741,-0.71205,-2.3466,-0.85461,3.7367,0.72635,2.6073,-0.58962,5.0151,-5.2926,5.3906,
-0.72214,2.082,1.9923,2.4558,4.3926,-0.51831,-2.9727,5.1999,0.44157,-0.68242,-0.79498,3.0272,-0.39511,4.8264,
4.1417,2.4393,0.90863,6.647,-3.1016,-8.6822,-3.758,0.54937,-0.54856,0.32263,-1.229,-0.52863,-0.37117,-1.248,
5.098,1.0876,-0.35119,6.4892,-7.9776,-10.3304,-2.3277,-1.1708,-2.2033,4.8826,-3.3249,0.70792,-2.5185,-1.4141,
2.141,-0.66486,2.3214,-4.2645,-2.9192,-6.0956,0.46307,-0.85961,0.09803,4.8306,0.0081146,-0.057456,1.7299,1.3219,
6.5921,0.098162,1.941,-15.819,2.7993,-4.0424,0.19409,-4.9056,1.2972,0.44315,2.6585,-1.2591,5.2413,1.9657,
11.9811,2.5024,0.37824,-12.4597,11.3085,1.5028,-1.2634,-4.1289,-0.22642,-1.0292,0.57079,4.1187,3.4811,2.8116,
6.4418,0.42429,-1.5724,-2.5529,10.6297,2.8586,-1.6697,-0.024994,-1.6589,-1.4496,-2.3553,4.8361,-1.5483,1.1969,
0.5119,1.6039,-2.2012,1.6979,3.9666,4.8565,-6.1486,3.5922,-4.2107,-2.5677,-2.9371,-1.4798,-4.5887,-0.56146,
-1.2063,1.2665,-1.8279,-2.9835,4.4518,8.1803,-2.1645,6.0279,1.5854,2.6478,1.3362,-5.4886,1.712,3.5694,
-4.7491,-1.9428,-4.3696,-8.8303,2.9796,4.5562,0.61671,0.60482,5.5878,3.694,2.9435,-2.508,5.7069,7.4523,
-3.0179,0.10198,-3.6255,-8.3005,-1.5375,-0.055453,-4.241,-1.3597,2.3605,1.0622,-0.12514,0.535,0.54418,6.5237,
2.2244,1.7831,2.6176,-7.5615,-2.1686,-1.2574,-0.37113,2.3373,3.4237,-1.1707,1.5691,-5.0407,-1.6576,0.58821,
4.2606,1.4351,4.6302,-6.8664,1.5769,-2.8687,4.2309,3.4019,1.0491,-4.2335,3.1622,-7.8718,0.61099,-5.4726,
1.3534,0.62613,1.7008,-8.1416,2.2052,-5.3482,4.6999,1.993,0.7452,0.59983,1.2853,-2.8197,5.1536,-1.5289,
-3.3071,-0.1348,-1.0523,-12.2329,-0.09627,-2.3757,3.695,2.5963,0.94146,1.2867,1.9315,-1.4452,5.5678,4.1065,
-0.69856,1.3196,-5.8099,-10.5346,5.2122,2.5871,-1.3474,1.4767,-3.4533,-7.4671,2.2975,0.087286,-0.55134,-0.96061,
3.9229,0.035313,-6.1844,-9.6617,8.0327,4.6012,-1.5077,1.1469,-2.523,-4.8501,1.9185,6.1078,-3.1691,-2.59,
2.4824,-1.1719,-4.1259,-11.251,2.4893,2.1558,-0.69414,1.8012,-1.649,1.9486,0.11639,2.6081,-2.2563,0.21675,
4.7436,0.82664,0.94188,-5.7557,4.75,-0.3837,-0.17056,2.657,-0.5857,-0.096538,2.0376,-2.3691,-0.19274,2.1319,
4.6997,3.4279,4.9825,2.5437,5.1882,-3.9763,0.080874,1.7744,-0.79176,-5.1522,1.1922,-7.2884,-0.42237,-0.6473,
-1.8488,7.561,5.1659,6.2474,-1.872,-2.2915,4.4143,2.1499,-1.7081,-2.4329,1.1207,-10.7075,1.5316,1.8017,
-7.5224,4.2148,2.9278,2.4981,-5.1337,1.2205,5.1138,4.4315,1.2864,-1.8046,3.946,-5.2448,3.8499,1.2116,
-7.7937,-0.61712,2.029,4.0357,-1.2105,1.3884,-1.7007,6.8169,-0.47775,-3.8657,2.0217,2.5419,3.3781,-1.5124,
-7.8085,0.38377,3.8354,4.7574,2.7185,1.3047,-1.5987,4.4797,-5.2698,-1.7055,0.45418,-1.9489,2.2111,0.024612,
-9.9913,1.0839,5.2928,-1.5533,3.2785,1.9495,1.1486,2.0415,-4.7124,-1.8444,-0.77814,-4.4833,3.2835,-1.1819,
-13.7304,1.501,4.0111,-2.4242,2.5997,-0.095426,-0.84878,4.3294,-1.5374,-3.1798,-4.5876,2.0525,3.0867,-2.0751,
-16.522,-0.75867,2.0828,0.85424,2.6847,-1.7769,-1.0388,5.2745,-2.1685,0.62643,-4.0714,1.6879,0.24997,0.70049,
-17.6998,-1.4361,5.5732,0.079625,5.6571,0.98078,-1.2175,4.717,-5.6538,2.2756,-2.1403,-2.0288,-1.4523,1.8633,
-17.8429,-0.14482,12.7109,1.7623,8.4509,4.0552,-2.3495,6.1215,-2.6633,-0.51179,-2.2526,3.1544,-2.0882,-0.41743,
-18.7005,-0.61807,9.0561,3.5848,9.872,6.7044,-3.6548,3.826,-0.092875,-1.4454,-4.0457,6.822,-0.034759,-2.8025,
-17.0963,1.347,4.6562,5.78,12.6544,9.1944,-2.9533,6.0068,-4.4259,-0.87652,-2.3569,-1.7823,0.44949,0.25793,
-19.4448,-0.17987,3.4127,6.8793,8.0385,5.7505,-1.812,7.5743,-6.5702,-3.7162,-1.2509,-9.8703,-1.9874,-2.1679,
-18.5195,0.071889,2.967,10.0819,5.869,2.7539,-1.9443,2.0582,-4.4892,-4.2161,-3.3455,-3.2525,-1.6276,-4.207,
-12.1057,0.067576,3.2709,10.9233,10.8195,1.6248,-2.3095,-4.8137,-4.7018,-2.9993,-4.1086,-0.16486,-1.5295,-3.9546,
-6.3174,-1.1415,4.7621,5.2064,12.3397,2.2504,-0.48397,-3.3198,-3.6966,-4.5064,-0.24693,-7.1446,-2.1609,-2.5122,
-2.8054,0.13224,5.1993,3.2068,11.3579,5.2489,-1.6602,0.01283,-5.162,-5.4413,-1.4374,-6.9574,-3.7184,-1.1562,
-3.6007,-0.35785,5.3695,2.5322,9.2309,-0.36846,-1.0785,-2.3983,-3.4058,-1.7401,-0.38661,-1.719,-1.5669,-1.569,
-3.6263,3.2788,8.6625,0.69331,6.9895,-5.8902,1.6376,-0.085468,3.3058,1.4976,4.698,-6.1958,3.1062,-5.5724,
-7.0241,5.2512,7.9013,1.3746,2.4724,0.48876,1.7803,3.0531,1.9022,-2.2082,1.2827,-11.3677,1.7145,-5.961,
-12.3873,-0.36602,4.0532,-0.15413,1.3602,1.9057,1.6735,0.94176,-2.5503,-1.1114,-1.6868,-5.383,-0.31657,-3.1932,
-7.0645,-2.0315,4.0512,-3.7601,6.8224,0.58629,-0.11393,-1.2837,-3.1204,3.5348,1.0657,0.96578,-0.53831,-5.1705,
3.0005,2.4289,7.6643,-4.4986,7.3771,6.3355,1.8209,-1.2069,-0.52281,3.323,1.4839,-1.9845,3.3501,-7.7526,
4.0256,4.9345,7.9276,-1.0954,2.3545,6.1961,5.8087,-0.89373,-4.589,-1.9383,-3.6665,-4.9986,5.3185,-5.6005,
-0.79547,3.4334,0.4623,3.5498,2.4545,1.7272,3.2913,-1.5628,-9.3751,-4.9553,-4.1697,-1.0835,2.3481,-7.9157,
-3.1579,-2.5572,-4.8681,4.7831,-0.10293,-0.30464,2.1299,-0.98708,-1.5818,-2.2474,-0.063115,-0.53613,4.6178,-9.369,
-1.7633,-2.645,-5.7811,1.8448,-4.6763,-0.045163,3.6891,3.6517,5.0208,1.9846,1.6277,2.1469,9.8841,-2.7811,
-4.3089,-1.7631,-7.6036,-4.7736,-10.9034,-2.6938,-1.1117,4.1557,1.1039,2.5887,1.2893,5.6337,7.1217,-2.3735,
-1.8812,-0.93399,-3.0496,1.0564,-10.4902,-0.84492,-1.286,4.1473,-2.5773,2.6743,3.3811,1.6803,6.4534,-5.3641,
-0.8042,0.085683,-0.45669,8.7056,-7.4504,2.0981,-2.1729,2.4524,-3.8691,0.58588,-0.19601,-4.6873,5.584,-1.668,
-3.889,-1.1243,-0.67026,8.4247,-11.1007,1.7312,-1.8016,0.61808,1.9071,0.7917,0.056715,-1.2725,8.3825,0.11928,
-9.1995,-1.78,-4.2457,5.2674,-18.8711,-2.4702,-0.48842,0.82173,0.10522,-0.46133,0.77598,3.8653,6.1921,-1.0934,
-4.309,-0.70907,-5.9189,-0.83297,-10.0258,2.0165,0.50498,5.5929,-3.7577,0.048513,-1.1985,5.0794,3.8926,1.3826,
4.3855,-0.90772,-2.4305,-4.3982,-2.9165,6.475,1.1978,5.0166,1.0473,0.76873,2.489,2.1233,4.8641,0.57694,
4.1226,1.0752,5.9102,1.1681,-16.8415,-3.5547,1.6081,1.8233,4.3591,-0.72342,5.232,1.9961,3.6082,-3.3143,
5.0803,0.76946,12.5457,6.6414,-16.4337,-8.4028,4.1629,0.026915,-2.8921,-2.8489,-0.62579,3.0814,0.25841,-2.3923,
8.6319,-0.72251,3.5978,2.387,-1.3477,-1.6321,-2.3533,-2.8672,-12.8419,-6.5344,-7.3367,-2.8881,-5.0597,-1.7668,
10.765,-1.4025,-5.0542,-1.3721,12.8332,-1.7752,-1.0073,1.8841,-3.6357,-0.11724,1.5392,0.90065,0.30552,-0.45553,
1.9244,-6.1386,-7.1606,-6.11,19.294,-13.7198,2.4276,3.2173,5.7419,2.3004,6.2675,8.5594,5.5898,-1.8745,
-0.60162,-7.2166,-5.7671,-6.7077,20.5465,-11.9327,1.8,3.0243,0.094751,-0.73017,4.9272,5.6357,5.2544,0.64813,
0.3988,-7.7479,-2.529,-5.341,26.5446,-7.3604,5.5484,0.91463,1.0529,1.7242,8.006,-0.48702,7.3493,3.9837,
-5.8921,-8.2473,0.51525,-2.1284,13.8647,-15.5958,2.323,-7.3354,5.3281,2.1027,2.223,0.988,4.9802,-0.11171,
-2.6458,-5.3417,1.4484,4.266,10.6229,-16.5881,0.73755,-5.9307,3.5624,0.53052,-2.2485,3.3391,3.2353,-3.4792,
3.2975,-4.5393,-2.9768,4.492,12.8776,-9.8082,4.0677,-0.75464,2.8667,1.9445,6.5631,1.6925,5.4513,-3.2705,
