"AF3","AF4","F3","F4","F7","F8","FC5","FC6","O1","O2","P7","P8","T7","T8",
-29.6463,-24.3436,-11.3282,-14.7026,3.1335,20.4872,0.24097,-1.2053,-0.24097,6.9899,13.2564,-2.1692,98.5793,5.0617,
-31.4827,-30.355,-12.336,-16.4718,10.899,15.6423,-8.2094,-4.7482,-5.7704,4.4011,14.148,9.7709,92.9057,5.4806,
-30.3168,-30.7027,-11.3544,-12.35,22.5376,16.8734,-11.3323,1.0803,-11.9316,-1.4066,16.9145,12.8005,90.9468,8.2853,
-39.3439,-36.3323,-13.3244,-14.2603,16.6058,15.6198,-19.0882,2.2206,-18.2054,-2.5273,6.4999,1.6684,79.4642,4.173,
-41.8039,-31.7422,-10.1146,-10.9944,14.6454,18.0569,-23.7273,-1.2869,-21.4516,0.9986,-0.63877,6.3888,68.912,4.8867,
-34.234,-25.7401,-10.713,-8.6475,15.9358,15.2862,-16.76,-6.2713,-11.2464,6.0004,5.907,14.923,70.8028,9.6552,
-27.6005,-22.0266,-10.3112,-6.9233,18.1131,7.8616,-13.1033,-4.6898,-5.028,4.4351,5.3116,17.6431,72.0983,14.1371,
-20.6418,-12.51,0.43059,3.1328,21.3649,9.3183,-14.7275,-6.3368,-12.9213,2.7229,-1.7557,24.7794,65.8444,13.2891,
-21.5729,-12.4828,-0.31861,-0.18865,5.983,5.1433,-7.8183,-12.4641,-8.0486,7.1388,1.4831,15.3389,60.6885,5.0199,
-19.7961,-6.4309,-4.1559,-2.5875,-8.476,2.4246,4.7024,-0.14707,6.5343,16.8339,10.5531,5.2596,64.7599,10.0214,
-20.5368,-7.0092,-7.7629,-2.4322,-8.9317,0.35092,-0.88243,3.7181,0.23692,7.1467,3.1711,5.9083,57.4999,14.7223,
-16.4123,-7.5527,-1.5128,3.4981,5.7042,7.5605,-7.5782,1.0847,-10.3824,-2.4409,-1.8397,10.3738,52.6034,11.911,
-19.2839,-8.5458,1.9527,4.7347,11.5082,5.6608,-9.0519,3.43,-9.2773,-2.7766,-8.478,-1.8175,48.4836,5.8935,
-20.2958,-5.8637,3.523,5.6557,2.8642,-0.22222,-4.4107,6.3579,-1.7305,4.862,-8.6924,-8.2162,45.8157,9.6379,
-16.186,-5.0299,0.41883,5.3166,1.7278,1.2371,-6.0745,-0.29079,-5.0014,4.5701,-4.3147,-4.8309,45.4767,12.4338,
-15.4558,-7.3792,-2.7391,-1.0282,5.7217,3.8142,-5.4688,-1.4784,-3.9782,2.127,-0.4402,-0.92542,50.2201,12.4109,
-18.867,-6.9367,-5.9497,-3.3771,-2.3344,-2.1992,0.16147,-0.90777,0.59885,6.3377,-0.89572,0.57591,45.2783,8.2914,
-14.3608,2.6383,-6.0744,4.5385,-15.21,-8.8159,8.3467,1.5571,6.3473,13.188,3.0142,-4.2791,42.5618,2.9734,
-10.3657,6.5776,-8.3612,3.0611,-23.6974,-16.7229,11.4611,2.1868,13.4385,10.7097,9.823,-18.1224,44.1057,-5.1585,
-2.7538,11.7268,-5.2082,2.1543,-18.6597,-10.1757,15.3534,2.7787,19.1399,11.7541,13.3312,-11.6117,39.7723,0.21245,
0.30391,2.8282,-8.27,-3.7593,-15.6121,-9.5653,9.6113,-7.5112,7.8684,5.7465,-0.48389,-1.2742,23.8884,-1.7283,
4.1418,1.6944,-3.9176,-0.15949,-13.2294,-9.4736,9.5168,-3.2039,7.8784,6.3658,0.99118,8.4434,22.9373,-3.0706,
-4.3018,3.0386,-4.6469,0.33202,-26.5356,-18.0642,7.0176,-0.11959,13.6722,8.394,7.6802,2.1518,23.0068,-0.95862,
2.9461,5.5076,-3.1628,0.070899,-21.6897,-16.7394,20.6965,3.0211,22.7338,16.326,10.3528,-6.413,28.6163,8.4989,
9.2773,1.08,-8.5164,-6.9225,-6.2883,-14.0473,21.2627,-2.2219,11.9703,8.357,-2.0785,-18.3203,26.1764,-3.3388,
9.9257,5.1123,-4.39,-6.2664,8.189,-11.9999,16.3712,-2.3298,11.4928,7.1325,3.1077,-13.6059,25.3285,-5.3078,
4.2685,0.2263,-7.7422,-15.7726,19.267,-25.3799,16.5943,-4.8411,17.7931,9.3556,9.9111,-10.6204,18.2656,-2.3383,
7.8688,-5.5719,-7.7596,-17.7186,32.0903,-34.5826,16.5625,-4.5506,11.4228,7.3485,3.0499,-6.6087,15.2411,-4.1262,
8.3608,-5.2375,0.90064,-6.5323,36.4316,-26.7229,12.1945,-3.7954,3.9888,2.569,-1.4716,-5.2481,15.7731,-4.8427,
-3.2281,-2.0312,3.7389,-3.73,20.1457,-32.3506,9.0525,-4.0498,4.2316,2.4147,0.062706,-10.718,13.3802,-1.6598,
1.5453,-0.70383,5.6839,-4.7113,18.8167,-32.5785,10.1968,-2.1194,1.8083,1.5471,-0.18179,-7.9051,12.3367,-3.2473,
12.2986,-2.3491,6.548,-2.2597,29.4976,-23.6341,6.9337,-1.7515,0.49478,-4.0896,-1.3764,-5.2618,12.3196,-3.2936,
4.3299,-2.2081,-0.11142,-2.1241,13.6278,-27.5187,1.215,-1.1645,3.8396,-1.4341,-1.2938,-8.8025,11.5804,-0.20348,
2.3831,2.986,0.61817,-0.30942,-1.2899,-32.3753,10.0597,4.449,11.081,9.9802,4.3274,-6.5874,19.8032,-3.8067,
7.5425,3.2888,2.9914,-2.2191,-3.1405,-31.8788,16.2052,4.1823,6.5595,4.0789,5.9962,-11.4945,23.9179,-8.8812,
4.4386,-0.52393,-1.7676,-9.0758,5.0015,-27.7969,9.6891,-0.64815,-0.34177,-5.0836,-1.3537,-19.241,21.7597,-2.3225,
7.5468,2.882,-0.21548,-5.1568,6.1479,-14.0778,12.482,0.35483,6.9098,3.8983,-4.6467,-7.4812,28.649,4.5655,
6.8528,2.95,-1.8898,0.69624,-5.5494,-11.5461,13.9024,2.9849,7.7003,6.7976,-7.0192,-0.042501,24.2788,1.6403,
-1.9942,4.4603,-3.4633,-1.9967,-18.9547,-14.9506,15.7195,9.3134,15.6741,11.9335,4.2483,-3.6555,22.0988,10.46,
-4.0438,1.5413,-1.5686,-4.5284,-7.4534,-6.0997,0.67633,-0.16338,6.7795,5.1916,3.2702,-7.0517,20.532,6.2167,
2.4656,3.8592,-5.3306,1.5284,5.527,7.2819,-1.4128,-2.5639,2.5166,4.3984,-2.2284,-1.8076,23.6386,-1.387,
-8.5286,1.9404,-19.1108,-5.5534,-8.9046,0.33707,12.772,6.508,16.4656,18.2345,2.0026,-0.49435,32.102,8.0965,
-11.1502,-1.3093,-21.7001,-8.3535,-20.3009,-2.3345,12.3673,2.5021,18.7314,14.6096,5.0159,3.1507,30.899,10.744,
1.329,0.93843,-6.2981,-1.3446,-4.9829,1.4208,-2.4747,-7.0483,3.5075,-0.367,2.0632,0.31036,25.9118,0.21716,
11.3724,9.0768,1.9129,4.0385,-7.9379,5.6741,10.5685,2.5339,9.4433,9.6572,6.278,-2.6008,36.8904,8.881,
9.0029,7.3273,-8.0837,-0.30103,-10.5947,4.1287,14.9959,4.069,16.3484,14.1398,9.517,1.653,39.7385,13.8916,
4.3655,-3.4761,-11.214,-10.6469,-2.4873,-5.5189,-0.0038268,-10.2752,1.2675,-0.80859,5.3305,0.34861,29.4008,-1.0419,
15.4315,9.5064,3.5588,0.35573,-5.9535,1.3197,8.7936,1.5492,11.9169,5.6266,12.9644,3.9431,38.4826,8.7822,
15.7108,8.695,6.117,4.4319,-19.3348,-0.44659,11.8816,6.0356,15.7817,11.797,8.0893,-1.355,33.5222,10.4246,
12.5989,3.1117,2.6168,2.9608,-4.0747,0.30322,3.2148,-6.1368,0.73484,-3.0108,0.61395,-0.55049,23.0751,-4.3009,
5.3352,4.6125,-4.5298,-0.83207,0.8697,4.3824,2.2988,-4.5635,-6.9017,-10.4225,-3.0381,-0.75866,24.3419,-5.8502,
2.6049,2.8893,-10.043,-2.7105,-13.2825,0.26316,10.3559,6.3155,7.6124,4.3028,5.3393,-0.23109,31.5584,8.6008,
3.6539,-1.8635,-10.1633,-4.717,-26.5855,-9.6346,7.083,0.39294,13.5428,9.4679,8.6343,5.3264,32.7983,9.1692,
7.7729,-3.1979,-4.7333,-2.024,-10.8904,-1.826,0.87333,-8.7898,-1.2492,-5.2002,-1.5253,9.3452,30.3479,-1.5044,
13.8147,-1.3185,4.4692,3.1594,-3.8498,7.6838,7.811,-8.5031,-0.45108,-10.3114,-6.0128,5.6513,20.5735,-1.1725,
12.0213,6.4732,9.0212,1.5235,-17.7188,-3.8646,14.5729,-3.6545,11.1453,4.2867,6.3992,7.7224,22.2313,5.1645,
7.9256,5.6027,2.6953,-4.8347,-30.7556,-11.8276,7.4318,-0.54318,9.9944,6.9218,10.8357,5.8131,34.395,5.3363,
14.9222,5.0257,-2.0458,0.51718,-18.7872,2.982,1.9245,3.5869,-2.4155,-4.8214,-2.1066,1.3668,31.6083,2.8469,
17.1599,6.4113,-4.5744,1.209,-26.0958,16.6623,6.8707,1.6844,-3.9578,-7.6656,-9.452,-4.7408,18.8655,-1.9032,
15.8894,8.6778,-0.68473,6.198,-38.6301,1.5625,6.6994,-3.9602,4.2334,-1.1801,-0.93117,-13.8565,14.6001,-8.297,
24.336,14.1826,9.2388,19.9261,-41.9764,12.1943,-7.8025,-9.7482,-10.1206,-15.2093,-3.5264,-12.302,9.1448,-12.8604,
34.686,19.8392,13.7456,21.5021,-25.3578,25.5627,-15.8908,-6.5122,-23.3724,-24.7813,-13.1972,-6.0203,5.9446,-7.5095,
24.6508,13.5874,1.1106,6.112,-37.9363,25.3542,-5.0556,-6.3622,-10.6416,-14.3766,-22.7695,-12.6492,-0.43787,-9.7102,
16.4231,15.1825,1.5261,5.1431,-49.7602,9.733,-0.89565,-6.9448,1.5658,-3.8728,-14.1727,-16.2285,2.4807,-8.1635,
12.5454,11.3792,2.8805,10.1369,-54.3671,8.7878,-4.6985,-9.9026,-9.1332,-11.3535,-9.4657,-19.5934,6.1885,-11.0479,
19.7467,12.8659,7.2872,10.7337,-37.005,22.3605,-1.7653,2.02,-13.1647,-12.3592,-8.6566,-7.5715,9.4328,-8.6981,
15.4286,6.0681,10.4656,3.1001,-23.818,22.8263,-8.1671,0.21182,-7.7953,-8.9668,-15.6092,-2.5377,2.8411,-9.8632,
12.334,4.499,9.1146,5.0835,-25.5219,22.6623,-13.2204,-8.2368,-2.2657,-2.885,-11.057,-3.1081,6.2862,-6.6201,
13.5217,4.2291,0.373,9.5987,-14.3499,22.2664,-9.5352,-8.225,-8.8787,-8.9784,-7.0196,-8.2247,4.4628,-10.0792,
13.4337,3.7343,3.966,13.6025,-13.7299,19.7256,3.8114,0.70466,-6.1768,-11.0912,-5.3931,-2.1876,1.5435,-6.8234,
-0.14698,2.3052,-1.8158,5.3143,-27.0061,13.4802,3.342,4.76,1.1835,-1.0255,-8.2028,-4.2255,6.9947,5.3964,
-2.0659,4.577,-7.0092,2.5854,-22.6137,13.1537,4.5877,2.5462,3.0411,5.7849,-4.3362,-10.2383,16.6979,6.5188,
4.8065,3.8205,-0.3224,1.9483,-14.0262,10.9183,6.2402,-8.2119,-6.3009,-6.6137,-3.1121,-15.891,10.8754,-7.9723,
0.66173,5.0371,-0.78499,-1.5431,-21.8618,11.227,-1.847,-5.3091,-2.5484,-8.1451,-4.8536,-11.0811,8.2946,-4.4812,
-0.34207,4.7351,8.9033,5.2982,-8.9804,23.5691,-15.8362,1.7586,-4.3234,-6.6923,-5.526,3.6837,5.3871,1.5725,
5.4633,3.0049,22.4691,17.9955,5.6584,36.2549,-25.8525,-2.6854,-18.164,-19.7884,-5.6771,17.5627,-6.5056,-7.1992,
-3.7828,4.0297,7.021,8.9623,19.4189,32.7536,-10.2014,-4.2118,-18.1588,-10.6471,-1.7208,9.7603,3.2846,-0.25951,
-17.6559,1.1366,-7.5003,-5.6755,4.1538,16.6884,4.5107,1.1026,-2.9692,4.0917,-0.4125,6.0414,17.1875,13.8561,
-10.6912,-0.6186,-12.4734,-1.8402,-3.2061,19.1823,-0.58041,2.7237,-4.358,8.5462,-2.0747,16.043,13.1435,10.9762,
-2.8189,2.3106,-0.15562,2.609,11.0863,25.2622,-7.7764,-3.2243,-17.1115,-6.0665,-1.4683,11.7064,7.0527,-1.7334,
-8.6755,5.3057,1.0588,2.6932,8.6136,15.7925,-1.766,-1.8258,-10.0595,-2.4486,-2.1034,1.1219,7.8346,-0.90675,
-9.1189,0.64853,4.3697,2.5316,3.2761,10.9885,2.1964,8.4067,-9.9379,-4.2299,-4.3873,3.9466,2.5438,1.0759,
2.0331,3.9841,6.5177,5.2722,17.1795,15.6319,0.61831,17.0613,-15.1262,-15.0633,-3.1602,4.1918,7.6938,-2.3632,
1.6701,7.3605,11.1883,13.8735,3.7358,2.4014,-9.7831,6.6376,-17.3521,-13.9185,-8.5142,-3.5315,8.9194,-7.2826,
0.12367,7.4008,20.1575,20.7538,-5.165,5.1494,-6.3036,1.9006,-12.4546,-7.2988,-4.6289,0.53674,2.5992,-3.4716,
-8.0787,5.9926,4.848,9.8679,-2.9272,17.8561,-1.5868,7.5713,-12.6714,-12.1633,-4.3514,0.9867,-3.3411,-1.8168,
-15.7884,3.7051,-9.5428,2.0452,-16.8515,7.6259,-3.902,6.153,-8.0545,-4.6848,-9.8746,2.3735,-4.1047,-5.5645,
-7.1284,7.3387,3.8042,13.0092,-20.0583,7.6503,-2.2216,3.8556,-5.643,-1.5117,-5.4258,6.5699,-5.3047,-7.1588,
-6.4599,7.6215,4.2991,11.988,-18.1316,8.3963,0.080618,2.9011,-2.1712,-0.21547,-2.9308,4.4882,-4.7452,-5.0418,
-6.5543,7.1642,4.0411,10.3043,-17.0437,7.8926,2.004,1.7632,0.36919,0.27939,-1.3092,1.8088,-4.9425,-4.2574,
-8.089,5.7707,2.3526,7.7581,-17.4671,6.4549,2.3659,-0.75295,1.3111,-0.70147,-0.74848,-2.1559,-6.5739,-4.966,
-9.5323,3.9782,1.2476,4.882,-18.3473,4.6214,2.7059,-3.1179,2.1968,-1.6237,-0.70357,-5.8834,-8.1081,-5.6324,
-10.6473,2.5345,-0.032326,2.4202,-18.4518,3.6214,2.7847,-5.5821,3.2701,-2.2494,-0.42016,-9.1455,-9.3086,-5.5352,
-10.4904,2.382,-0.030385,1.3107,-17.8266,2.9217,4.0639,-6.2111,5.484,-2.1144,1.0513,-11.4893,-9.232,-5.2031,
-16.3687,-2.8224,-11.357,-3.8294,-30.857,-8.5815,1.1687,-19.9384,10.6988,2.5919,2.1933,-14.4152,-15.1858,-12.8448,
-7.6736,2.6498,-5.8551,-5.0457,-19.0029,-1.7999,8.3292,-6.8117,7.1646,-2.3841,1.5795,-12.1042,-13.3106,-3.3973,
-2.8751,3.9368,7.0295,-3.7789,-10.1502,3.1286,5.4191,7.697,-2.9065,-7.5434,-1.8895,-11.8601,-14.4404,1.627,
-9.451,-3.5302,3.7156,-4.5165,-16.7718,-5.7362,2.2019,-2.5263,5.9445,5.9246,2.0803,-9.7023,-18.3946,-0.39878,
-15.8738,-3.5594,-10.6073,-9.3071,-26.1296,-8.5256,8.5773,-6.954,19.3266,16.8973,2.6784,-3.5765,-21.3883,1.3124,
-8.1725,2.4388,1.96,-2.4817,-10.4618,6.086,7.0988,-3.1623,6.5979,2.3861,-1.3387,0.97686,-31.6742,-4.069,
-5.7542,2.2922,10.0369,0.077518,-7.0623,8.0109,-0.55822,-9.2393,-1.511,-4.0238,0.18764,-8.241,-38.9325,-10.5736,
-17.2191,-1.9424,-4.6653,-14.0271,-20.7386,-6.5697,3.0909,-9.8903,12.6797,8.028,4.7559,-18.5926,-27.1964,-2.9495,
-15.463,0.82544,-16.7982,-13.5472,-30.9429,-15.2143,7.003,2.0314,23.8497,15.0179,6.158,-4.7028,-16.6467,5.1814,
-7.3042,3.6682,-1.6903,-3.5756,-15.1068,-3.6964,-5.4685,-3.8753,8.3187,3.5118,-3.8527,5.2206,-29.7479,-0.43186,
-1.5635,-0.40851,-6.0475,-9.1454,-11.3081,0.86439,0.64446,-7.9809,1.1914,3.7832,-1.2112,-0.39509,-27.3604,2.0044,
-4.603,-6.4098,-15.0848,-17.0325,-14.2451,-6.1776,10.9694,-5.3331,6.6633,4.7613,4.8873,-9.2897,-17.7653,2.1249,
-0.95278,0.72372,-1.1648,-4.4414,-8.0879,-2.4329,6.9368,-10.7977,1.9252,-2.7552,4.1117,-5.3579,-24.4121,-5.7154,
1.5147,0.19813,-0.61274,-1.2827,-12.4232,-2.7687,2.6644,-14.4884,2.7738,-2.1082,2.4189,5.5687,-30.1785,-5.3727,
-0.7453,-4.393,-10.9398,-6.7493,-18.1855,-4.7717,-0.62891,-2.7728,4.7765,2.1161,4.443,8.85,-24.2699,0.01135,
-0.70035,-0.2733,-6.4268,-2.9701,-10.8276,4.1915,-0.10901,2.214,2.562,-2.3494,4.1766,-5.6605,-18.9576,-3.8455,
10.6696,8.6614,5.7687,6.6083,3.0784,18.04,5.4409,-2.9803,-1.2074,-9.1981,3.2029,-14.7207,-25.2917,-5.3022,
10.2709,5.9725,7.5922,4.5246,-6.506,16.8371,-4.7675,-4.0063,-5.2323,-10.8154,2.2878,-3.4736,-34.1381,-1.8506,
-4.4454,-1.6166,-2.9867,-4.424,-20.2157,1.7269,-7.8554,-3.284,3.7587,-4.3819,4.5607,0.1093,-27.7515,-1.2576,
-4.0584,1.3724,-8.1097,-1.266,-11.6516,-10.3076,2.2569,-3.0869,8.3539,0.21936,4.287,-2.3074,-20.3018,-5.0386,
10.2851,0.56694,-3.526,-2.3951,3.1475,0.67498,6.701,-4.1068,-0.10129,1.8937,1.8604,-2.4101,-26.0733,-6.9052,
17.5015,1.0151,10.1831,-0.8054,17.0586,11.7219,3.4066,-6.7527,-5.3981,-4.4867,3.6772,-1.3014,-30.7757,-3.5986,
10.1847,4.3284,12.9464,7.4379,28.5684,12.4646,-9.3315,-8.7579,-8.4484,-13.3763,2.0101,4.0795,-26.0369,-5.3111,
1.6194,-2.4388,-1.9304,1.9299,17.9362,4.245,-8.0487,-9.4377,-1.916,-3.6561,2.1305,4.5572,-18.9315,-8.6078,
6.102,-0.12329,-2.6582,-1.8013,14.6909,9.5339,6.5342,-5.7379,4.2245,2.1069,0.79779,-4.6338,-19.9643,-5.9222,
14.8949,5.6687,11.6013,5.5376,27.9094,21.9773,7.2272,-5.3937,-7.5981,-12.1196,-6.4809,-13.9968,-25.5153,-6.0488,
15.2062,2.6772,15.8464,6.4104,28.284,18.4892,1.2502,-6.2751,-8.3473,-12.9587,-6.8152,-8.5775,-16.9943,-7.8548,
9.7144,-0.13472,0.79563,-4.8202,18.151,11.8365,5.7542,-3.7297,5.8921,1.9189,0.10143,2.7832,-9.4674,-3.7683,
8.6493,-2.0546,-5.1574,-10.3158,31.162,13.5362,2.9986,-3.9881,2.6463,-0.0042183,2.0233,-1.7223,-15.1661,-6.435,
17.0484,1.6836,8.4084,-0.29688,43.392,14.4113,0.64955,-0.13335,-5.9486,-6.5119,2.6253,-9.0908,-15.9434,-2.4335,
20.1231,2.3062,10.0733,-1.0017,37.6552,9.9314,7.1183,-5.1868,-6.7968,-4.4337,-0.6655,-4.4478,-18.602,1.8101,
16.5054,1.2037,16.2176,-7.6903,38.7702,10.2996,-0.53942,-13.0701,-8.7989,-5.6137,-1.1077,6.4242,-24.7165,-8.9035,
12.6228,-0.79691,12.3522,-10.6036,33.5517,7.7537,-7.7377,-1.6808,-6.343,-4.3128,4.7435,4.1108,-14.5566,-8.3691,
10.9011,-4.6055,-2.4889,-11.4136,25.272,3.914,4.7777,6.6148,-2.106,-3.0902,4.4589,1.4535,-6.9343,5.1485,
9.7651,-0.9547,6.9397,-2.5336,34.3606,10.91,3.0448,-6.3156,-12.1025,-5.7968,-3.5214,6.187,-18.5698,1.4651,
4.3587,-0.41525,20.0209,2.9208,35.1917,11.2195,-10.635,-11.721,-17.1612,-4.4849,-6.2024,0.031457,-22.758,-7.2997,
4.8203,-5.4522,10.3838,2.0224,34.2848,15.1254,-7.828,2.7203,-9.6238,-2.0469,0.19507,4.1267,-9.1002,0.12795,
7.9055,-5.1247,11.207,1.9011,41.3872,19.5205,-16.5169,-0.81689,-18.6874,-11.5651,-0.29857,16.4126,-14.3388,1.0846,
9.118,2.6542,17.0421,1.546,25.1652,11.8418,-16.2492,-11.1322,-11.5406,-8.2201,3.8167,11.33,-19.9864,-2.1144,
2.7865,2.4952,1.9195,-7.2236,9.5553,1.0082,-1.1743,-3.2332,3.1314,1.9143,4.5518,0.045147,-12.0386,3.3153,
3.3422,1.6221,-8.439,-4.621,8.8615,3.5988,-0.50142,7.8066,-2.1182,1.0766,2.1095,11.3706,-9.1471,8.1781,
4.1058,-0.4032,3.6363,-1.4515,14.5965,1.9368,-14.4509,-4.2312,-12.5961,-7.1834,0.054531,13.0987,-20.6496,1.4207,
7.9568,4.6822,5.1053,4.1792,6.7309,2.0616,-8.0402,-9.5209,-11.5994,-4.5828,-5.4924,5.323,-19.1696,1.5764,
14.2283,5.3656,0.46067,8.2673,9.2195,1.9379,4.4938,-0.27258,-6.5647,3.405,-10.465,-0.78055,-8.378,1.4818,
14.5797,2.3923,6.4583,7.0476,11.7991,-1.3117,-5.658,-3.3895,-9.3045,-1.3789,-6.7038,-0.011043,-11.9729,-5.5972,
8.8846,6.5871,11.8559,6.6248,-3.0088,0.69523,-12.0674,-8.9707,-9.2282,-8.527,1.8931,8.6667,-18.4854,-5.2609,
4.0132,2.8179,2.9498,1.889,-8.9741,0.17159,-0.7381,-2.1655,-4.3357,-3.1946,-0.63062,7.6648,-12.0736,-1.5708,
8.1105,2.6486,1.3263,0.3296,5.6644,-2.2491,2.6804,1.8206,-0.2194,4.2277,-4.4494,-2.9182,-1.708,0.93333,
10.5167,0.56172,3.6571,-3.0644,17.7373,-13.6831,-4.2286,-7.4474,-0.68794,-5.6667,1.6024,-16.7227,-3.5335,-2.4969,
12.5367,-0.67728,-0.17773,-3.1215,25.5911,-22.2621,2.0506,-11.0979,-4.2621,-9.9065,-0.18099,-15.4783,-10.3114,-8.3726,
15.159,1.7739,-0.16706,1.886,38.1556,-21.4087,6.2659,-9.4682,-8.8271,-5.4557,-11.2574,-3.4624,-14.9953,-11.7267,
15.2136,2.6316,6.5921,2.737,32.8538,-27.3548,1.5514,-10.3461,2.79,3.0666,-2.8689,1.5658,-13.1315,-5.2382,
9.962,-5.7215,8.1243,-10.4427,16.7825,-38.729,-2.88,-15.028,6.4785,2.8826,2.1235,-9.1334,-10.8974,-4.9239,
23.1028,-3.2088,21.7368,-1.3802,29.8756,-22.3052,6.2106,-8.5829,0.064507,1.0226,1.2729,-4.0059,-4.2182,-3.9058,
17.3783,-6.3907,13.3227,4.4872,31.2163,-14.5799,0.53536,-15.7807,-8.1341,-5.7876,-6.5158,-4.2475,-17.9444,-10.4199,
8.8638,-3.8381,-1.5766,2.0488,15.2433,-20.6945,1.2266,-12.6645,2.7178,5.8878,1.8289,-4.2336,-16.1448,1.5335,
8.332,-6.9823,-1.6027,-2.8944,20.4745,-16.5608,0.67061,-3.7099,0.14464,7.9447,3.165,-3.0157,-4.5709,4.3335,
9.5193,-4.8761,1.1445,-1.0339,33.3461,-3.2746,-3.467,6.8768,-3.9618,3.3706,-0.64032,2.7088,-3.5737,5.2788,
2.4404,-4.3423,-5.9138,-4.5871,23.0301,-6.2114,-5.4279,8.1516,1.3378,3.8915,-0.36071,-1.5508,-14.2053,10.9878,
-5.4192,-9.3845,-8.9334,-9.1326,19.7201,-12.1057,-7.0309,1.3955,-3.0813,1.7298,2.0711,-6.7604,-13.353,7.436,
-0.75554,-4.0009,-4.5408,1.5385,32.6369,1.6363,-8.537,4.2041,-7.2349,3.5545,5.3215,7.7452,-5.8031,4.5795,
-3.3613,-7.3763,-8.3657,4.0977,25.0146,-1.5954,-11.1583,3.229,-3.1854,4.0641,-1.0238,19.4521,-11.9629,1.6537,
-7.7389,-10.0667,-4.7303,-2.1737,9.4137,-11.8635,-7.3553,3.7586,2.5498,8.4,0.24291,12.2594,-13.8962,3.7236,
-8.7211,-5.6066,-2.0366,-1.0796,-2.3588,-8.2599,-5.4679,0.15838,1.9142,14.1623,3.1206,10.0778,-11.6164,5.9105,
-8.9209,-7.4396,-5.5296,7.4215,-1.4942,-8.4874,-8.755,-5.3945,-4.7079,8.2511,-3.5743,17.4271,-15.9809,4.8328,
-9.1083,-7.7159,-5.439,7.217,6.0671,-12.0753,-7.989,4.3289,-4.6667,3.1765,1.7016,19.9967,-14.7808,9.6043,
-10.0083,-8.217,-5.5948,-3.8211,9.0777,-9.9047,-2.2068,10.8179,2.8439,5.8782,10.7588,8.6737,-5.699,9.0282,
-8.6845,-7.4835,-3.09,-2.387,8.2916,-4.2488,-2.3158,2.2151,0.022219,2.8744,2.159,1.6454,-2.706,5.3531,
-9.8506,-3.901,0.71086,4.2642,6.1069,-4.7172,-4.8279,-2.4976,-5.0408,-0.91345,-0.62161,-0.14057,-6.641,5.7548,
-13.3572,-2.4619,-0.53686,1.357,2.1253,-8.0494,0.52318,1.7498,1.2874,2.2746,6.8877,-1.3367,-13.2322,6.1326,
-19.0635,-4.4835,-5.5661,-1.3758,0.31033,-8.2895,0.25059,5.7424,2.4152,2.3789,4.3051,8.1432,-16.5358,7.9341,
-22.7401,-6.6244,-6.1962,-2.2573,-0.18999,-8.7563,-3.6206,4.9157,2.2701,5.6108,6.9391,11.9932,-14.5796,18.0631,
-19.9297,-6.2272,-3.4146,-1.1578,7.052,-5.821,-4.3675,6.5488,4.5443,10.0947,11.3432,6.9351,-16.5971,21.3174,
-21.144,-7.2994,-3.2092,2.2861,10.9672,-3.0611,-6.0336,5.6739,-3.9231,4.6683,-2.3528,10.8573,-28.1348,8.9516,
-22.0446,-5.6566,-0.84751,1.908,4.766,-2.1541,-3.5024,2.6824,-2.0005,4.6296,-3.4169,14.3036,-26.2057,6.7272,
-19.999,-3.1478,-0.073528,-0.8578,4.2389,-0.82026,-7.8718,4.2084,4.6272,7.4851,3.7777,6.4553,-18.6076,12.8313,
-21.4501,-5.1281,-0.31008,-2.4936,3.7436,-3.9041,-7.1585,5.1612,6.5188,3.4205,-1.0282,3.8988,-20.6242,8.446,
-15.8248,1.4459,0.67262,2.9585,-6.1222,-11.3828,6.2866,-0.93327,11.912,2.7332,-2.4126,0.77262,-22.2795,1.6725,
-11.7418,3.5288,-7.8039,3.5043,-19.4932,-22.0281,7.1143,-14.9773,13.3669,-2.0101,-1.5449,-12.5301,-23.1119,-3.4891,
-10.3144,4.0399,-7.5766,1.6068,-18.0827,-23.8396,15.6055,-8.6555,18.108,1.7254,9.876,-6.7166,-11.8432,-1.5929,
-9.6956,3.7975,-7.6044,1.5104,-16.0338,-20.9632,14.1872,-7.6542,17.5035,2.5862,9.7654,-6.796,-14.0247,-1.9793,
-8.8726,3.8109,-6.9069,1.1786,-13.8667,-17.536,13.0948,-6.4719,16.6945,3.6361,10.3845,-6.1471,-16.3165,-2.1017,
-7.8581,3.582,-6.4923,1.1081,-11.5883,-15.0378,11.8274,-5.6014,16.175,4.3821,10.2436,-6.2604,-18.7117,-1.9754,
-7.1459,3.6083,-5.8616,0.80044,-9.6879,-12.4481,10.8766,-4.5422,15.4457,5.3242,10.8345,-5.6436,-20.7222,-2.0976,
-6.7171,3.3918,-5.9923,0.75241,-8.1428,-10.2554,9.742,-3.7877,15.0009,5.9691,10.6664,-5.7869,-22.3714,-2.4542,
-5.5912,3.4292,-4.9098,0.4663,-5.967,-7.4709,8.9161,-2.3554,14.3418,7.2977,11.2312,-5.1992,-24.645,-2.0659,
-4.0504,3.4645,-10.1584,0.19735,-7.7781,-9.1914,7.6582,-4.383,8.902,5.655,9.3525,2.585,-19.5504,0.70957,
-4.0486,2.5335,-6.4156,-8.7328,0.16062,-8.8811,4.5474,-1.4689,4.2703,3.6282,6.14,-2.632,-20.5468,-1.5024,
-0.67221,5.033,2.405,-1.2189,-7.3208,-15.82,13.6746,2.7166,17.2704,9.9185,14.6897,0.65943,-14.2523,0.75691,
2.9833,4.0079,2.9838,2.9518,-20.9816,-24.2711,20.3257,0.38464,23.2239,10.0465,17.4235,2.3069,-15.0846,-4.35,
7.6255,6.6599,4.251,2.7747,-18.3969,-8.7148,5.0061,-1.5666,7.7304,-4.6563,2.8807,-1.6875,-28.2796,-9.3911,
7.8906,10.3575,7.1292,9.5978,-3.555,5.9081,-7.9478,4.0708,-6.8334,-10.282,-7.6562,-1.3455,-30.5597,-4.2486,
1.1505,5.3975,3.3273,8.0579,-17.4417,17.6052,-6.0249,4.3087,-7.8696,-5.8089,-4.7865,-3.1927,-24.8695,-2.0653,
4.4556,5.0739,5.0556,7.5746,-29.2899,17.5129,-4.6993,-0.2884,-6.9153,-6.4245,1.2851,-3.4833,-30.126,-2.9055,
6.5989,1.8769,9.0906,7.1197,-23.1942,11.6414,-7.7918,-6.0557,-10.8387,-13.2698,-1.6846,-4.2387,-32.1753,-9.48,
5.962,3.9334,10.7148,7.4159,-27.8281,1.061,-2.2626,-4.0051,-2.7166,-11.2683,-2.3064,2.0417,-24.2187,-10.1165,
4.1582,2.7333,7.1796,6.9711,-30.0146,-0.44866,1.7298,-9.5496,-0.62516,-9.1458,0.24236,-1.4551,-25.6579,-9.0274,
6.3189,-2.2509,7.7127,9.9269,-19.0551,7.773,2.5899,-13.315,-2.9982,-8.1151,0.70975,-6.6704,-24.1184,-5.1113,
6.1805,-0.91079,7.0087,6.198,-10.9222,10.9218,-2.145,-3.5982,-4.0234,-4.9773,-2.4661,1.2014,-20.9843,-1.6713,
3.8815,0.59011,4.6605,-3.8148,-12.677,9.3026,-5.3908,-0.48981,-4.2639,-2.75,-1.8362,4.9857,-26.9561,0.35713,
5.0951,0.072544,9.2013,1.7165,-10.9522,14.0469,-6.0314,-5.7633,-8.8286,-2.5852,0.68433,-1.0982,-27.2667,-1.5923,
6.2354,1.5142,14.9155,11.7366,0.30996,24.291,-9.5257,-0.59701,-11.6736,-3.8762,4.4994,3.7881,-18.882,0.43124,
-2.3339,-3.8793,7.7541,4.284,0.77375,21.3878,-16.185,2.3313,-13.8652,-6.5361,4.2299,12.2379,-19.1954,3.2979,
-6.5322,-6.5386,1.5043,-1.7577,1.6912,17.6944,-19.0703,-2.6293,-13.9976,-2.2876,2.0479,10.0574,-21.9,6.9564,
-3.2477,-2.7718,4.3065,-1.1703,7.3743,18.5609,-13.1054,-2.4711,-7.3727,3.6347,2.8889,5.1156,-18.6578,11.8417,
-6.9093,-0.19538,-0.29019,-2.5463,4.0398,16.001,-14.7296,-0.39459,-10.7867,-0.92213,-3.069,4.3268,-22.3586,12.095,
-6.4949,0.78044,-1.2373,4.3551,7.6536,21.7896,-18.1844,4.4491,-15.4424,-0.86657,-3.8489,16.1185,-24.8737,16.6717,
-3.6949,-4.0869,2.2116,5.0579,12.0148,22.4107,-16.1288,3.2185,-13.0694,0.14952,-4.0997,12.741,-22.8991,10.851,
1.1063,1.7017,5.2121,3.5494,12.0171,19.3786,-9.6177,6.6406,-9.6344,3.7557,-8.9156,4.9869,-21.7664,8.5129,
2.7269,9.0717,5.6225,3.5776,6.2346,17.4927,-5.9074,8.8935,-7.3688,5.6998,-9.5858,5.8928,-21.1835,13.5455,
-6.3543,5.3939,-1.2223,0.22948,-6.9135,8.0075,-8.204,-2.004,-6.2038,-1.6321,-6.3591,3.852,-23.0455,7.6716,
-6.2144,7.7213,-4.2829,1.4205,-15.4172,0.53717,-2.1686,-1.6432,3.5684,-1.7751,0.047565,7.7182,-21.9042,3.1135,
-0.29774,6.5349,-7.1592,0.61264,-10.3946,-1.1825,-0.35104,-0.33912,0.703,-2.3917,-2.6062,7.9782,-23.7232,1.7216,
3.0943,8.0713,-2.3911,10.699,-4.9504,9.494,-7.0787,1.6092,-10.4262,0.16212,-2.9319,7.4998,-27.1203,9.3313,
-6.9732,3.9716,-2.9705,13.672,-18.7534,4.3446,-14.1257,1.7536,-11.9698,0.87529,-3.9613,5.3626,-31.0367,12.3868,
-5.591,-0.60506,1.0641,6.5852,-3.5282,-0.25442,-14.7245,6.4691,-11.252,1.7866,-8.062,15.1637,-28.6926,12.6075,
2.9396,-2.015,5.8205,2.3337,10.7835,5.5454,-15.2872,9.4554,-17.3254,-1.6945,-9.5064,23.8949,-23.5966,12.8154,
0.35291,-6.7146,1.1332,0.26571,24.2365,-2.4998,-11.4773,2.1394,-15.3217,-2.557,-4.1156,12.8204,-19.7704,12.5286,
6.8394,-4.6243,10.9474,8.2037,36.8823,-15.1245,-6.2091,2.7342,-9.8229,3.6222,-3.1455,11.81,-20.7531,15.3921,
11.4905,-2.1779,16.3158,10.8443,48.7694,-19.2785,-8.9703,3.7747,-11.8849,-0.69269,-11.3927,14.7166,-26.0161,13.2635,
4.5346,0.84531,1.2369,2.9633,44.6381,-19.0857,-6.0215,2.1024,-9.7255,-1.1331,-4.4426,9.0133,-17.2243,13.9139,
3.7801,1.7585,-6.4298,0.37489,40.9955,-21.7974,0.60632,-0.43429,-4.8037,5.6834,2.0905,2.6875,-9.4419,13.561,
9.3383,-4.1316,1.6692,3.2449,35.6437,-23.8635,1.5338,-4.7466,-1.6229,2.9322,-7.6755,0.59852,-17.0701,7.4447,
8.2961,-0.027341,-3.7336,0.6401,19.4051,-26.77,0.47792,1.8052,4.259,1.7924,-8.1793,-1.3656,-19.4204,6.998,
6.1109,2.6261,-8.0891,-4.4598,8.4793,-31.6715,3.5825,1.4557,1.8346,-0.4845,-2.6266,-11.6477,-19.4602,1.5167,
14.4211,0.057702,6.4962,3.0384,16.6475,-23.505,7.7061,-1.5239,-3.5784,-6.7222,-4.3974,-15.7694,-24.5593,-3.3948,
12.1098,1.9827,7.9139,4.3022,22.8792,-13.8997,5.7977,0.97786,0.97486,-4.3909,-5.5801,-12.8952,-20.1935,4.5219,
4.3936,1.1406,-4.3708,-7.7663,14.5168,-19.5735,5.6906,-0.28587,6.4597,0.45209,-0.66575,-12.3623,-10.546,6.4195,
7.9861,-0.85628,-5.0726,-8.7464,7.8615,-18.3988,8.2414,2.1412,8.0006,2.3534,4.6771,-7.7644,-8.4672,5.5522,
3.1684,-1.2866,-8.143,-6.2932,-0.80516,-15.8489,4.3727,2.0129,7.5203,6.0688,1.9861,-5.8525,-13.2616,8.1114,
2.0142,3.1287,-3.3158,-3.9876,-1.239,-17.7902,1.7,-0.5182,7.5513,11.489,-1.0254,-7.9117,-10.0555,7.6249,
9.1242,4.3872,3.632,3.0005,12.3327,-15.7589,-3.7046,-2.4153,-1.5789,2.605,-10.6048,-14.1854,-9.9346,-1.5097,
9.782,2.9191,2.2088,3.5434,6.5315,-11.6799,-2.2771,1.827,1.1674,1.2434,-11.1738,-12.129,-13.4359,-2.6239,
3.1693,5.3949,-4.9134,-4.1412,-7.9604,-12.1842,5.8131,0.99422,11.461,11.5329,-2.5494,-6.3403,-11.9066,3.5588,
3.9433,6.0357,-10.4034,-8.2308,-9.5317,-13.3811,8.839,2.3811,12.7017,14.2156,3.8703,-5.9596,-2.9973,4.3098,
3.9476,-0.35242,-13.8765,-7.978,-8.7188,-17.158,12.406,7.7818,17.9652,16.0137,6.2892,-11.1457,-0.64826,4.7741,
4.4344,2.8024,-7.982,-5.8123,-21.4518,-15.4054,9.0108,4.6636,11.8263,10.4734,-1.0778,-13.1278,-13.3836,3.7646,
9.9524,8.9008,4.0656,-0.64284,-9.078,-5.322,3.167,1.0093,-1.8992,-0.2779,-5.3515,-7.0379,-14.0268,1.6105,
5.4989,1.6179,-7.2656,-6.3893,-0.82051,-8.3771,7.3153,2.8769,4.9637,2.1484,-2.1383,-6.1337,-3.5443,2.9597,
3.964,2.244,-15.2652,-8.175,-14.8713,-14.8643,19.1692,7.7659,18.7659,12.3842,2.5696,-5.5244,3.6582,12.6644,
6.1364,3.5553,-3.2622,-1.4176,-13.6173,-13.4904,8.8597,1.5155,11.9756,0.55358,-3.8514,-10.0135,-8.6125,6.602,
11.5528,5.7526,5.6107,4.9339,1.2997,-3.0398,-3.723,3.8347,-2.843,-5.7461,-2.656,-3.6281,-15.3264,0.42128,
7.0033,3.9612,-6.2956,-7.4132,-12.8783,-3.3398,7.5876,11.3174,11.4276,7.614,2.3236,-1.9642,-5.7302,7.1449,
5.8602,4.9288,-5.1945,-13.9583,-26.2056,-4.8264,16.0505,9.4333,24.842,13.6647,5.7996,-6.4259,1.1216,15.1519,
6.4724,1.7405,-1.0264,-8.3001,-17.5229,-5.5009,4.4821,-2.22,11.4211,-0.65255,1.5952,-10.8608,-6.6587,5.0837,
6.0843,0.672,-7.2316,-2.4996,-7.7944,-9.5094,6.6236,-1.1224,6.8792,-0.61317,-1.3928,-7.7988,-6.2592,-3.4158,
0.65756,1.3546,-5.1105,-2.1087,-15.2809,-11.5901,6.949,6.8986,4.2973,7.8593,-1.5502,2.5511,-0.34003,1.3685,
-0.58718,-0.41392,0.73976,-4.6337,-22.8,-7.2793,10.6295,10.5821,11.0289,12.9313,7.9428,1.6747,5.7059,12.6146,
4.5096,-0.14777,-5.8124,-6.5248,-17.8167,-4.1913,17.4634,11.1521,20.2494,10.4681,13.0098,-12.5258,8.4969,8.7241,
3.2753,-0.62118,-7.3916,-5.651,-4.6962,4.2554,8.221,6.6269,12.2856,5.0199,6.9267,-18.6432,7.0234,0.0060445,
2.1144,-1.5478,-2.61,-9.1685,-13.0913,11.2305,9.174,5.7469,18.2974,17.2517,9.4031,-10.294,9.4938,9.6466,
3.4336,-0.0088829,-3.8996,-13.4389,-26.4059,0.91568,17.7824,8.2944,28.2866,24.4116,9.3211,-8.7123,7.9603,16.7804,
2.0226,0.71489,-1.4964,-6.125,-17.7113,-1.3085,13.0999,4.1814,21.528,9.6904,1.7723,-12.7689,3.8671,9.266,
-3.6424,-1.0153,-4.54,0.75034,-5.3203,8.652,2.9142,-6.4337,9.8719,-0.29071,-1.4672,-14.654,-4.3187,-1.654,
-3.4239,-2.4007,-10.5341,0.70532,-12.2319,5.7228,5.6314,-2.6732,6.3875,6.9571,-1.3796,-17.6312,-11.2902,-4.9292,
4.2531,-5.3899,-2.9124,1.3861,-3.0621,2.2461,5.0524,5.4412,4.3168,0.9963,-1.5376,-17.2964,-6.9976,-2.464,
0.14154,-3.6202,2.565,3.7131,1.9419,7.896,-7.7838,0.29399,-2.6906,-10.1507,-4.8198,-17.223,-5.1317,-1.3523,
-6.1335,5.756,-4.3376,3.0084,-12.2746,4.0477,4.7343,5.579,8.558,4.5583,2.7003,-16.6715,0.96098,3.0676,
-2.6321,9.026,-4.3182,-2.7156,-12.6224,0.67174,18.5502,15.1263,18.4088,16.457,6.1535,-11.5735,8.8574,5.0526,
1.1411,7.7614,-1.4081,-10.5068,-1.9832,8.5851,14.9066,6.2649,12.7244,8.9615,-0.72326,-14.0127,4.7104,1.6163,
4.6883,5.1263,-4.4569,-15.9019,-0.65893,6.8649,5.5763,-2.5469,11.7202,6.7368,0.5252,-22.5717,-2.0799,-1.614,
16.6991,8.9161,0.87221,-17.117,10.7086,3.8017,10.3034,5.0777,8.3654,4.1635,-2.1574,-19.5304,-4.1243,-1.2761,
27.2663,12.2375,0.81988,-26.695,17.2969,0.68129,4.8645,-2.9397,-0.81315,-5.7273,-16.128,-25.5892,-9.1795,-13.2511,
39.7303,17.0471,2.4577,-24.8526,27.587,-0.082719,-1.4531,-15.0559,-1.0056,-8.5174,-27.3323,-36.3464,-9.3518,-17.9994,
51.4465,22.5318,6.89,-12.5152,40.0318,11.7324,-4.499,-11.9829,-13.2373,-18.3702,-35.0924,-38.7449,-16.2623,-15.2323,
62.4597,31.303,11.779,-2.6054,51.7299,25.1284,1.5553,-5.4796,-18.2279,-23.0528,-40.2177,-33.0462,-16.733,-11.9084,
50.8789,29.1841,4.5645,-8.9564,34.5261,12.6542,-0.22501,-11.1763,-10.6265,-14.68,-40.9379,-41.4273,-11.6315,-11.4347,
46.862,24.0583,3.3266,-11.3117,23.175,6.5921,-2.6219,-10.506,-9.0248,-8.0144,-43.7843,-41.352,-10.4517,-13.1589,
47.9067,21.1686,11.8036,-6.2947,35.8845,17.2838,-1.0183,-7.4653,-17.1604,-11.3899,-49.8341,-24.7709,-11.2708,-16.2258,
30.9323,16.2833,9.8903,-5.1934,24.6934,17.4523,-2.6447,-3.4017,-16.8539,-14.8041,-44.6746,-14.0051,-10.3534,-11.1547,
14.9764,7.8342,-4.8031,-1.2666,9.1118,5.0767,-0.31658,-0.54652,-6.9244,-8.372,-34.5223,-16.2981,-3.2245,-7.3521,
6.365,3.2668,0.4263,12.9094,9.6494,5.9774,-6.8055,-9.914,-13.4988,-9.075,-33.1744,-15.0792,-0.37967,-14.3828,
9.3578,2.1072,14.5007,23.3425,17.2658,11.8855,-15.556,-10.2828,-21.8477,-11.9047,-30.2196,-8.3897,-3.7311,-11.1095,
-5.3037,-2.8402,7.7254,12.3008,2.1299,2.0131,-8.3559,2.8675,-8.0035,-4.9237,-25.9963,-11.2607,0.34891,-2.7304,
-13.783,-1.4645,-5.9945,11.3217,-12.0979,-1.2407,-2.7929,3.9003,0.91234,1.3973,-26.1237,-12.7545,9.728,-2.8075,
-12.9563,-4.2689,-0.33198,14.981,-8.48,5.5824,-5.9995,-6.9388,-5.8911,-2.5432,-24.5561,1.0262,10.1084,1.6995,
-22.5428,-12.9308,-1.5174,4.2002,-19.7813,6.9347,-2.9884,-1.4608,-3.8504,0.26097,-16.0931,13.7391,10.2253,13.89,
-25.7697,-10.4675,-9.8622,5.1532,-23.1739,6.2774,2.2523,7.0627,0.96015,6.753,-10.548,12.6738,16.6014,12.8154,
-23.7416,-7.9113,-4.4498,13.0388,-15.9989,3.9726,1.6352,-3.0022,-1.0256,-0.40106,-15.6997,4.6825,12.7128,2.8875,
-26.6557,-9.847,9.3148,14.6668,-14.5568,0.84194,1.5374,-4.2681,-1.9282,-3.2693,-19.096,1.9914,10.504,4.6427,
-29.6358,-15.2819,6.1041,10.6535,-6.2118,2.9608,-6.9913,2.0135,-3.9819,-0.42181,-11.9247,-2.2256,17.8277,2.1947,
-30.509,-14.1238,-6.5544,3.5066,-8.9724,3.0239,-3.9205,4.0619,2.2828,7.0751,2.0472,1.0412,20.8556,3.75,
-25.7862,-6.0458,-3.2686,2.3321,-21.4495,1.3964,10.4148,11.5309,16.2458,20.7506,9.6371,15.0787,26.353,17.625,
-19.9003,-9.0574,2.23,1.7101,-24.9829,1.7947,12.562,5.0546,23.3454,19.8676,3.2744,14.5358,28.1459,25.1243,
-19.9115,-12.1295,-2.0012,5.705,-13.6021,5.3023,-2.2917,-8.5052,7.8447,4.5755,-6.3222,1.8531,12.7187,9.5168,
-20.1628,-5.6169,-0.43514,12.5933,-6.5192,7.8765,-7.5774,2.6102,-3.3514,-4.4967,-2.5686,7.5265,3.2787,-1.7801,
-24.4967,-8.8953,0.79626,10.6324,-19.3847,8.1268,3.2411,12.3355,5.7673,5.655,-1.2094,8.28,6.6974,4.8342,
-25.1963,-10.531,2.9179,13.1282,-19.4266,12.7011,-4.425,5.0881,-3.4966,1.2181,-4.2701,6.0962,7.5006,0.92894,
-28.2638,-8.2119,1.0556,5.8326,-21.8765,4.4672,-6.811,-0.76076,0.32861,-0.54218,-2.3267,5.4892,5.3634,-0.33209,
-22.2296,-2.4163,-2.8641,-1.748,-22.9738,-0.13937,7.6976,10.854,14.4089,13.5903,7.4541,12.391,18.5392,13.7878,
-17.0395,-6.1279,-4.1386,-1.6431,-15.811,-0.13101,13.864,-3.8972,18.2444,14.5829,8.9348,13.5755,23.6935,13.8042,
-15.294,-10.3398,-1.2389,1.5889,-10.2828,1.5641,4.1143,-17.7634,3.0497,4.3081,6.2296,14.4482,15.7642,5.9863,
-16.0636,-7.0681,-9.6005,-2.604,-14.7273,3.6396,4.5906,-30.7976,8.772,7.1829,8.9893,20.5711,17.4697,11.6529,
-11.9663,-7.849,-8.3013,-1.2427,0.25633,13.303,8.8947,-43.0497,11.8609,8.9213,16.8858,27.7728,23.8931,13.605,
-12.4533,-15.3321,-1.7779,-2.3732,14.341,10.8178,-4.4132,-54.5667,-2.9508,-5.714,9.8469,20.0809,8.721,-0.94982,
-9.296,-3.8068,-0.225,-3.677,-0.25805,11.133,5.0106,-65.3927,6.2648,2.2212,16.9689,20.3223,14.9466,13.2072,
-14.764,-3.3375,-11.0575,-9.9639,-14.3426,7.3316,11.6994,-63.3974,19.9889,13.4156,21.4944,14.5232,26.3419,17.3557,
-16.2883,-5.0654,-8.4659,-1.1714,-7.3358,4.4815,1.3569,-70.6807,4.6896,2.0059,13.456,15.58,20.9054,5.2271,
-19.1676,-4.2796,1.2009,4.6835,-6.4137,7.5866,-7.4016,-71.7425,-9.6918,-9.6837,0.59733,23.8042,5.5511,4.4316,
-20.9099,-6.9151,3.0572,1.9921,-15.1879,10.9881,-11.2961,-61.1712,-11.1589,-6.6927,-5.7053,23.822,-0.44652,9.4681,
-10.7374,-10.1158,3.5969,0.66754,-6.3229,6.2312,-9.8952,-59.6704,-7.8381,-3.1579,-0.30149,15.885,9.4624,1.4284,
-3.3443,-11.9185,5.7913,-1.7826,-2.0867,0.55514,-0.62437,-68.1412,-3.0295,-1.0398,9.358,10.1116,12.7511,-4.4418,
-9.1692,-8.5521,6.1669,-2.3988,-9.9154,3.6551,3.0283,-64.2937,7.9988,9.3867,17.2324,17.9408,10.7809,7.1531,
-14.4038,-11.4139,1.4581,-3.2192,-12.213,-0.42106,0.91794,-63.3286,10.4109,9.7874,18.6086,21.6846,13.0262,8.6516,
-6.5497,-9.0416,0.64773,3.9638,-7.8648,-3.5288,7.3708,-60.2518,13.4017,9.4411,18.215,12.4298,23.0908,4.9995,
-5.4336,-4.8837,-3.4885,6.3773,-10.044,-1.6301,6.2059,-53.9854,11.8744,10.0801,10.6146,2.284,21.4647,7.3509,
-8.4819,-2.6626,-4.2432,5.9948,-16.6721,-3.4604,4.3869,-46.4078,13.5722,9.9574,11.4239,5.0394,15.8381,8.3557,
-5.5628,-2.0208,-1.0964,7.5632,-8.9232,-3.7348,-1.1786,-51.3362,6.4913,2.6109,11.2205,0.88052,11.0318,-2.7506,
-3.0601,-5.515,0.17445,3.9759,3.4223,1.5505,-8.5797,-61.9946,-5.7088,-5.9819,2.1114,-11.4648,2.8976,-11.0217,
-5.2866,-3.7378,-1.7642,0.84529,-1.6035,5.7963,-9.0292,-57.3108,-7.294,-7.5507,0.53843,-7.8844,-4.989,-5.5397,
-6.1742,-3.2726,-9.6121,2.9637,-10.4251,2.315,-7.2822,-48.3286,-3.7233,-7.3391,1.229,1.0243,-7.3408,-4.0024,
-0.98331,-4.0403,-3.251,11.4628,-0.64084,0.24813,-4.4349,-47.839,-2.5358,-5.4522,2.1194,2.8913,-5.9362,-9.0647,
-0.92477,-3.316,7.0674,12.7032,6.1465,0.71518,-4.1693,-49.7894,-6.722,-4.6432,9.2231,-0.65665,-10.8827,-10.449,
-4.4845,-8.1782,5.4381,-1.3154,-8.3223,-6.7995,-0.78562,-45.1148,0.67118,-0.26723,15.6596,-9.5351,-8.5425,-6.2067,
4.9437,-4.3134,8.9683,-8.4672,-13.7281,-10.2481,11.7951,-29.3924,14.7309,13.2463,20.5044,0.19594,6.07,1.3962,
4.8882,-0.43908,11.0814,-2.8976,-12.6633,-10.3562,12.2924,-28.834,14.9314,12.6926,13.2487,12.9585,9.6827,0.58968,
-0.94882,0.31028,3.9089,8.6046,-14.0728,-6.6015,11.3137,-26.8629,9.9381,10.2437,9.3204,8.5657,4.0404,5.1339,
0.55426,-0.67231,-9.3412,9.5342,-2.1413,-1.385,1.9579,-12.718,2.111,-0.97612,-0.87986,1.303,-6.8072,-1.441,
6.0648,2.0193,-7.5754,5.347,9.3153,3.2776,1.5997,2.1451,-2.1127,-4.5327,-0.10394,1.4658,-10.0144,-8.8261,
4.2546,3.3443,1.5559,3.5798,-3.777,-5.596,10.6627,15.1524,9.5831,5.8625,9.0612,-1.0324,-2.1828,-3.4764,
0.86616,0.49223,4.114,2.6424,-9.0936,-15.624,2.069,19.3049,7.8031,2.8595,-0.40018,-0.7294,-7.5951,0.34797,
8.527,1.4268,3.385,6.3398,3.985,-6.4919,-0.94762,28.2695,-3.2703,-6.4716,-5.1969,3.6527,-14.8522,-0.1553,
8.2563,-0.34604,-1.3974,11.5035,-0.83335,1.3695,-3.0595,29.707,-11.5098,-11.6264,-4.1619,-5.0022,-15.6483,-8.0997,
4.8686,3.0489,0.61439,19.4897,-5.6041,0.80512,-4.3224,29.8526,-3.5886,-0.80616,1.3902,-3.256,-8.4431,-9.5422,
6.2638,5.0356,3.711,16.1512,-4.5447,-2.8586,0.99863,30.7127,5.0624,6.2321,3.4762,8.2676,-5.285,-5.3538,
4.9236,-3.4617,5.4165,6.5055,-2.8258,0.20543,-5.3283,31.7623,-9.3414,-8.2418,-3.4811,9.6997,-17.019,-9.8532,
0.53106,-5.9053,5.8147,7.8021,0.47705,9.1109,-3.803,42.1488,-4.5626,-4.9753,4.1994,13.6972,-9.4901,-3.7182,
-10.1061,-4.1047,-8.6342,1.5496,-11.1207,1.8156,2.2095,42.9943,9.8112,9.4232,8.286,11.9113,4.0945,7.1099,
-0.82297,1.9263,-10.8881,3.3845,-12.8637,-3.1139,11.2361,49.5736,20.1889,19.3423,10.199,13.6069,6.2591,11.5037,
11.7595,0.36454,1.8167,12.8223,-0.52286,-2.9272,7.1873,49.4913,4.9982,5.1662,6.6949,14.2366,-6.6501,-1.7201,
7.9212,2.0297,2.4308,12.2942,0.7138,-4.4386,-3.1256,35.6758,-4.7015,1.723,-0.69642,7.3571,-13.2403,-7.6422,
6.7225,5.5233,1.0796,6.0129,-3.4266,-2.485,-0.28697,38.1148,5.9445,12.9478,5.8528,10.5306,-4.0102,2.6983,
1.9809,-2.5209,-2.8415,-1.0963,-4.1849,0.074199,-4.1261,43.5409,-0.19678,7.3507,8.8761,16.1658,-6.1797,3.9826,
-0.066402,-3.3337,-3.6351,1.3798,0.40454,4.4083,-3.3964,40.4461,1.2611,2.5711,8.8257,11.8211,-5.8091,6.154,
6.2041,-3.6156,3.8138,8.0455,12.9133,4.6257,-13.316,27.8962,-7.0098,-11.6832,0.10102,-0.93923,-16.5478,-8.3152,
14.027,3.8322,14.1898,15.2755,26.1182,13.0253,-18.7835,30.5612,-18.6403,-19.5386,-2.3152,3.4554,-22.7858,-16.3732,
2.0982,2.156,-0.76156,1.3436,10.4511,1.6385,-5.6054,32.1017,-5.4703,-4.8689,-0.24807,-6.3929,-14.6697,-8.6419,
2.9365,3.4728,-9.2721,-5.4856,-4.2759,-1.8342,8.8309,37.4064,8.9579,7.4747,6.9975,-10.8296,0.31045,5.8563,
5.1705,-3.4844,0.9255,-3.7106,9.7192,-1.7242,1.4319,33.2339,2.9971,-2.6151,6.5778,-4.8773,0.6535,1.1662,
4.1372,-6.8905,10.7517,1.0916,8.8951,-10.0567,-0.34103,27.6244,-1.7623,-2.6989,7.3882,1.9228,0.37309,-4.9295,
1.7198,-4.7901,4.081,-5.9633,-3.9312,-13.0685,3.7768,27.654,5.3333,2.0423,9.1141,-3.736,-0.37219,-3.4284,
4.2677,-4.7437,-2.1894,-11.1491,3.2946,-1.4383,5.7193,31.5384,9.1107,2.6431,11.2188,-6.6451,0.85497,-2.4994,
3.5297,-1.5668,-3.0223,-5.178,17.1969,3.4687,2.0017,34.9485,-3.487,-3.3005,4.7606,-0.94417,-1.6065,-7.1701,
1.3895,1.9015,1.4975,-2.9389,19.4191,4.2247,-3.9032,34.78,-14.3653,-8.8868,1.1008,2.4872,-8.2587,-7.2221,
-1.8269,-4.2382,8.3976,-4.9317,6.4433,2.2839,-4.8738,30.524,-9.4055,-8.1127,2.7219,-6.0982,-8.9685,-7.0297,
0.45164,-0.85061,9.5807,1.8719,3.8876,-2.4326,4.3364,39.5386,5.2588,4.6664,7.1381,-3.5629,-0.47643,-3.4747,
-0.29836,1.852,-0.39413,-3.3021,-0.44303,-2.5276,6.7278,43.1918,6.751,9.4481,8.3971,4.6046,-2.6172,-1.579,
-4.3778,1.0175,-9.2883,-9.6115,-2.5856,2.6857,1.2625,36.503,0.32036,1.4094,7.6523,6.4979,-5.5935,0.20299,
-5.0795,2.4027,1.3921,3.0163,7.6927,1.5603,0.70477,29.4925,-7.894,-8.3161,1.8905,4.1794,-0.43714,-3.1836,
2.2149,1.0535,15.4086,8.8611,17.5952,-1.1847,2.8314,21.2148,-10.5536,-10.9509,3.946,0.31345,-2.0984,-11.4285,
-0.087111,-3.1071,7.6147,-4.9269,8.5853,-3.7647,-5.2922,14.8807,-7.7513,-9.5705,6.8427,-4.767,-7.998,-14.8402,
-1.7689,0.69454,-1.2776,-2.4619,5.9012,-0.40556,0.087234,19.5315,0.66779,-2.0066,7.6377,1.5448,2.364,-4.0676,
-1.9039,-0.55243,-0.47809,1.3007,1.4496,-3.5147,8.5177,20.5288,4.7251,0.28295,5.0098,2.175,8.7297,1.2377,
1.5845,-0.51928,2.4427,1.2227,-0.56559,-2.8219,2.704,21.7072,2.5134,0.26597,4.2273,-2.776,1.9394,-1.2467,
1.9718,1.9225,6.1529,7.4163,3.325,-1.2063,-2.2785,18.9587,-1.4938,0.25002,-0.84661,-5.9837,-2.0334,-7.9204,
0.64823,3.4943,10.3631,14.9251,5.2946,-3.785,-1.4189,10.8318,-8.3941,-4.8262,-9.2319,-9.2401,-1.1885,-12.5068,
-1.0779,4.0076,12.3924,10.4142,8.1104,2.4676,-5.9135,10.4224,-13.434,-13.4547,-8.4371,-9.4086,-1.8401,-9.5872,
-9.4489,0.1517,3.2131,-2.9852,7.3824,9.7914,-7.2459,15.823,-9.9764,-12.4065,-7.2079,-7.1568,2.3677,-2.9865,
-7.9176,-2.2675,-6.1387,-8.1082,7.9038,6.7938,-3.4367,22.1045,-6.4858,-2.0211,-6.2931,-4.7994,6.082,-2.3249,
-3.3454,-4.3009,-7.4578,-10.7555,-1.9705,-6.8705,2.7953,28.7317,2.3393,3.1616,4.4486,-3.7884,3.5477,-4.3548,
0.4707,-3.3195,3.354,-5.5304,4.1735,-4.771,-0.98789,24.8387,0.99407,-4.4999,4.4227,-1.8738,-1.2444,-5.7807,
4.0579,-2.3974,8.6959,0.3446,18.0231,-0.86935,-7.4366,9.2483,-10.8762,-12.1836,-7.6533,0.40754,-3.8213,-9.0493,
2.6093,0.87971,4.559,1.0475,2.8417,-14.5557,4.3381,14.1166,0.14051,2.2859,5.0987,6.8913,2.4337,-2.4806,
-5.26,1.3091,-2.9452,-0.94376,-11.4288,-19.9489,7.4525,21.9464,7.3631,7.9336,14.4335,5.5135,-3.0147,-1.8496,
-0.60607,0.26645,-6.1427,-2.3332,-7.7305,-4.652,-0.22575,16.2911,4.511,2.6366,4.8906,3.7364,-5.2442,-3.667,
4.0098,0.9736,2.6618,-0.023787,-0.27656,9.7271,-12.5045,4.95,-9.8597,-7.4033,-6.7308,8.5741,-10.4729,-7.0622,
-0.8103,7.9048,10.938,10.3417,-14.36,23.2435,-10.5492,9.7145,-12.0399,-7.2003,-3.6756,8.7828,-10.5677,-5.9153,
-11.6079,8.1534,-3.8183,6.1054,-27.5984,29.9234,-7.2647,14.6747,-1.4356,-1.2246,-1.2859,-0.18031,-7.7645,-4.3556,
-11.8753,8.6286,-17.6892,-0.52748,-40.0425,32.9482,-8.275,15.2405,0.57877,1.7414,-1.2088,-1.6157,-3.9241,-0.23785,
-5.1373,9.3161,-7.7098,5.5297,-51.7399,35.0691,-7.5376,14.0851,-6.9278,-1.0147,-0.89528,2.0966,-3.9296,-1.4284,
-1.2136,11.4083,-1.2217,14.5984,-38.5124,37.5443,-8.7725,13.9634,-5.3068,0.73343,0.36373,11.3708,-5.863,2.7546,
-5.7201,8.5546,-7.1739,8.1789,-50.3017,26.8559,-9.9334,13.8485,1.5195,2.3767,1.5467,12.3758,-6.7165,7.651,
-3.4491,1.7744,0.0049695,-1.9533,-45.4763,19.4595,-7.8912,8.6788,-6.7668,-4.9968,1.4539,4.8843,-5.8316,-5.8239,
-0.10847,1.9091,6.9943,-3.5231,-29.9733,19.497,-3.3206,7.9173,-10.4584,-4.9382,1.6079,7.7245,-2.3485,-11.4998,
-11.6714,-3.0259,-7.5253,-7.6502,-42.2749,5.794,-0.71097,7.9244,4.1486,2.5892,4.8856,6.7794,-0.27913,1.7235,
-13.8634,-3.8085,-13.7018,-2.3708,-46.3663,4.9646,-5.9707,7.4487,4.8638,3.8799,6.0385,-1.8223,-1.2265,6.4405,
-1.2212,5.8203,1.2203,10.5462,-29.4844,14.5484,-9.7101,8.2069,-4.3458,2.442,3.0249,2.3846,-5.2505,-4.7919,
-2.8354,2.8193,1.5086,8.226,-24.4618,10.0603,-9.3687,6.9913,-3.8444,2.5362,3.0846,2.9642,-4.2123,-3.7817,
-4.3525,-0.00098787,1.1771,5.5632,-24.1991,5.8413,-9.0475,6.3309,-3.3723,2.1431,3.1405,3.0273,-3.7186,-3.3134,
-5.2962,-2.1701,1.3474,4.0241,-23.4703,2.8393,-8.2637,5.7101,-2.447,2.7374,3.675,4.051,-2.2902,-1.9098,
-5.9425,-3.004,2.2307,2.8186,-22.0621,0.25856,-6.8038,6.3316,-0.85418,3.5373,4.901,5.2539,-0.70676,-0.34915,
-7.2732,-5.4753,2.3378,0.48033,-22.4254,-3.3719,-6.1541,4.7464,-0.56196,3.5664,4.8479,5.6621,0.058547,0.39516,
-2.2573,-6.8338,2.4387,5.031,-6.9799,7.6764,-11.8107,6.1491,-9.4461,-5.0834,4.3158,12.312,-3.0782,-3.2437,
-6.219,-1.8442,-9.518,3.5241,-5.7172,7.457,0.22641,5.057,3.4134,6.0676,2.3699,4.5836,2.1684,3.4586,
-8.0153,-1.4925,-14.9723,-4.641,-19.4742,-0.46207,6.7204,6.4409,10.1982,11.2473,0.54055,2.1393,8.0637,11.6869,
-0.062716,-5.5004,-7.5666,-5.086,-4.2057,5.1091,0.29154,7.7416,-4.1522,-0.75588,-0.2149,8.0366,6.3747,5.9243,
2.1102,-1.073,-2.0509,-0.68302,10.1466,13.7202,-3.8233,5.5898,-2.2158,0.49476,3.8953,5.8672,2.8592,0.98911,
-6.693,-1.0087,-0.96401,-4.9808,-4.5622,7.1124,-3.5939,0.91613,2.2555,-0.017314,4.1436,-2.1976,-1.6511,-2.4447,
-3.3996,1.4622,3.9143,-1.7897,-1.1557,5.7216,-3.8604,3.2711,-8.4854,-8.6931,1.0027,2.2723,-1.5523,-2.7802,
0.66096,4.2668,0.30523,7.4765,13.0137,11.1631,-7.4854,6.4495,-7.976,-2.8687,1.4247,8.4027,0.9512,-0.68494,
-4.6811,0.63655,-4.0516,4.618,1.9895,3.2622,-6.0722,7.0266,2.1437,4.5341,1.339,3.0781,0.89436,1.7661,
-4.4002,-0.8479,0.048311,-1.4436,-6.8065,-7.0564,1.5234,4.6768,0.086902,1.8519,0.77668,-1.9268,4.2151,2.6244,
3.8177,-2.484,8.9633,-2.0802,3.9657,-7.3561,-2.6656,-5.004,-7.3903,-5.7313,1.9351,1.322,1.3109,-5.9689,
3.8296,-4.0222,8.1845,-4.1245,5.8972,-6.6734,-9.0136,-5.4267,-5.2592,-7.5566,1.0961,5.3401,-3.347,-9.7082,
-4.5951,-4.263,-6.2861,-8.2156,-8.4364,-12.5397,2.1323,5.022,4.6971,3.02,2.4764,3.5736,4.5663,-1.8951,
-5.2835,-5.4533,-11.6937,-10.133,-12.7505,-12.7514,2.0046,2.3104,0.55907,0.91081,2.81,-1.9432,3.8102,-2.2631,
9.0131,1.6226,0.57727,-2.294,2.1146,2.1137,-6.3106,5.546,-9.5976,-5.8925,2.6411,6.8502,-1.2389,-3.0914,
10.4002,0.56113,1.0248,-0.22835,16.0877,4.2763,-3.0397,10.0337,-12.8784,-6.0211,-4.266,7.8853,-1.6463,-3.87,
1.3403,-0.19567,-2.1704,0.99041,5.9634,-9.2365,1.2403,8.7085,-6.0799,-0.59841,-6.6614,4.7608,1.1034,-6.2891,
1.2599,-0.18393,0.85234,-6.2999,3.1955,-12.0567,-0.76233,3.3658,-2.3406,-4.4189,-1.441,4.4752,2.9658,-5.9118,
7.2099,-3.7883,0.55977,-13.8756,9.9931,-5.3078,0.97018,1.9585,-1.9597,-5.3591,5.153,0.10931,7.8491,-1.9421,
6.7773,0.29538,1.0086,0.45429,21.4449,0.31333,-1.9801,4.2512,-4.7342,-4.5556,6.772,2.9948,5.45,0.58501,
-3.5113,0.51862,-4.5955,-0.29587,6.0582,-5.7315,-4.5128,3.2732,-2.7629,-4.5232,3.7146,3.5385,1.9895,-1.6197,
-4.0235,-6.02,-12.2736,-14.0164,-8.4053,-9.9664,0.33767,4.764,4.3928,1.2923,1.3225,0.19315,5.0036,-3.2093,
2.9666,-9.033,-3.8241,-11.2475,0.052982,-7.4405,-3.5387,5.4423,-0.6913,-0.7137,0.76102,7.8941,1.8111,-2.5346,
-3.4784,-11.3835,0.26124,-8.6444,3.424,-10.3685,-6.2189,3.1875,-3.5423,-4.0453,1.1973,13.205,-0.70817,-3.8288,
-8.5719,-9.7367,-6.021,-12.9465,-1.6019,-10.2283,-2.4713,4.9245,-1.8835,1.4996,0.64353,6.1458,3.6731,0.25735,
-7.3347,-8.9115,-6.865,-15.3032,3.0735,-3.5891,-0.15391,2.9418,-2.4939,1.6506,0.36395,-2.1767,8.5139,1.9287,
0.81818,-6.4482,-1.15,-8.118,13.0125,0.48266,-0.14467,1.8014,-0.89799,-3.7507,3.7166,-0.59986,9.9318,-0.59671,
10.6513,-0.99982,5.9087,2.2512,22.1139,1.6588,-7.6076,3.3803,-7.3518,-8.5871,-1.5679,2.0875,-1.9926,-7.0686,
10.2531,1.2293,9.6515,6.2135,21.028,1.3183,-5.4643,5.3467,-7.6336,-5.4207,-3.6434,2.6851,-6.9347,-9.778,
-0.0032423,-2.2191,-2.497,-1.8723,5.6663,-8.884,2.5765,0.20538,1.5013,-0.27502,-0.050139,1.5599,0.23052,-2.4426,
-0.96691,-0.63947,-10.5419,-5.6161,-3.7122,-14.1353,7.2424,1.1572,12.9806,4.08,4.7734,-3.3537,8.8936,4.935,
6.3219,-0.11894,0.21354,-2.3869,10.6105,-9.9129,-2.8333,4.9443,4.9707,-2.4315,2.5585,-6.0452,2.5751,-1.1459,
9.799,-1.0761,6.4672,-2.7261,20.4585,-4.4979,-7.966,1.7552,-7.3787,-7.1063,0.95876,1.0664,-5.7741,-3.9697,
8.247,-0.047466,-5.0078,-4.4905,12.9642,-2.7815,0.22498,-0.7605,-1.1516,-2.8233,5.7217,-0.44363,-1.0891,0.60705,
4.8596,2.3655,-9.0456,1.0816,14.5967,1.2417,-0.27045,2.6596,0.36377,-5.0641,3.4502,-6.2021,0.90445,0.57063,
6.0143,1.7416,0.17374,1.4987,17.5771,2.1311,-0.25422,2.5,-0.62238,-7.1708,2.2793,-3.4193,-0.11414,1.5003,
7.5819,1.6374,2.0917,-6.7862,12.6663,-3.7811,3.6172,-3.9167,2.7896,-1.4377,9.8551,1.6063,2.3031,2.8567,
8.332,-1.1122,5.0995,-2.7634,19.3784,-8.1338,-2.1432,-7.7789,-7.7418,-4.0027,4.2028,5.6075,-3.8604,-9.125,
11.4475,0.64177,15.6398,5.8386,25.6875,-9.333,2.0832,-4.661,-8.4822,-4.9674,-2.0754,8.8865,-4.3522,-9.7824,
-0.80871,2.0493,5.0602,-0.7785,10.0462,-16.486,7.7425,-6.7917,3.1138,-2.2595,1.9058,-2.2522,0.72944,0.44532,
-7.2679,0.72127,-7.0538,-3.8655,-4.6566,-15.2559,10.4112,-2.7686,9.9166,4.8657,11.6731,-3.3222,6.2291,3.0699,
1.845,-0.76804,-0.3638,-1.7052,9.7228,-8.5555,7.8586,2.7,1.609,-0.24623,6.6347,3.1439,0.070966,-5.7911,
9.2059,5.7853,13.758,4.9049,23.2395,-6.3551,-0.56734,-2.0416,-5.9595,-12.0423,-2.6817,-2.1062,-5.4771,-7.6131,
11.0642,8.8126,18.3557,9.4308,26.1834,-5.01,-2.4615,-8.668,-3.6738,-12.2836,-3.0027,-7.7644,-2.7384,-3.7818,
8.7128,5.1506,9.7823,1.8753,13.284,-9.7708,3.712,-5.9785,-2.2483,-6.9671,-7.4021,-7.5397,-4.743,-5.7243,
7.7081,6.2878,11.124,0.79895,15.3795,-13.041,5.4174,1.611,-2.1134,-6.549,-3.5835,-2.2666,-5.4228,-4.8985,
7.0047,6.1515,16.4821,9.6686,27.2312,-4.7867,-2.3794,-2.583,-7.5302,-14.1098,-0.71695,-0.4434,-5.8203,-4.3636,
5.8615,7.9516,9.9496,10.2938,20.5356,4.4186,1.8607,-0.74076,-4.9092,-7.2377,-5.2537,-3.5503,-2.82,0.95945,
-0.51619,2.4128,-0.047398,-1.652,5.2035,-4.7646,6.8107,-1.4197,0.92895,-0.7779,-10.0001,-11.7734,-2.8917,-2.2311,
3.1304,5.4018,13.2121,8.3293,12.2426,-4.2375,2.305,0.35296,-1.2957,-3.8645,-3.3744,-0.2205,-1.9951,-4.2667,
3.9065,5.0772,14.3471,8.3114,17.2926,-3.5013,-2.654,0.33178,-3.6286,-7.0071,-1.7256,7.0231,-6.2137,0.80959,
2.4672,0.19329,7.9431,0.82288,5.4088,-4.4961,0.6387,-3.7855,-0.27736,-2.9712,-1.8631,2.9868,-6.5638,2.9306,
0.63176,4.7612,11.5636,6.7993,11.1096,2.2809,-0.60515,0.056841,-5.8046,-1.1059,-1.9925,0.63816,-3.0372,-5.1992,
-9.77,0.86012,-0.94031,-0.59855,1.5254,-2.4352,3.5285,4.1508,0.087324,1.612,-4.5245,-6.8719,-5.0241,-6.5744,
-3.158,-1.8428,-2.089,-3.6959,3.1213,-2.0479,5.4862,-0.19585,7.5541,3.6846,-1.6017,-2.362,-6.8916,3.7022,
3.5389,-0.52695,12.1364,4.4796,17.0341,5.0644,-6.6531,-10.066,-6.9991,-4.0087,0.66403,2.8409,-12.5041,-1.5816,
-1.2527,-0.25437,9.3593,3.006,7.2142,-0.30071,0.73595,-2.4722,-1.6382,2.7398,2.7934,-3.3551,-8.6204,-6.548,
-3.1057,1.2072,-5.3023,-4.4052,-7.3187,-7.9954,10.8147,7.3171,9.5473,6.4318,-3.6408,-4.1179,-3.2824,1.0753,
3.1059,1.8579,1.1619,4.295,7.2205,1.4021,0.76604,-2.5217,-2.354,-4.3182,-8.0018,4.5653,-10.5575,1.7339,
1.4735,1.2642,7.8409,12.7142,20.8872,8.0662,-6.0291,-6.7094,-8.9614,-5.9876,-7.522,8.6295,-20.0472,-2.2267,
-5.6047,-0.49886,-5.404,2.0689,5.534,1.5567,-0.1237,1.6469,3.3864,1.8435,-6.8297,3.5324,-15.2289,-0.88784,
1.2393,-1.674,-1.4642,-2.1523,4.9612,1.7045,1.0892,2.7536,3.4244,-0.43606,0.08782,0.18723,-7.8075,-4.4498,
3.0933,2.2831,11.1574,5.2079,12.3766,4.9769,-2.8327,-1.7497,-5.4579,-2.3379,3.9392,0.17623,-15.5335,-6.1107,
-6.0101,0.45862,0.12341,-0.64843,-2.466,-4.7219,4.3269,0.52422,3.3055,7.2022,-1.3591,-4.4143,-17.735,1.7275,
-0.34709,-0.53299,-5.1864,-5.43,-6.7771,-5.8847,11.7803,7.2414,10.8201,8.2165,0.16894,0.18955,-2.6914,7.4086,
3.5301,-0.50101,1.3917,-3.176,7.7295,-4.0853,1.4325,1.5048,-3.3264,-6.3764,3.0513,7.4086,-3.494,-2.6768,
0.18506,-0.22975,6.3697,-0.33413,-2.7371,-6.9739,-0.82285,-3.6474,-2.4042,-2.2584,2.1447,8.1691,-13.1665,-5.6499,
-1.7542,-2.1442,4.0593,-0.79602,-5.465,-3.663,0.67278,-4.3924,-0.81365,5.5899,-2.8043,6.2332,-19.1252,-0.49023,
2.2072,-2.9801,5.2618,-1.2304,8.9629,0.89491,1.5965,-2.6829,-7.0316,-3.9043,0.7382,5.8589,-14.6032,-1.9073,
0.86968,0.81439,2.7767,-2.8441,5.6529,-10.0048,6.5622,1.5752,0.37996,-3.9113,6.2373,-0.51837,-8.6658,-3.9618,
-5.9309,-0.68074,-5.5846,-7.4937,-8.7863,-15.1889,9.5429,1.4812,6.1422,5.4824,0.56087,-6.2719,-7.6635,-0.83203,
0.93262,-0.88063,8.0066,0.42754,5.8409,-0.17754,4.8727,-1.7414,-3.6266,0.57398,-0.19591,2.5404,-8.409,-0.058982,
3.7687,2.0643,18.1315,10.0429,17.3008,2.3639,-6.9888,-1.6369,-15.4601,-10.5477,-0.18416,6.2443,-15.1353,-5.3581,
-5.8574,-0.22875,2.9436,2.4509,2.1628,-5.7316,-3.436,5.4512,-4.6505,-0.032435,-0.41407,3.7005,-13.504,-3.8313,
-10.0855,-3.3483,-11.333,-11.4347,-11.8258,-2.2545,10.0263,9.2217,9.7285,9.8512,7.5643,2.7553,-1.3656,3.8701,
-4.6596,-3.1474,-3.181,-8.8205,2.8635,-1.1553,5.5688,-0.9726,4.927,0.10157,9.521,-2.7122,-0.80149,3.1565,
-2.2111,-1.7535,7.3735,2.5548,16.4298,-5.6655,-1.2735,-4.048,-1.3944,-4.4845,4.3702,1.5477,-7.2613,1.7616,
-9.5503,-5.2637,-7.1689,-0.73198,7.4902,-7.0128,-0.4737,3.6667,-0.58787,-2.5282,0.010666,6.5165,-8.9948,-0.99524,
-8.4953,-8.3223,-15.5361,-5.5083,0.77385,-2.7357,1.9649,4.893,0.89367,-1.8946,5.7941,0.82287,-5.0809,-2.8642,
0.45054,-4.6895,-2.3114,-1.0805,12.0561,0.56195,-0.80459,-1.9081,-1.811,-1.5395,4.2417,1.0145,-6.945,-1.969,
4.2801,-0.55197,1.6834,0.4304,14.7069,-1.8821,-2.2023,-2.7577,-2.1845,1.4452,-7.0998,2.3996,-11.8309,0.077138,
1.613,1.4096,-6.1301,-6.3436,-0.27549,-4.661,12.0298,4.1564,12.0465,11.9635,-0.4071,0.80962,-3.89,9.7142,
0.31112,0.60187,-3.5934,-9.5787,-0.37967,-2.6948,10.4644,3.1839,14.3365,9.0763,5.1607,1.4842,-1.9698,9.854,
5.5949,-0.39834,4.8176,-2.2553,13.7431,-0.60471,-4.1425,0.10061,-0.62368,-4.9654,-4.3077,3.3235,-15.9516,-1.8243,
5.5004,0.83062,-1.0153,0.049429,7.7366,-1.2916,1.6494,3.7098,-0.22458,-1.5342,-4.2905,-0.0095811,-18.0071,-1.956,
2.0371,4.3964,-6.9802,-7.4256,-3.5736,-2.9011,4.6837,3.7284,5.8147,6.0294,1.5103,-7.9625,-8.9729,3.7052,
5.0481,1.4813,-2.9457,-12.5234,10.7408,-1.04,-1.6231,-5.4132,-3.4525,-6.1422,0.69705,-7.726,-11.0859,-2.5429,
5.7093,-2.9461,-4.2154,-6.4696,21.7862,1.4328,1.3666,-7.4987,-5.6557,-10.1122,0.655,-1.96,-13.7952,-4.3187,
-1.8641,1.569,-9.2647,3.0776,6.379,-3.9559,4.1771,2.5922,8.7836,4.5945,4.4721,1.0501,-7.1827,5.5818,
-8.019,1.957,-12.5657,3.857,-8.1037,-12.3954,-0.89401,3.4007,11.5106,11.9111,0.34714,-6.2439,-3.3775,5.2467,
4.0313,1.3577,-3.6168,3.1437,6.4825,-4.9027,-0.35843,-2.5879,-1.7131,-2.7833,-3.5296,-6.8332,-4.1389,-0.8527,
7.1639,-3.0626,-0.50726,-2.8295,20.1936,-9.4293,2.5556,-9.1815,-2.5746,-1.652,-2.354,-3.5311,-1.4802,-6.1042,
-1.2199,-6.976,-3.6101,-8.6855,21.633,-21.1558,4.0893,-3.5687,6.0158,5.9187,6.7051,3.1885,4.1522,-0.19409,
-5.0031,-13.3063,-12.0706,-15.3952,26.1196,-15.5477,1.4338,0.98371,3.2447,-0.22099,10.6416,9.7461,1.4927,6.0841,
-7.5947,-17.8103,-21.4692,-21.7021,25.0346,-12.2047,2.7938,-1.4857,4.496,4.1308,7.1108,8.1972,-0.042883,6.6831,
-4.7294,-9.9933,-11.9866,-12.6872,17.2656,-18.2213,1.6618,0.53167,1.3338,5.3292,6.6837,5.7772,5.2621,5.3178,
3.5083,-7.7062,2.8326,-1.5619,29.9682,-14.9589,-2.535,-4.0797,-12.8463,-9.0905,-0.22458,2.2973,0.36709,-3.9191,
6.1901,-3.8696,12.9067,0.94218,27.6884,-1.5276,6.294,-4.3167,-5.4468,-10.1116,-2.6215,0.23102,0.82723,0.6546,
0.034263,-1.227,0.5628,-4.4171,11.9271,-2.4002,12.1832,2.2087,8.98,4.5951,5.2485,-2.675,9.4544,10.7386,
0.51426,-4.0458,-1.3993,-4.1522,11.8139,-6.1127,12.8983,5.4505,14.1048,14.8037,12.6462,0.85982,12.2614,9.6117,
-6.5062,-7.4184,-3.9664,-8.0007,10.3819,-7.9153,5.1343,-4.2767,7.2332,3.0695,4.8978,3.9415,5.5,4.4555,
-6.3571,-6.7324,-3.0053,-8.7254,-0.12316,-9.1274,6.5137,-3.2968,9.9325,10.8393,8.2196,4.9101,10.7136,7.3219,
1.014,-9.9438,0.30827,-6.9966,8.3201,-10.7491,6.3636,-2.858,4.2751,6.0913,10.3777,-0.44599,9.8298,-0.10705,
2.3994,-0.67011,1.736,-3.2028,15.5337,-8.176,6.9461,-1.7222,6.9106,4.7615,5.4163,-4.2756,7.7938,-0.58302,
-0.15467,4.1903,0.18561,-1.5644,7.8532,-6.7213,2.1906,-3.5475,8.4242,4.4758,2.1988,-4.0191,6.844,0.41583,
2.265,-1.3635,0.65664,2.3861,11.7206,-3.4258,-8.0635,-9.119,-6.1813,-6.3978,-4.6813,-2.3319,-0.79728,-7.3217,
2.1286,-5.6205,-2.2753,1.2786,14.3913,-2.7383,-0.34931,-4.7155,-2.3155,0.25261,-3.9185,-0.74573,2.625,-2.544,
-1.3731,-4.8008,-9.3694,-2.1724,0.030741,-9.8044,5.9388,-4.4325,11.9235,11.8068,6.4397,2.1913,14.0367,7.7322,
3.0478,-0.65617,-11.6995,0.36811,-7.2019,-10.1802,-2.6127,-7.0589,6.2673,6.2782,4.6071,3.988,7.4099,5.3401,
5.5161,0.1061,-9.3105,-1.3412,-5.0826,-5.9542,-1.733,-4.9481,1.7935,2.768,-3.1412,-1.7949,1.4217,-2.4526,
4.7032,1.546,0.88907,-2.2246,3.899,1.6337,5.6018,-4.1693,7.4704,6.4583,-1.9888,-4.0973,9.5311,0.10468,
-1.3636,-2.4032,5.6564,-2.0911,9.4496,-0.39256,-2.4471,-12.596,-0.69056,-4.0521,-4.2796,-7.2259,3.1749,-4.7219,
0.16401,0.6331,2.4245,-1.9657,2.1342,-3.2613,6.3769,-1.7171,6.5817,2.9395,2.7261,-2.454,8.2868,-1.5465,
1.8416,-0.12802,-4.2287,-6.4275,-2.5734,-0.41429,12.9839,6.8218,9.802,8.3065,7.6239,3.719,17.6715,4.5721,
0.04367,-4.6999,-3.2518,-10.1394,6.0169,5.154,8.1073,-2.9877,8.9731,4.6749,8.3716,4.219,16.8524,6.4671,
-3.3331,-0.56136,-5.4669,-8.0847,3.7276,4.3629,9.5489,0.083939,19.5219,13.5533,12.2079,2.5197,17.2874,9.9354,
-2.8922,0.6775,-7.7901,-1.092,2.2988,1.9318,7.2889,2.7301,10.8789,7.679,7.3778,3.0917,8.2963,2.3495,
0.41503,-3.9424,3.5238,2.107,4.3305,-0.83493,-2.0661,-6.8332,-3.8739,-6.8818,-3.9107,-0.22725,-6.3015,-10.5655,
0.39012,-2.2596,10.5427,2.4625,-4.6064,-3.6774,-4.3522,-4.9774,-3.7617,-3.2151,-4.158,-1.6599,-3.1516,-9.4496,
-7.1051,-5.2575,2.9207,0.14562,-0.23271,-0.32323,-4.8145,-7.8118,-7.6338,-6.6376,-5.5957,1.5732,8.8479,-9.6055,
-6.1971,-3.4961,3.7091,1.5829,13.8813,13.7962,-3.0796,-14.0922,-15.8526,-14.9162,-7.1884,6.2993,5.9067,-6.6193,
-7.7534,1.534,-0.85173,-4.7786,-1.0516,11.8836,1.4435,-5.5339,-0.80148,-2.934,1.9195,0.61869,3.6241,2.9369,
-5.36,6.7448,-1.7647,-0.63547,-15.0885,1.0474,12.9263,8.8981,13.3466,11.342,15.9044,1.5457,16.422,13.8477,
-7.2076,-0.16783,0.51032,1.572,-0.083213,2.6718,2.2688,-1.1563,1.4588,2.1049,3.0195,-1.6806,10.3753,3.1349,
-6.5342,-2.3267,6.0235,0.75459,4.7423,11.4294,-6.7852,-10.9686,-12.3673,-7.9036,-7.0438,-2.7848,2.7627,-0.6684,
-6.6243,3.1153,8.5544,2.1553,-8.0755,7.8513,-3.9682,1.2584,-1.0202,-2.6089,1.5737,-5.0281,3.561,4.6741,
-10.083,0.036118,4.1845,1.5439,3.496,3.5236,-5.658,2.629,-7.2257,-8.7186,-1.413,-6.6543,0.45504,-4.2832,
-6.8269,-2.1352,2.7286,-1.1999,17.3862,11.7483,-1.2212,-5.4825,-8.9613,-9.4008,-3.9793,1.2167,4.5255,-4.2672,
-3.5248,2.3312,-2.7377,-4.9843,7.3047,11.5254,3.1909,-1.7791,0.73539,0.32227,-0.84803,-1.2664,8.5923,6.5942,
-0.90317,4.1195,-3.0554,-0.34688,7.3484,9.87,5.4095,8.9329,5.9939,6.5694,3.0588,-4.5649,10.9693,5.7161,
-3.5003,-3.1173,-0.70315,-1.0492,12.9333,8.5546,-3.3514,1.8888,-4.7303,-4.6708,-1.7043,-0.19385,5.7312,-6.4372,
-2.3262,3.3365,-1.1431,-0.022149,11.6751,8.5235,-7.9703,-6.419,-7.3383,-9.211,-3.048,3.1925,2.0131,-1.7124,
3.3572,6.7515,-3.2435,1.6666,15.5541,10.181,-5.3232,-8.2033,-6.6573,-7.4533,-2.142,-3.5068,-0.27709,2.0055,
7.9763,2.9722,6.1099,1.5664,28.7209,21.6215,-3.5578,-5.3007,-15.899,-8.9345,-3.4595,-1.3684,-1.2246,-6.7917,
-4.3127,-3.7138,1.1638,-12.6276,13.621,11.8883,1.2357,-6.6697,-7.955,-3.8185,-3.4932,-4.9015,4.8747,-6.143,
-1.1616,5.668,-7.5829,-7.6519,-1.2963,1.534,15.2615,6.2638,6.6223,10.5107,8.2858,1.1772,18.6822,8.3256,
-2.7791,1.2304,-14.1173,-2.1311,-2.7852,0.71887,0.24584,3.7188,-1.8492,-3.0149,-3.5395,1.3477,11.8972,0.71615,
-4.0584,3.085,-5.0758,1.371,11.4819,14.7757,-4.3487,5.4236,-10.4152,-7.6545,-1.3992,2.7129,12.1474,-1.2552,
-7.6715,5.7921,-12.4842,0.8066,-1.8612,12.3227,-3.6056,0.27772,-4.4878,-5.2673,-0.83307,-2.7523,9.9726,-1.6621,
-3.1137,6.1677,-9.0839,3.8915,-3.4366,4.5937,-4.5943,-4.3185,-3.4954,-7.6026,-5.3626,-7.1667,2.8665,-7.5881,
-4.3733,2.423,2.5486,2.2119,-2.2663,2.8716,-2.8726,-0.2032,-1.3577,-4.736,-1.1847,-9.147,5.1044,-5.2044,
-10.3772,-0.61467,0.94967,-1.7769,-6.9508,3.1814,-2.2181,4.148,-0.31218,-1.0777,4.6712,-0.40327,7.6909,0.89265,
-2.524,-0.57756,3.3026,1.7039,7.5663,8.7754,-4.9773,1.0068,-8.4884,-8.7255,-1.3934,8.2978,-0.48356,-6.392,
3.412,5.2417,6.9608,7.3863,15.6684,11.6228,-5.1611,1.9103,-11.8355,-10.1307,-6.1305,2.4973,-4.3109,-9.3829,
-6.9156,5.4091,-6.9542,1.6404,0.62834,-0.6437,-1.9589,6.134,-4.3764,0.1186,-1.4239,-2.9552,2.6966,-2.071,
-3.3672,5.3255,-8.2242,0.81911,-13.5094,-1.8099,-3.0466,2.1505,-1.4628,1.3163,-0.61558,-2.0545,0.8476,-0.74148,
8.1626,6.2113,4.5618,7.2774,1.4012,6.2524,-8.4074,-5.4503,-7.4005,-8.6446,-5.6403,-3.1366,-13.3033,-5.7587,
0.44224,2.9463,1.3958,0.57405,-3.8646,0.57486,-0.19,-1.7486,1.2384,-2.3411,3.375,-1.0204,-9.2511,-1.0746,
-8.5021,4.9387,-8.5701,-6.932,-10.1406,-5.9676,8.7395,6.3101,12.0104,11.8994,13.5368,1.6924,5.404,9.3537,
-3.4125,5.8474,-7.8149,-2.9006,-6.3985,-5.3683,-0.2208,-0.094326,3.3358,4.7979,5.7349,0.38577,-0.34339,4.213,
3.0588,4.0506,2.2952,4.0221,-5.5329,-3.1183,-4.0642,-3.4629,-2.1668,-4.1668,2.0162,-0.11954,-8.5177,-3.7523,
-5.0785,3.5666,4.3266,2.5759,-12.6727,-5.5823,-1.1688,1.3246,-1.7958,-5.1216,2.1366,-9.03,-6.3194,-4.7325,
-8.8711,0.70102,2.3798,2.1799,-9.2608,-4.042,3.4806,1.0037,3.8556,-2.1632,2.7313,-11.6219,-3.2892,-2.2794,
-3.5184,-1.7509,3.2011,4.4595,1.8999,-0.42528,-0.10242,-8.6972,-0.23239,-2.9975,2.0853,-0.80122,-7.4299,-3.5886,
-5.2355,1.7286,3.9734,9.0126,-0.6242,1.0465,-3.9527,-9.6217,-6.485,-2.8177,1.9602,4.0671,-3.1277,0.0011362,
-7.0907,4.2757,-2.2908,8.7126,-12.3971,-5.0423,5.2023,5.0556,4.7502,7.7155,4.4939,-4.1309,7.906,9.4008,
-5.9422,1.85,-9.1432,-0.24581,-10.4484,-9.8012,7.0594,13.3085,8.5625,11.8318,3.9833,-8.9445,3.334,8.1139,
-2.4524,2.4621,3.2157,-0.95465,4.2785,2.1148,2.5382,5.0384,2.9873,5.5785,9.2877,0.99219,-0.48144,2.5651,
-5.6795,-1.0596,1.0946,-0.89691,4.1427,2.4703,-2.9163,-4.423,-3.4584,-3.9152,3.9101,6.2353,-7.201,-3.8548,
-6.7847,0.93196,-11.5044,-4.6997,-8.6396,-6.3548,0.63293,0.18096,5.4259,4.5146,-0.18108,5.8614,-11.1075,2.6428,
0.61178,3.5271,-6.717,-6.5871,-3.5419,-2.3581,6.6205,6.6776,13.0541,12.1975,7.3016,2.3762,-2.9695,5.6172,
6.6011,-1.2638,0.19422,-0.64805,10.7706,7.6654,-3.6587,-1.1944,-1.8291,-2.6344,3.2485,0.064507,-3.514,-4.6013,
9.82,-0.94698,-2.469,1.0781,14.8244,9.8565,-3.1982,-3.7743,-4.4912,-5.73,1.3659,2.7117,-8.8472,-4.0847,
2.7234,4.6533,-2.5617,-11.761,-0.1651,-2.0627,9.2861,7.7805,8.5526,8.7138,4.8997,0.86191,-0.36229,3.6325,
-2.0194,3.169,3.6174,-22.3834,-14.2552,-8.9287,5.5956,10.9289,5.8704,9.9989,4.3645,-0.39475,10.0234,1.2455,
8.4659,0.32795,4.1235,-21.2813,-1.83,1.4892,0.68033,3.7655,1.903,0.48112,7.7182,3.2441,12.0734,-1.9625,
4.1015,3.2003,-4.3186,-21.9329,-7.9872,7.1844,-3.2169,0.64704,-2.55,-4.8509,0.98817,-0.80691,3.6362,-6.6654,
-3.3754,8.311,-3.5776,-20.135,-21.608,9.1635,-1.5776,8.8034,-3.8432,-4.0779,-1.9632,-1.2404,-0.43838,-5.3016,
0.9247,5.161,0.73468,-18.2038,-31.5192,13.6751,-1.2422,9.4802,-5.2996,-5.5202,2.2517,1.0034,-1.1352,-0.88595,
8.5818,5.333,6.475,-14.2195,-15.5281,20.5672,-1.6498,8.4293,-7.8739,-5.6711,4.0451,2.8711,7.6098,4.4696,
0.59505,2.362,2.4715,-18.4275,-12.5477,11.3798,-2.7557,4.3081,-5.2323,-4.1256,-2.7051,1.494,13.1792,1.0684,
-8.8407,-0.91325,-6.1129,-23.3474,-25.8948,3.7072,-4.2776,5.7368,0.14328,-2.1908,-4.2301,4.0555,7.8087,0.28096,
-6.6228,-4.4734,-12.2539,-26.5261,-31.451,2.7618,-3.7795,9.4904,0.37565,-3.7466,-1.3252,2.6069,3.7248,-2.8689,
-0.2003,-2.0361,-8.3856,-24.6938,-15.464,7.6571,-2.83,7.2336,-3.7445,-4.2449,2.3695,3.1736,7.5984,-2.4561,
9.2119,5.0757,3.446,-12.3659,-2.1236,13.7059,-6.2754,2.702,-8.0993,-4.7134,5.843,6.1164,10.2762,2.7528,
9.8645,4.0483,4.9264,-10.9008,-11.3962,7.8218,-4.6941,1.8169,-4.4799,-2.7433,1.877,-2.2043,9.9006,0.90036,
7.3445,3.3235,8.9692,-10.2468,-8.3023,8.7983,-3.9305,3.1542,-3.2472,-3.5426,-1.6101,-5.9284,5.9321,-2.5277,
8.1089,1.9185,15.903,-0.23196,6.2959,13.3323,-5.3817,2.7237,-5.2213,-7.4276,1.6198,-0.51127,4.8531,-4.0634,
2.0785,-1.3298,3.6204,0.50509,-0.95106,6.0247,-3.8537,2.8015,1.1173,-2.4025,1.2814,0.24254,11.0696,1.2418,
-11.5434,-5.1062,-10.6968,-13.6252,-14.994,-2.5317,-6.5148,4.0794,4.4249,4.9723,-5.5441,-4.5925,7.5131,3.5777,
-8.1994,-4.0767,-4.8726,-14.8564,-25.784,5.5741,0.38383,7.4499,6.3288,9.2535,0.81428,-4.5581,3.4471,1.676,
6.0311,-1.1808,8.194,0.135,-10.137,11.7474,-1.3262,4.3516,-3.9331,-0.7015,1.9705,-4.0435,-4.2317,-2.5221,
9.7663,6.3616,8.425,13.0218,4.5713,13.2115,-8.7187,2.4035,-8.2766,-7.1671,-2.2449,2.7069,-9.5212,4.1369,
-3.1119,0.91849,-1.9622,1.394,-6.3083,7.8393,-6.9905,-2.3203,-2.7186,-1.6756,-1.8694,2.3033,-11.1193,5.5757,
0.93118,-1.0648,0.56568,-3.5099,-2.5554,9.2971,-2.2323,1.6753,1.7829,8.0659,3.5454,4.0932,-4.6676,0.42089,
8.5883,-1.0007,3.424,2.0032,11.698,10.6677,-8.847,3.9852,-4.1084,1.3152,1.8866,5.7761,-3.423,-2.9786,
-2.7733,-2.6279,-4.7352,-1.2501,4.3681,3.5202,-7.5933,-0.83322,-3.139,-2.8611,-5.2164,2.7784,-9.2436,1.7794,
-3.8119,5.4833,-2.764,-1.8984,-8.1865,2.5858,3.2264,-1.0244,6.4491,5.7465,-6.1085,-2.4502,-9.894,5.2883,
7.0219,9.4929,3.6685,3.0362,-1.4288,5.323,0.14053,0.96501,-0.20415,-1.347,-6.2242,-13.3902,-16.5312,-6.5984,
10.6979,6.7541,7.5458,4.5413,10.4675,8.1366,-7.3397,4.0406,-11.5201,-15.3662,-8.5018,-12.3458,-28.7958,-12.228,
15.1177,7.5537,20.8318,11.7401,23.9395,14.6383,-8.1046,-0.2992,-12.5161,-14.3239,-8.7151,2.4949,-34.5398,-3.5406,
13.7285,7.1007,16.2072,12.9641,22.1412,12.3135,-9.0644,-2.2097,-13.2116,-6.2339,-12.0483,6.3221,-32.4677,-0.43589,
-0.59281,-0.074001,1.1348,-1.9137,6.7127,-0.47616,-2.7357,6.1178,-2.7777,1.3712,-6.5049,-1.2883,-26.663,2.0006,
-2.9674,-7.3004,-12.7921,-10.8372,-6.1026,-4.304,1.2848,4.7869,6.548,3.2171,3.5263,2.1635,-27.4733,5.255,
4.9234,-4.4522,0.026516,-1.5101,0.53009,6.5591,-2.6486,1.1252,-1.5577,1.0959,2.3509,10.2288,-32.0917,8.7961,
3.1818,-3.7032,-6.2416,-5.7583,-7.2145,3.7554,3.7768,3.4679,-1.4642,4.4046,0.76311,4.7944,-28.2382,5.3758,
3.2323,-0.3475,-3.216,-4.2075,-1.238,-1.5316,3.7911,2.5369,1.7571,1.0068,4.3332,-0.55496,-25.3386,-5.3106,
3.5203,4.0121,5.1721,8.5784,0.28253,1.9348,-4.631,-1.4717,1.1693,-6.7663,0.69875,1.407,-31.0489,-5.4743,
1.1399,0.15598,4.6208,13.6074,-1.4216,4.9522,-5.5585,-0.17812,-1.552,-8.5295,-4.4044,4.4556,-33.2833,-0.56613,
3.7228,-0.094577,13.2614,18.8162,12.7637,5.8601,-9.3225,-0.40863,-15.5588,-13.0792,-5.3457,5.8753,-34.902,-6.5579,
-0.11617,3.5267,8.8505,14.0721,3.6824,0.44704,-2.255,2.7491,-11.6125,-4.8229,0.51893,-0.020637,-26.7821,-5.9233,
-14.0885,-1.5056,-5.7805,-0.87226,-10.6385,-8.2569,6.5569,3.0661,3.1842,3.1793,3.8618,-8.2141,-16.9802,0.21671,
-5.289,-1.6562,-3.6262,-0.45824,0.48436,4.5311,5.9225,1.6773,8.4165,2.748,6.7636,2.1607,-11.3819,7.1936,
-2.5615,-7.3414,5.2685,-6.2153,4.3117,0.4028,0.74648,-5.1722,-3.6581,-1.2737,-0.87308,3.4773,-18.412,4.3514,
-6.0237,-4.2498,0.37264,-7.0479,-10.047,-8.5394,1.4246,0.68127,3.0689,3.382,-2.026,1.5814,-18.9945,4.8132,
-0.35964,1.7897,8.5454,7.4749,1.0404,4.5064,-8.7838,2.569,-2.8994,-4.5332,0.50615,7.2711,-15.9266,1.6323,
-4.4354,-0.48681,11.1657,13.4139,4.111,11.2254,-11.3902,-3.1292,-9.7158,-11.7335,-2.6577,5.1476,-15.6942,-0.15282,
-10.677,1.2294,-1.3146,7.5476,-10.2357,1.1522,2.5498,2.1205,1.7137,1.2632,-3.2214,-3.5971,-7.7626,7.3279,
-7.8668,0.43273,-3.4048,6.8538,-8.0543,-1.0861,2.1558,1.7523,1.8523,4.3209,-2.7867,-4.5861,-5.6097,6.1653,
-3.7796,1.1299,7.1635,10.0578,-3.4739,5.9687,-4.9632,2.3703,-1.3926,0.92797,-1.8968,3.6425,-9.3707,2.1802,
-5.4812,0.098009,8.6617,7.5259,-7.1221,0.30768,-3.2193,1.7459,1.1013,-2.5019,-4.6753,0.5317,-13.147,-3.2535,
-2.2596,-0.39003,12.481,10.449,3.4288,4.6282,-1.0978,-5.1075,-4.7491,-6.208,-5.3584,0.50003,-13.3218,-4.9862,
-4.2936,3.7312,4.7423,9.5811,2.0178,9.4118,-4.1654,-8.4165,-8.562,-1.7381,-6.2422,5.0493,-13.7278,-2.5179,
-11.2669,1.5787,-9.522,-0.15281,-12.0826,-4.1684,-2.9511,-3.5732,2.5571,3.1864,-6.832,0.88997,-14.8323,-4.295,
-0.46794,2.4478,2.6185,9.4973,2.7424,-0.54382,-3.7384,2.4258,-0.0069523,-2.7894,-3.0481,-1.574,-14.9067,-1.1452,
2.2117,2.0604,6.0768,13.0248,8.0007,6.9606,-4.237,-1.8171,-10.3704,-8.6476,-5.5163,-3.6487,-18.1096,-2.2814,
-4.9107,3.1419,-1.2775,3.3255,-5.254,1.9635,5.417,-0.50302,2.5441,0.78914,-3.0159,-1.7424,-13.4076,-4.3139,
-5.8213,0.3018,0.4864,1.4388,0.60532,-4.1799,-2.3798,4.1069,0.70424,-0.94544,-5.0041,-2.8431,-17.1827,-4.296,
-0.16939,-2.6084,5.7599,10.5115,14.0664,0.89116,-5.1291,3.3786,-7.5327,-6.1914,-4.2219,1.1839,-18.5619,-2.11,
-6.9081,-1.0056,-3.2628,9.3988,2.1351,-1.5724,0.96323,-2.1268,-4.6706,-5.8199,-3.0043,5.4516,-13.5918,-6.3218,
-9.1447,2.6697,-5.2362,5.7014,-7.393,-6.5398,-0.78179,4.5083,-2.7032,-5.2297,-2.5831,3.4373,-9.643,-3.7733,
-2.5705,-1.1055,-1.7886,3.1902,1.4863,-1.5676,-2.904,9.7814,-4.2282,-3.7106,-0.25892,-2.3126,-6.8953,1.9967,
-5.3086,-3.4495,-7.4656,-0.85785,-0.53085,-1.4738,5.9471,6.7846,2.7742,2.7787,7.9515,3.1286,0.26736,0.91281,
-8.1231,-2.0372,-2.9203,1.3632,1.1882,-4.0365,7.7594,4.6903,5.2593,0.92479,10.6079,13.7872,0.010121,-4.2036,
-3.0564,-0.71015,9.547,8.2709,14.3733,5.1238,-4.0344,-0.65278,-5.9025,-6.6025,-0.39286,11.7546,-6.498,-5.6382,
-4.0781,2.4657,1.9845,6.5695,4.1107,9.8778,-4.5154,-0.37288,-8.6817,-5.9652,-6.877,5.9879,-4.903,1.6897,
-10.3413,0.63055,-12.2346,-6.1171,-10.236,-0.5968,1.2991,3.7473,1.2392,-2.9562,-2.367,0.56695,-0.029557,5.2033,
-4.418,0.59294,-9.2108,-6.2318,-19.3832,-2.9713,1.7033,3.5222,5.021,2.0417,0.66728,-4.2876,4.7927,0.070643,
5.0061,1.0393,1.4652,5.7113,-4.1203,3.4734,4.4932,-3.4375,2.7916,3.8474,-3.2291,-4.9942,5.4695,-7.6459,
7.1161,7.2437,2.8233,14.0454,10.227,9.0498,1.8137,-7.5698,-1.714,-2.1678,-3.9995,-1.8022,0.32081,-5.7411,
2.8321,9.7014,0.24353,14.6487,15.6389,12.8449,-7.4544,-8.5621,-3.0576,-6.8587,-1.8316,-2.1763,1.7474,0.86963,
-2.1579,4.2988,-3.1453,7.9855,0.60056,8.2181,-1.7047,-3.7099,5.8027,-0.66235,-0.27517,-7.8305,10.8018,2.2639,
-4.1978,1.8715,-1.7515,3.8907,-13.5355,5.5556,4.4234,1.5742,5.2133,0.10052,-2.4281,-9.5296,10.3946,-0.52322,
-4.4279,-2.0972,4.6201,5.5854,1.3767,8.5967,-0.18036,-7.1969,2.0085,-4.7262,-4.6925,-8.4759,8.8069,-2.42,
-6.5725,-3.8993,3.3788,4.2862,0.2097,-0.11401,2.7227,-9.6574,12.0111,2.7884,-1.0367,-3.1468,15.9912,0.61747,
-13.65,-2.9425,-8.1521,-4.4066,-13.9029,-9.5072,5.6924,-0.64227,13.4596,8.6467,5.051,2.1036,16.719,-2.0711,
-16.9286,-4.4534,-11.2787,-11.6143,-12.4663,-5.3215,6.5559,3.4939,11.4465,8.8505,9.8094,1.7362,14.5106,-3.6339,
-6.995,-2.9807,-4.5762,-4.4097,-4.2467,1.5055,6.4038,-3.2235,11.0009,4.7043,4.6418,2.3552,10.5067,-1.2469,
1.3789,-0.63266,-3.0963,4.773,-6.1606,-1.7179,2.4046,-13.8763,7.2078,3.6992,0.26593,-1.4015,3.8507,-4.3051,
4.1882,3.2617,-0.98233,9.3068,-3.8633,-2.5791,-3.0428,-14.49,1.4727,3.4772,1.6958,-2.7637,2.1732,-5.975,
11.8911,7.1633,5.1022,8.5075,2.8765,3.6016,-4.0651,-6.6307,-2.2311,-4.6852,-0.093195,8.7303,1.3199,-6.3394,
11.6596,3.8415,0.93964,-1.1616,-2.5988,-0.47088,9.6762,-8.1606,9.9543,-0.54767,3.7692,8.2069,9.4359,-3.5489,
6.6215,3.1288,-6.3473,-6.8767,-9.6734,-6.2274,23.0751,-5.743,23.4571,13.4647,14.1482,-5.3011,22.9697,4.377,
5.5013,3.1821,-6.2075,-9.1152,-14.6367,-10.9155,15.6651,4.0015,22.1701,5.185,11.612,-11.9729,18.3376,0.016595,
12.4018,6.3658,1.3956,-0.85526,-12.7944,-9.7784,16.1712,11.9564,17.4657,0.53536,9.4693,-5.4697,14.345,-5.7688,
12.6216,5.5015,-1.5807,4.4982,-14.4373,-13.53,19.0573,4.972,16.4173,3.8777,6.4905,-8.0341,14.4482,-9.279,
12.1055,4.4483,2.1298,11.218,-20.5607,-15.8519,21.5291,3.4687,21.458,7.7422,5.8599,-14.0597,17.1969,-8.4815,
8.2461,1.0483,2.7249,11.2683,-33.0654,-22.3721,15.1761,2.5376,18.4833,5.1085,-2.4454,-22.134,11.1034,-15.4444,
13.0535,2.9132,6.4178,13.0023,-18.066,-19.1021,7.9986,-1.4715,8.6972,-0.018293,-2.2987,-13.5753,3.6883,-16.446,
15.6448,9.0054,10.3715,18.4887,-2.8821,-13.6172,8.9649,-0.90079,6.2472,-4.356,0.73174,-5.53,3.467,-10.1566,
8.1981,11.1161,6.1338,18.1023,-16.0862,-21.7182,18.309,3.2506,15.2724,2.4133,-2.4456,-9.7775,12.1771,-6.4137,
7.4655,6.834,1.6682,10.5089,-26.9312,-25.4766,20.8261,0.88618,17.4897,5.8837,-3.504,-16.1805,11.6876,-11.0908,
13.5251,5.7006,1.3271,12.5294,-21.7001,-19.3687,8.2483,2.0383,6.558,-5.3156,-1.1246,-15.933,0.14013,-15.0046,
11.0266,8.4918,-1.4038,17.803,-14.3723,-14.109,5.584,4.5673,7.8515,-3.7916,4.0044,-7.023,8.5676,-5.1865,
9.4009,6.5367,-5.1757,9.9866,-10.6175,-6.9957,16.8184,0.43713,20.3965,10.4159,10.5132,-1.2988,22.0331,2.8377,
6.4265,-1.5685,-11.1319,0.71052,-12.873,-2.2374,4.2399,-4.4096,8.5672,1.596,1.2056,-8.4519,7.6959,-4.5632,
6.523,-2.9209,-4.6797,11.2725,-14.5109,3.6812,-5.6557,5.4957,-2.07,-10.0691,0.65061,-6.4988,0.48502,-2.8438,
3.9623,-3.9507,-0.3013,14.2118,-12.4352,3.2196,-5.5571,4.4429,-3.6328,-10.1881,2.781,0.39885,3.1072,0.94246,
-0.13185,-2.7493,-1.7295,7.0926,-12.171,2.544,-3.2955,-0.64442,2.8517,2.9567,0.20398,-2.0352,9.6697,2.3322,
-4.4623,-5.9588,-10.7847,3.2926,-23.0099,-4.3571,0.75863,4.215,9.9114,10.0101,-1.7365,-8.662,13.4278,3.1561,
-3.2307,-9.9401,-11.5839,1.1668,-15.8448,-3.6137,-0.73315,6.8541,3.0498,4.1068,0.77786,-1.3934,9.2477,3.4491,
7.5685,-8.3793,3.2111,2.0607,-0.79407,5.7621,-3.0993,2.1045,-1.4715,0.0040425,4.5876,4.9567,11.5854,1.7959,
6.3912,-7.1534,3.1394,5.0708,1.3022,-3.5014,-6.0466,1.7375,-0.1777,0.72693,0.21519,-8.1149,14.9878,-1.927,
1.9104,-5.037,-4.5212,10.7921,-0.46311,-3.0504,-2.5508,7.6588,-1.3728,2.3701,-0.039143,-11.7256,11.437,2.7679,
9.0269,-10.5191,8.2837,12.073,13.6647,11.2326,-9.6283,-0.51324,-15.3904,-8.8591,-1.9648,2.9577,2.5563,1.6377,
14.2698,-6.0316,19.3559,15.6869,26.9448,22.0074,-15.7991,-1.4468,-21.0945,-10.7377,-8.5953,10.493,4.3311,3.4676,
-0.68637,-7.1162,4.0945,5.1045,11.2281,6.5869,-7.6205,7.3169,-5.7288,4.0066,-11.9362,-4.2366,7.9274,7.1162,
-14.0223,-15.3661,-10.2511,-8.6994,-3.5456,-6.703,1.0316,11.2164,7.5096,12.8045,0.83128,1.9229,14.2005,9.5815,
-11.9759,-20.4694,-10.6002,-17.5772,2.6932,1.6531,-9.3943,0.66129,-5.2333,1.1902,4.879,15.5461,9.7332,6.3553,
-6.4368,-15.3851,-0.32342,-14.1122,2.0494,1.0713,-10.7591,1.5857,-7.3296,0.15468,-1.1986,9.7924,5.2926,6.4557,
-8.2198,-9.4003,-8.7397,-4.3478,-10.848,-2.6079,-12.2827,4.6241,-8.0951,-0.095567,-5.7064,1.2511,5.216,3.8992,
-13.7524,-9.0777,-8.9387,1.9386,-12.3665,-1.2466,-13.233,2.6594,-5.4403,1.5974,0.66153,5.7553,11.411,5.8344,
-16.0605,-14.0765,0.51595,-0.82861,-10.4192,-2.8588,-15.5723,1.7767,-6.8009,1.7423,-2.9933,9.0257,7.5931,-0.059047,
-0.99687,-5.0369,14.585,13.2002,4.3059,11.4127,-15.1201,9.865,-14.1058,0.19172,-6.188,17.6429,3.2809,0.42666,
0.14775,-4.0116,6.5998,10.2392,14.2912,14.7051,-13.0074,9.0319,-13.9821,-1.0248,-6.5398,15.8617,6.2173,9.3189,
-12.8765,-7.6271,-2.4731,0.46607,-0.66629,5.1459,-13.6734,5.1158,-7.8408,2.8933,-8.5578,13.9459,9.7009,16.9547,
-9.6936,-7.1694,2.4955,10.0791,-2.916,4.8371,-15.2631,5.7732,-10.7448,3.2016,-9.0082,18.8937,5.2624,11.1172,
-6.2199,-3.3653,2.8282,16.7052,7.8643,11.7778,-13.8654,10.247,-14.9204,-0.36495,-6.0576,13.9037,2.5366,8.5219,
-13.8007,-0.51226,6.2735,13.0513,13.4175,17.0962,-13.2745,14.2115,-15.2309,-0.58402,-5.4531,10.8999,7.4456,13.5538,
-25.2649,-5.0608,7.1024,8.6528,14.2997,14.8656,-14.1652,9.2615,-11.1835,-0.78995,-4.885,12.415,8.2041,11.0533,
-36.2821,-10.0598,1.8555,3.3134,16.3342,7.7071,-20.5461,-0.9352,-14.8509,-6.5271,-2.1813,9.26,-2.8934,4.1236,
-43.2642,-8.4919,5.1186,1.6683,15.3542,5.7984,-19.7953,-0.87909,-14.9237,-3.7254,1.3236,10.1507,-2.2374,5.8044,
-52.7199,-10.8747,-0.49091,-5.6628,4.3098,0.62959,-14.7514,-3.2367,-10.654,0.8367,-3.5763,6.6493,8.0195,5.9383,
-54.8593,-11.1865,-5.2824,-11.1074,3.0869,0.59204,-12.9022,1.778,-2.7842,6.5708,-4.8078,1.4294,9.4668,9.9201,
-53.255,-13.1664,0.096459,-6.8258,14.2299,2.7254,-17.1896,1.9125,-6.7147,0.63321,-5.2424,3.995,-1.4656,7.1559,
-51.2645,-10.6892,9.0087,3.9481,19.884,6.1778,-15.4348,-1.8177,-14.7475,-3.0202,-5.1689,11.7095,-3.0646,6.4856,
-51.8041,-9.8069,3.4065,2.9878,13.1474,4.1199,-13.3039,4.3169,-13.1397,0.77643,-6.064,9.8016,1.6985,11.1582,
-51.106,-10.6645,-8.849,-3.9399,9.9484,3.8727,-9.6132,11.2888,-4.1562,6.5144,-0.39754,9.214,5.4532,14.3451,
-48.2808,-10.2658,-6.6308,-1.5343,22.1259,12.5584,-13.6156,6.5141,-15.235,-3.2764,-0.61465,14.2043,-0.41734,5.5306,
-46.348,-10.6137,2.4437,2.8965,31.8856,14.697,-20.5115,-1.1076,-26.8544,-14.649,-6.3624,11.9062,-7.1412,-2.0321,
-47.4236,-3.7106,-3.9697,2.2401,15.8725,8.5127,-11.5683,3.7793,-11.1431,0.20944,-2.6064,10.2273,0.51788,10.1407,
-54.2193,-2.5239,-14.3368,-1.7507,0.82013,2.6993,-7.018,10.301,2.4204,9.8374,-2.9319,8.6493,2.8969,14.8349,
-52.171,-6.9515,0.62343,2.4522,3.6632,7.1171,-13.1044,7.5143,-8.0887,1.7758,-4.4432,12.7101,-3.7844,6.9554,
-47.3535,-6.7756,5.7686,0.61803,14.7714,14.1617,-18.8256,-2.3368,-16.5212,-2.9103,-9.2381,14.1169,-1.3879,5.333,
-39.2099,-1.5488,0.60181,0.098558,20.634,23.9173,-14.3219,0.69591,-14.0841,-0.32553,-7.72,16.6444,8.8183,11.7615,
-40.2318,-9.6506,10.2067,3.4671,20.8418,25.3743,-27.5625,3.5462,-27.3391,-13.3214,-10.1488,14.1994,-5.8108,1.4148,
-47.9407,-12.4458,7.1839,0.36678,12.8426,22.8877,-32.0551,8.6359,-32.8091,-11.558,-8.5758,17.686,-12.0901,2.776,
-49.8848,-12.1812,-7.3471,-8.8143,9.6619,19.1043,-16.0317,20.1693,-16.7406,3.2354,-2.2767,23.8557,2.7353,16.7094,
-41.1071,-11.4503,-3.8935,4.2481,23.1822,23.2607,-17.6005,21.8516,-19.2308,4.8493,-5.9964,26.7627,10.1632,21.3712,
-43.4612,-11.7272,8.3914,14.1163,31.7941,25.7212,-30.6444,6.561,-32.177,-7.493,-13.8316,24.1928,-4.5466,9.0019,
-46.8793,-6.4443,0.41612,4.8332,22.4147,24.4189,-30.3725,9.3004,-25.5464,0.42837,-10.8325,23.9465,-6.8044,16.8975,
-45.2716,-6.2986,-4.1881,-4.8568,28.5416,22.7128,-21.0783,22.4811,-17.5059,4.982,-5.6028,29.4992,7.7039,26.7299,
-49.5449,-14.3566,2.0887,-4.3239,27.552,22.0734,-25.357,15.1067,-28.2656,-1.3425,-5.0257,31.827,6.1571,20.0644,
-53.5621,-15.1824,1.7224,-4.7879,24.6936,20.508,-30.3433,5.2822,-31.6314,-1.021,-9.3035,28.7121,-0.72008,16.6914,
-47.938,-14.2715,2.5832,-6.429,37.1915,24.0976,-34.7897,9.7858,-32.1439,-1.9238,-12.6019,29.8817,2.2152,18.0998,
-51.8104,-19.6817,7.7306,-3.6329,20.86,19.7599,-44.7534,11.609,-39.374,-5.1826,-15.7019,30.9811,-1.292,11.7119,
-59.789,-22.8396,5.3386,-4.8612,5.5084,9.8972,-49.781,5.6098,-37.4938,-3.4254,-19.0986,28.1583,-11.8195,10.0448,
-42.1017,-14.9613,-1.0073,-10.5951,19.2779,15.8109,-32.6941,9.3706,-21.1441,7.6264,-8.5527,27.6737,2.9897,21.7342,
-25.4756,-8.7612,-4.3213,-10.9232,32.2212,16.3085,-16.6325,9.2903,-17.3449,7.6507,-1.2908,19.7467,16.9103,18.5019,
-19.609,-12.574,-0.20565,-9.7859,44.388,1.23,-12.7425,1.984,-12.93,8.6375,-5.5519,8.9205,15.8954,14.0174,
-18.432,-19.0502,3.6633,-11.6091,55.8247,-12.9438,-17.7623,-6.8119,-16.4922,4.2631,-11.4853,7.4216,0.84172,14.6228,
-7.4441,-11.3995,8.0228,3.1874,66.5752,-14.5776,-21.7582,-8.0905,-29.6027,-5.8746,-8.6268,13.4838,0.1888,13.0221,
-12.3001,-11.6798,5.1311,11.3114,76.6807,-10.3282,-24.3091,-2.3022,-31.3215,-6.4863,-11.4839,8.3362,4.998,9.3485,
-23.6134,-15.3176,-2.4074,3.884,77.8644,-21.2779,-14.6558,4.1023,-15.3422,1.1335,-16.0975,1.5693,10.0005,10.2336,
-10.8682,-2.106,2.7987,3.41,61.8644,-30.8475,0.3235,5.0614,-0.8036,0.82455,-9.5878,-1.6579,13.9802,6.4866,
3.8839,12.1203,16.7308,15.2567,59.5985,-28.9964,14.4041,4.758,9.3675,0.77485,4.967,-2.0406,15.5518,-0.65131,
17.7509,22.6008,28.8626,21.8134,43.2484,-33.7644,25.3502,-0.10703,13.385,2.8977,5.874,-14.2104,14.3775,-9.5305,
25.1215,21.0036,13.8747,17.8532,26.5535,-45.8385,32.2651,-9.5008,24.8744,3.9289,2.8703,-27.4578,15.6842,-21.7329,
35.9065,27.6973,12.801,15.0946,10.8603,-54.5371,35.3906,-14.4742,33.746,1.0419,4.385,-29.0641,12.5738,-26.4543,
35.9215,25.7945,8.8999,9.1277,-3.8913,-55.8442,36.8826,-14.811,33.4085,-4.0818,5.3272,-29.4894,5.7938,-22.2159,
30.6329,21.1134,0.41175,2.5545,-14.8653,-59.9653,44.0697,-17.5378,38.8758,-0.70391,11.5155,-38.0843,9.0616,-23.0521,
38.6767,21.0519,1.1099,-0.25034,-20.9633,-59.983,38.7739,-20.5829,32.9274,-0.90264,12.0294,-37.4865,6.8302,-31.5514,
42.1409,21.2348,2.9718,-2.1637,-26.9361,-57.8301,35.9658,-17.4199,29.9876,-2.2945,10.8255,-33.7913,1.6004,-30.14,
31.8997,15.6224,-6.3656,-5.4079,-38.8173,-55.8063,37.6642,-12.9998,34.4553,3.1458,11.1403,-35.6197,2.4687,-22.547,
33.3601,15.167,-6.4656,-0.74511,-36.9706,-46.1914,39.7432,-9.3278,38.6545,14.0443,13.8463,-26.7341,10.0333,-18.7841,
32.8045,11.3649,-3.1856,-2.6286,-26.5572,-46.7942,34.948,-15.9989,31.0326,8.3809,11.0874,-23.6838,7.5027,-23.9235,
36.1387,14.5391,4.2366,-0.54292,-16.2874,-39.1663,29.4769,-10.7005,22.9039,-0.79881,13.3144,-19.3705,5.1245,-15.2575,
34.9347,10.7747,4.9463,1.4183,-20.6123,-33.9238,19.0312,-7.1664,19.1196,-5.0892,8.6592,-18.6902,3.3708,-11.4496,
25.3668,6.5128,-1.376,-3.2465,-29.7399,-40.3242,18.1303,-9.8694,25.9266,2.688,6.9343,-24.0767,4.8558,-14.378,
20.7113,5.3987,-4.427,-8.1134,-26.7502,-40.0742,19.2116,-14.3389,22.2014,4.6958,7.7236,-24.8013,5.7697,-13.7563,
33.5686,8.4495,9.9387,3.9428,-11.0452,-23.5697,19.0235,-6.7299,14.603,-1.8527,9.6705,-11.7438,6.8696,-9.0748,
31.6752,3.8451,12.8373,0.090783,1.3071,-21.5529,13.7842,-4.157,14.9317,-5.8389,4.0286,-11.7625,3.3239,-9.2532,
16.2771,-3.6166,-0.46598,-14.0147,-12.8713,-31.3469,18.7418,-13.5485,24.1587,4.6344,6.197,-20.6978,8.4271,-8.216,
17.4697,-1.7122,0.76681,-12.8121,-14.1475,-27.2967,16.8944,-12.0122,20.54,3.151,6.0661,-18.7325,7.6805,-7.4821,
17.868,-1.6097,0.72103,-11.0793,-10.4063,-25.1768,13.9527,-11.7737,15.9334,0.55207,5.2205,-18.0907,5.2917,-7.9973,
19.2058,-0.067296,1.6416,-8.4863,-6.4079,-22.2204,12.1512,-10.5853,12.5668,-0.92732,4.9068,-16.5234,4.4918,-7.5174,
20.946,1.3832,2.5072,-5.5668,-1.6849,-18.9587,10.94,-8.9861,9.8848,-1.3538,5.0945,-14.5679,3.7402,-6.5842,
22.3403,3.4694,4.044,-3.0636,2.5135,-15.1699,10.0426,-7.2416,7.6045,-1.9955,5.5122,-12.4885,3.7572,-5.4663,
24.1334,4.9485,5.4886,-0.22872,6.9425,-12.0905,9.1991,-5.6023,5.461,-2.5991,6.3863,-10.5344,3.2903,-4.4149,
26.5418,7.5438,8.0516,3.6416,12.3103,-7.9909,9.1293,-2.8558,3.6873,-2.443,7.4492,-7.01,4.5394,-2.2221,
30.7338,2.2707,10.4608,-1.3974,13.982,-2.6909,10.0276,-4.1305,4.9121,1.0778,4.5923,-3.6971,5.7131,-9.3194,
23.5872,0.68823,2.1204,-9.9906,11.6968,0.36282,6.0515,-1.4725,2.6892,2.9414,1.9062,-3.9572,7.2985,-7.3144,
27.9565,9.3238,2.4753,0.25002,18.2261,6.6078,4.7243,2.4724,-1.3283,-2.5375,6.6128,-1.3094,3.4863,-0.6088,
34.956,10.2109,8.5935,9.3938,21.953,6.2116,4.923,-2.4964,-1.2489,-8.652,7.662,6.4817,-2.0257,-5.3928,
31.1716,9.8389,4.9442,4.2507,6.5358,4.6333,1.4944,-3.5521,2.4417,-7.4098,3.5867,5.852,-0.21672,-8.2024,
24.4806,8.2847,-7.4035,-5.6453,-7.9563,9.176,2.3686,0.51738,4.7053,-4.0731,1.4433,-8.5991,-0.68611,-3.8539,
24.4583,7.3055,-8.8873,-4.8244,-5.0684,13.4464,6.0831,0.0046307,1.5307,-3.8285,2.8032,-16.1574,-5.465,-3.1405,
29.4983,12.4108,5.7459,8.2395,4.1533,12.8801,8.3692,2.6554,-0.73027,-4.8041,7.6962,-1.0879,-3.9322,-6.0856,
27.4872,10.4611,5.2802,9.4321,-6.9423,7.0459,6.18,0.80912,-3.8202,-5.7209,2.6549,2.2309,-7.3119,-9.818,
25.115,9.11,-7.3286,1.8763,-12.069,7.3465,6.5321,-3.3368,-2.8676,2.5761,-2.0837,-2.4823,-4.2217,-3.6849,
21.6799,2.2969,-10.7453,-8.3592,-15.6831,-1.7714,5.6583,-4.5828,3.5714,1.9396,-0.030459,-7.636,2.2986,0.39261,
25.1999,0.23092,-0.94155,-7.3757,-17.6347,-5.0396,3.8725,-0.45147,6.2492,-3.4794,8.6485,-3.3214,3.1245,-0.59527,
28.5083,3.1094,-1.8492,-5.4871,-14.1662,0.56523,5.0862,1.986,4.9102,-0.86031,16.324,2.1803,2.9368,-3.4518,
26.5566,4.6102,-9.6922,-10.7013,-15.9676,-1.1557,10.8068,7.4102,8.7131,1.8426,11.2475,-6.8684,2.5199,-1.5573,
31.9529,6.0206,1.7354,-0.65897,-0.90953,10.2421,6.5432,10.5812,-2.1738,-4.2937,-3.5274,-9.1076,-2.2108,-0.74117,
34.6152,6.3825,13.4416,9.2623,13.0036,23.3656,1.0887,7.777,-11.4436,-7.6513,-7.5338,-2.5354,-0.8731,-5.2762,
27.2357,6.4815,0.58403,0.99376,-0.30963,7.9844,2.4696,7.3104,-1.5979,-2.8539,0.631,-6.7216,2.5537,-4.4773,
21.0225,3.4413,-13.551,-6.5374,-14.391,-6.5946,3.527,7.1129,6.4519,1.4149,-1.5758,-13.7903,-5.0715,-1.0754,
23.6173,0.34252,-10.9305,-4.2172,-14.1302,-1.499,1.3869,3.3115,5.1007,4.2223,-1.9634,-2.8398,-8.6234,-3.9031,
30.154,3.4555,-0.87464,5.4358,0.81758,12.691,-2.3117,-0.98457,-1.2309,1.7998,0.32356,11.4306,-2.5624,-3.428,
27.1399,3.0072,-1.0631,4.3868,2.5765,11.8088,-1.4501,-3.0947,-3.3266,-4.8161,-1.3831,10.6245,-1.2038,-0.088808,
23.1009,3.7906,-1.9637,-0.69716,-9.6297,4.8338,0.083175,2.8756,-2.1627,-2.5989,-0.33623,0.82757,-4.0241,-1.5297,
29.4279,7.4198,2.0108,3.2013,-1.3389,12.7387,-5.7066,6.0773,-6.3715,-4.371,-5.1365,3.6707,-8.6027,-7.2228,
30.7955,3.3589,2.6133,6.1425,7.1773,17.0358,-10.4257,-1.277,-12.9789,-8.6882,-18.9283,8.9938,-11.7022,-7.9945,
24.3682,1.4704,-0.19487,4.5689,-6.9918,11.9161,-2.81,3.8611,-3.2823,2.6791,-15.2618,9.1773,-5.9386,0.43918,
17.1215,-2.9566,-10.3065,-4.8643,-20.6723,0.59627,-1.1956,6.0395,7.0375,8.3029,-0.2461,2.3602,-5.0999,3.7873,
19.9506,-5.1893,-9.2058,-5.0544,-15.9373,-1.3682,-5.9441,1.3388,-1.5794,0.57392,11.2176,6.5569,-10.5789,2.1138,
19.2358,-4.8777,-3.351,-4.269,-12.5707,-4.1779,-8.4798,0.77681,-10.6434,-4.7629,7.1703,7.1276,-16.2105,-2.3516,
20.4917,-1.2106,-2.1856,-6.9053,-19.5292,-2.481,-1.7045,5.5505,-2.2921,-2.549,12.5247,4.7717,-8.4889,-3.1744,
25.288,1.9953,-3.2595,-8.6604,-9.4396,7.5496,0.56717,4.9767,-0.46755,-6.4932,21.1729,4.7266,-1.4723,-1.2969,
24.2529,-0.5348,-2.5823,-7.1767,-0.67832,10.4708,-2.3592,2.2677,-3.8137,-5.1399,20.8667,5.889,-8.1327,-0.73693,
17.4949,-4.3593,-7.2478,-5.2996,-12.207,4.0582,-5.5923,0.68518,-4.549,-5.7956,16.2404,5.0535,-13.4291,0.27138,
19.5789,3.3743,-9.4643,-3.2946,-18.4642,5.0198,-5.0156,5.706,-4.5172,-7.1349,17.4354,7.8836,-7.0799,3.3884,
27.5632,3.6537,-6.0039,0.2775,-3.3766,11.4675,-4.2322,5.8456,-8.1026,-9.1169,15.9069,7.893,-9.5472,-5.4916,
24.4631,1.9883,-4.1974,1.2247,3.5744,10.2971,-2.0506,3.5666,-6.1702,-8.088,10.1322,5.4907,-12.3488,-6.1264,
13.1129,0.66413,-11.4178,-11.1408,-10.7401,-0.68461,6.5086,6.4857,7.4564,3.2436,13.1393,-0.86427,-0.2797,2.6768,
15.2187,-0.34004,-11.6966,-13.3649,-24.1956,-7.3922,10.4564,11.8816,13.276,7.3873,21.5104,-3.2225,4.5578,2.5162,
19.6082,-0.80157,1.5387,-0.51145,-14.0668,-2.1282,-1.7401,4.4198,-1.6206,-4.6251,12.9889,2.7554,-9.8157,-1.4911,
12.1647,-2.1997,-1.4462,-3.8552,-14.6691,-2.0005,-2.1181,-5.0045,-6.2238,-6.2758,2.0862,4.0363,-8.1426,2.9367,
9.9888,-2.0675,-10.5182,-12.3008,-12.8248,-4.2908,2.8299,-1.8119,1.8626,-1.5607,0.51503,2.3481,0.54134,6.6171,
13.7281,-2.4256,-1.2102,-0.47573,-2.4141,-4.5155,-7.9449,-1.703,-10.7824,-13.5184,-0.47997,4.6171,-12.5068,-2.4568,
12.6634,0.85339,11.6368,10.3991,-12.6336,-5.4494,-4.3352,1.0503,-5.0737,-6.6817,6.5387,7.4736,-10.5511,-0.62218,
6.119,-4.5005,-0.14861,-4.3249,-25.9756,-8.4969,-0.21872,1.9512,4.3893,4.3245,5.1821,-1.1695,-0.27706,1.3433,
13.2237,-4.4714,-4.719,-10.4526,-10.558,1.4129,4.3741,4.9676,5.3312,4.7879,7.0407,-2.3047,4.3189,4.3962,
11.9481,-0.34696,-1.0616,-0.66664,-2.2115,5.1843,1.2194,0.33097,-3.6656,-2.2481,1.7974,-2.6485,-2.207,-1.1704,
5.6878,2.3252,-0.75672,3.9529,-8.1046,1.74,-5.3615,-0.41156,-6.0969,-3.3182,-4.3358,-0.80217,-6.1717,-1.8233,
5.8285,2.6676,-5.0501,-0.62262,-14.8492,-0.29263,0.26287,4.4334,4.3918,6.0399,0.26267,4.0662,-0.016841,7.927,
4.2737,1.7849,-10.7729,-1.7903,-14.6814,3.3406,0.0059005,3.4443,2.4413,7.3645,1.452,1.6533,-1.7033,6.7287,
4.0168,1.1954,-8.1983,-1.201,-5.1238,16.637,-4.8152,-0.13685,-7.8286,-5.6109,-5.3841,-1.3384,-6.9037,-2.3521,
8.5968,3.534,-3.3674,-4.0212,-4.3338,22.8699,-3.0798,-0.61034,-7.3586,-10.0942,-9.881,-0.29401,-5.043,-3.1751,
8.0807,3.8041,-6.54,-4.744,-17.0894,14.749,2.4074,-0.09202,2.7241,4.0085,-4.9501,-2.6867,-0.40189,3.7641,
5.427,-0.52168,-5.9064,-2.7719,-12.9308,11.2127,1.0579,1.119,0.87365,5.4555,-2.0018,0.6082,-1.1009,5.2257,
5.3421,-2.1778,-5.7932,-4.775,-3.719,13.1913,-6.9595,2.7389,-10.9896,-8.6109,-6.4612,3.2226,-8.5069,0.33222,
12.7346,1.3275,-7.3736,-3.0425,-4.9419,14.8102,-0.75714,3.5386,-1.6529,-1.3451,-3.6631,-0.34501,-3.6579,5.1332,
14.8625,3.1761,-5.4854,2.4423,-8.5018,12.4753,0.25216,4.2902,4.7128,4.5198,-5.8539,-4.6631,-2.4746,5.3067,
12.5245,3.4674,0.14637,3.742,-7.9917,7.8704,-3.6194,6.9253,1.5375,-3.4642,-9.841,-5.8291,-7.1464,-1.7601,
10.0861,-0.83774,2.7889,-3.4722,-6.3071,3.3006,2.1416,1.4483,7.953,-3.0152,-5.153,-1.8642,-4.5482,-1.8953,
4.4194,-2.4745,-1.9579,-8.8072,-7.1338,3.8262,3.7001,-3.7,7.717,2.7096,-2.1925,2.3453,1.7505,2.316,
-4.2816,-1.1214,-12.2046,-14.3046,-17.5518,-0.019065,5.1651,3.0292,7.9771,6.6441,-1.3378,-1.4106,5.2606,4.8279,
-4.2659,-1.7772,-15.0877,-15.6152,-22.5244,-3.1512,4.1321,0.67855,10.1498,7.933,-1.0168,-3.0135,3.7397,3.8151,
4.1847,-1.1887,-4.0598,-5.0378,-9.6038,7.1608,1.956,-6.593,7.1302,6.0107,-4.3302,7.2903,3.997,4.5501,
5.3804,-1.5988,-0.44127,-0.87869,-2.2787,11.0695,1.3567,-3.7873,0.91829,-1.5808,-8.8907,2.5145,2.3114,2.8313,
6.9855,2.3533,-0.89696,-1.7905,4.1243,8.9593,1.7574,6.5631,-1.5476,-1.4861,-5.4649,-2.9388,3.1368,4.5894,
7.0485,0.76603,-0.84291,-5.0569,4.8414,3.1193,1.1698,1.3488,1.438,2.4596,-0.31657,7.8426,2.4664,6.2424,
6.143,-0.72642,1.1356,-3.7898,-2.1982,1.4856,2.0637,-7.409,6.1717,6.6506,-0.2978,12.1925,0.87243,7.3139,
9.1489,2.2097,5.4058,1.2583,0.82621,4.289,-2.8808,-10.3389,-3.3571,-2.4255,-7.0284,0.8557,-1.1081,-0.35576,
11.4927,1.5949,8.4561,1.665,9.9354,6.442,-2.7077,-11.1646,-9.4225,-9.9925,-6.6064,-0.15928,-0.55946,-8.047,
5.0186,0.53537,2.1637,-0.84553,0.66268,5.0912,0.34726,-11.4591,-0.66241,-1.1983,-2.3537,4.6705,1.8842,2.0768,
0.61963,1.2262,-8.8119,-4.8921,-12.6335,1.6522,3.9418,-9.0843,8.2954,7.7917,-4.3821,-0.67138,6.8329,13.7623,
4.9208,3.0808,-9.2475,-4.1167,-6.0913,3.9637,4.1873,-9.5036,5.8695,4.4317,-4.1191,-0.6311,6.4224,6.6701,
6.5544,1.9318,-4.836,-0.013069,2.4695,10.9565,-0.88445,-8.9327,2.1431,3.6841,-0.49732,0.85326,1.699,2.8957,
2.0631,-3.7279,-6.2333,-6.52,0.15197,10.5403,1.8199,-7.674,6.1116,5.15,1.7015,-4.2598,8.1048,7.301,
0.011125,-4.4681,-6.3413,-15.7698,5.4455,2.677,3.1565,-12.5162,3.8167,-1.426,-1.2927,-3.0399,10.0286,-0.36746,
2.4208,-1.3077,-4.0328,-10.9674,6.5648,-2.3041,3.4493,-16.5857,5.0342,3.4805,-1.6973,-1.4115,5.0883,-1.7919,
6.3731,-0.98807,-5.4774,-2.8373,-0.81873,0.0035571,6.858,-12.4569,9.3117,11.2257,-0.38994,-2.5319,8.3987,9.1621,
7.1961,0.2765,-4.4258,-1.9437,9.1123,8.921,-0.54335,-6.1659,-0.16508,-0.29412,-0.12557,11.72,6.6895,6.4432,
2.9077,2.1879,-0.30414,-6.6481,6.1552,4.5295,-2.4392,-5.7961,0.80892,-3.6512,1.328,17.8862,5.324,1.7181,
0.081889,3.2617,-0.52709,-8.9005,-8.3141,-7.0707,6.625,-8.5816,12.0884,10.6679,-0.92108,2.713,9.1022,8.6046,
5.8616,4.5122,-0.9774,-3.0638,-9.382,-1.3438,7.1918,-6.6209,14.2556,14.969,1.5443,-11.5497,12.8943,9.0522,
5.5101,1.3492,-4.293,0.0123,1.3041,0.66528,-2.3985,-12.008,5.2053,3.9478,-1.4406,-2.1801,8.2641,-3.0598,
4.9387,3.9196,-7.6506,3.1453,-1.425,2.3124,-3.4596,-16.8309,4.1703,2.5058,-8.3438,-0.84378,1.7429,-1.6712,
5.847,3.4432,-5.5046,2.2334,-3.5089,5.3069,-3.0113,-10.7596,3.6789,1.6324,-7.1201,-0.070483,-0.049127,2.0443,
9.1116,1.0675,2.7795,0.89413,7.0655,8.1219,-4.5179,-0.71404,-1.6035,-0.63475,-2.1136,7.8879,3.5692,2.645,
3.0213,-0.68382,-4.3772,-6.1494,-0.83026,8.3575,-2.0772,-1.8765,-0.30201,2.5368,-4.6379,0.90673,3.1141,5.6193,
2.1171,-0.40183,-8.2114,-2.6469,-13.0725,10.9896,4.073,-2.0049,7.6698,4.5538,-2.6724,-6.6195,3.6506,5.5236,
7.7745,1.0683,5.7784,7.1526,-6.9857,9.848,-3.4024,-4.2949,-2.9135,-7.2888,-2.5123,2.9369,1.9851,-3.4852,
8.0316,1.2454,10.4931,4.5545,-6.8073,8.0521,-3.921,-10.5449,-5.8719,-6.1284,-4.5305,7.8222,2.1072,-3.9987,
1.7649,-0.27534,-4.2365,-6.3238,-20.4989,6.6049,2.581,-8.9482,2.6753,3.8805,-6.669,-4.2165,0.53473,3.9537,
6.9616,4.0795,-12.5384,-0.64173,-15.774,7.6548,0.49798,-0.69849,-0.85964,2.6834,-7.7151,-4.4455,-1.9075,6.1271,
12.0875,3.1118,1.9522,9.2787,-0.72758,11.2929,-6.5218,-6.6821,-9.7261,-3.5032,-7.0112,4.7393,-3.9626,-2.1943,
10.8801,2.9249,4.2454,6.7936,3.7749,13.5076,-4.2025,-6.7634,-6.7322,-1.365,-5.6265,5.4191,3.0238,0.82922,
11.9143,3.4725,-2.517,-4.4601,-10.1902,2.3331,3.0393,-0.81372,-1.2668,-0.07761,-5.0477,-0.44993,7.4219,1.5026,
12.4045,3.023,-4.0535,-6.8438,-9.82,-1.4226,4.062,-2.9343,0.014249,-0.31415,-5.9499,0.30019,6.7354,-4.1309,
5.3935,1.8775,-4.2924,-1.6127,-11.1587,3.4833,-0.51981,-7.5787,-0.46877,3.0789,-4.6288,1.2463,8.2597,-0.026931,
9.1679,2.006,4.8834,8.3662,-3.0172,2.5516,-6.032,-8.811,-4.0558,-1.6849,-2.1817,-1.9618,2.7026,0.21588,
15.6073,4.5368,6.7596,11.4797,4.1533,1.1932,-9.7679,-8.5238,-8.3922,-6.6459,-5.1847,0.80704,-5.8957,-4.8588,
4.066,1.8549,-6.179,0.668,-10.1959,4.978,-2.9149,-8.4938,1.2708,3.8762,-4.3912,4.1331,0.72506,1.6997,
-8.2297,-6.9337,-13.5215,-12.8699,-18.1408,3.7152,1.1162,-9.9128,7.9428,7.4998,-3.1637,-4.3098,8.3941,3.5257,
3.3515,-3.143,-3.5512,-10.169,-2.9523,7.3489,0.085127,-6.9075,5.0563,3.676,-2.0098,-3.5691,6.9268,-0.54198,
10.6222,3.553,3.6518,-1.6056,7.4687,9.0772,-1.6072,-10.5908,2.1014,1.2859,-3.5764,0.74241,0.0032671,-3.6429,
6.8516,3.0987,4.1558,5.9627,-1.4154,7.8094,-3.6797,-12.6062,-1.158,1.4499,-6.0131,0.45712,-2.1663,-3.6656,
7.4044,-1.4256,1.9782,3.6768,5.418,7.3408,0.8794,-5.5834,1.3216,1.8448,-1.314,3.3218,6.1588,1.857,
1.6577,-6.1605,-9.7098,-10.6438,-3.5835,-0.81217,0.34447,-6.2125,1.725,2.6982,2.1395,3.6046,5.7895,2.7097,
4.6915,3.6089,-5.0297,-3.377,1.693,8.1544,-5.2196,-6.5628,-4.4043,7.1159,5.1444,12.3062,1.8265,-3.9606,
8.9891,4.1155,-0.63077,5.7435,15.6914,16.1006,-10.4502,-5.9283,-8.72,-1.2651,-1.672,8.4341,0.029459,-8.7844,
5.076,1.9406,-7.3411,0.57883,5.2292,8.8683,-3.0741,-1.2336,1.4448,0.25734,-2.5358,-3.6404,4.3667,5.8427,
-3.1826,-0.82717,-15.3368,-12.2306,-9.1846,-5.7638,3.6176,-4.2933,6.9015,7.7135,-0.69662,-9.9302,2.8992,6.5767,
5.2036,3.0788,-9.5961,-6.1941,-8.754,-3.1284,2.9186,-2.1071,4.5592,7.7331,-4.0288,-5.9599,3.2076,-2.4946,
11.6396,8.6785,-2.7541,8.2775,-0.99812,4.7719,-6.4158,1.8751,-1.4991,0.038004,-7.6437,3.0746,1.5687,1.0289,
5.8795,1.1683,-7.65,9.8296,-13.7127,-0.093714,-7.7181,-5.2269,0.27805,-1.1696,-3.5697,6.5055,0.26926,5.5469,
13.4807,3.2672,-0.68333,0.80389,1.2101,3.5271,-3.6393,-5.1544,-2.39,1.07,-0.70416,10.6947,-2.3982,-1.7756,
22.554,12.9533,9.7218,3.8889,15.2375,10.3051,-1.734,0.21627,-8.2723,-1.646,-4.7595,12.7043,-5.3876,-3.8384,
18.0673,10.9713,4.0768,3.8965,8.0567,4.1437,-1.8709,-4.376,-1.2681,-1.3058,-5.1968,8.3267,-1.9308,1.4536,
17.9478,5.4925,-3.8804,-2.604,3.2348,-0.44351,-2.2403,-7.9698,4.1104,2.6292,-5.8491,-2.2961,2.0416,1.3666,
20.2449,2.7524,-2.6837,-3.4116,9.7896,-2.3451,0.78614,-2.1892,1.4537,3.9172,-4.5343,-11.3173,1.4367,-4.5005,
12.7637,2.1053,2.78,2.0953,6.7916,-5.5788,1.7028,0.35227,-2.4899,-3.0663,1.0404,-2.4436,0.38666,-4.2304,
10.0695,3.425,5.9874,3.898,2.528,-8.6183,-0.80923,-4.007,0.069373,-3.8464,0.013886,6.3803,1.3276,3.2545,
13.3217,5.1477,1.2898,0.77204,4.3045,-8.1012,1.1675,-7.141,3.9221,3.6152,-3.3614,-0.26945,3.1761,1.131,
9.3894,6.0441,-4.3312,2.4125,3.8052,-7.3742,2.3023,-2.1332,-0.89301,5.5675,-2.9187,-4.8326,6.1186,-1.1065,
7.139,2.0663,-1.9019,6.3653,2.3719,-9.1007,1.9234,-0.79973,-0.59824,2.1002,-0.57424,-0.44503,6.957,4.5038,
12.2541,-0.709,8.5763,10.5629,13.558,-5.9038,-6.146,-11.5978,-4.1775,-5.4979,-2.7087,6.0894,-0.45009,0.61834,
8.3856,-0.42573,12.1589,9.6879,14.9134,-2.8982,-14.2131,-17.4101,-13.3271,-12.1576,-8.572,0.66211,-5.0031,-11.2291,
0.41062,1.7694,-0.86273,2.5992,-0.081377,-4.8935,0.73969,-3.1086,1.5725,1.8282,-1.5497,-7.8133,1.3231,-2.6016,
-1.0605,2.6269,-11.4163,-0.44906,-14.1765,-9.9023,9.9748,3.3442,15.5782,11.3592,2.8814,-9.7548,1.7254,11.534,
3.8236,-2.3512,3.2485,3.434,0.7741,-6.4159,-3.6389,-4.0871,2.11,-3.4223,-6.9327,-2.9028,-4.1624,2.647,
5.2814,-5.3431,11.9712,2.987,14.8276,0.9585,-10.8923,-5.5291,-12.1166,-14.9066,-14.4705,-0.55949,-5.118,-4.9836,
0.38524,4.377,1.371,6.9052,0.6816,0.66002,-0.35732,0.34627,0.30026,-1.2378,-4.2023,0.67892,5.071,7.6075,
-4.6996,0.4994,-6.665,7.2142,-4.421,-8.2976,0.38748,-3.2899,7.2721,4.3801,-0.81664,2.8078,3.5619,7.3924,
0.40314,-5.3151,0.0013757,4.8532,9.9443,-1.5328,-4.456,-2.1282,-1.3594,1.2252,-2.2139,9.3882,-2.4364,0.19998,
-1.5495,-4.0326,-0.9628,-2.6691,5.8527,-0.47675,-3.2246,-1.5188,-0.31372,0.66957,2.7394,5.9322,1.566,2.5983,
-13.5076,-5.2364,-10.0641,-8.7755,-8.5985,-13.9455,0.8253,-1.4277,10.3104,4.0039,6.4314,-0.20832,10.6311,4.8526,
-12.6971,-4.9223,-16.2089,-10.6593,-14.7108,-13.5912,2.704,1.5503,12.1019,7.6195,4.1174,6.0712,12.4033,4.5614,
-6.3919,-1.9756,-12.1029,-8.8144,-0.57149,-5.3037,1.3367,-3.6042,7.2787,4.5115,1.219,0.64544,7.562,1.6364,
-9.6236,-1.1339,1.3975,-2.2598,-13.3114,-9.565,-1.8768,-5.0749,6.1188,1.5895,3.3152,-8.3116,7.8314,-0.14878,
-6.877,-4.1994,2.037,1.0093,-18.5385,-16.4629,4.7433,4.6298,6.957,3.1814,6.7317,-4.1975,6.1562,3.9575,
0.2845,-3.4655,-0.013391,1.9126,-3.3262,-11.1368,11.2076,6.7621,3.1651,-0.38398,1.0252,-4.9095,2.8943,5.1663,
2.6773,0.11667,13.4845,6.6183,10.9734,-4.6838,3.3041,-3.2848,-3.2915,-8.0739,-7.2313,-7.5072,-1.1355,-3.3386,
5.8914,-0.37204,22.7986,6.7034,24.415,-8.2593,1.6598,-7.4263,-5.0225,-8.0712,-4.387,-2.7187,-4.924,-6.5125,
1.6815,-1.796,7.9333,2.4448,28.3732,-16.4404,3.9703,-6.4988,-8.0956,-7.105,-6.5339,-2.0732,-4.1461,-3.7116,
-5.8914,-1.9294,-0.97858,1.575,12.5708,-14.2489,6.8654,-3.4575,-3.5123,-2.0992,-7.8293,-3.6362,6.4667,2.0545,
-4.3326,-3.9828,3.1775,1.2395,8.5626,-9.2966,6.213,-4.4549,2.2421,0.19592,-3.2618,-5.5872,6.3197,0.72635,
2.1938,0.11255,9.7357,7.9136,22.1488,-5.3644,1.9833,-9.0083,-2.2308,-4.1542,-4.0304,-10.0722,1.6017,-3.1736,
-3.4814,0.34676,9.3926,5.7515,19.9763,-6.7298,1.6234,-7.7449,-4.7485,-7.5208,-4.5119,-13.5657,6.0854,-1.7784,
-0.86195,-1.6022,10.2753,0.10426,20.224,-4.8797,2.9722,0.91495,-5.9094,-8.0334,2.0258,-4.5566,6.6841,1.7028,
5.2153,-1.7471,9.8997,1.7852,26.0004,-1.9358,2.5529,1.583,-8.6883,-8.7562,0.69892,2.2247,3.15,-2.9787,
-1.8463,1.7324,4.4853,3.1242,13.3529,-3.7476,2.3995,0.041947,-3.3465,-4.8566,-3.6816,-4.1755,5.8533,-1.8358,
-2.6998,4.0386,6.6263,8.7213,14.9619,-0.63073,1.2917,4.8597,-0.73558,-3.6014,-2.0144,-6.8175,2.1277,2.1307,
2.2826,-0.060315,13.4593,11.0903,26.5979,0.85314,1.2139,-0.73431,-5.03,-4.8313,1.4807,-2.0699,-2.3385,-2.8176,
1.9047,-0.29766,12.8927,4.8813,24.2786,-4.2593,-1.028,-9.1259,-4.0048,0.52024,2.1152,2.1517,1.4172,0.0025152,
-4.4761,-0.2798,7.2989,-2.1605,18.4836,-2.0755,-0.0020404,-6.6504,-0.87249,1.4529,1.5064,0.57629,4.2247,6.7513,
-3.4846,-4.3604,8.5482,-0.34366,25.3283,3.5926,2.6492,-6.4921,-3.9532,-1.2854,-0.75319,0.30075,2.7659,-3.0538,
3.7143,0.96293,12.1327,6.6668,32.2448,3.618,-2.5715,-4.8978,-6.3675,0.96091,-4.8058,5.8263,-0.051138,-7.9323,
-3.7394,0.42277,1.2818,1.4461,16.2101,-6.7224,-5.3092,-4.6039,-0.2009,1.3852,-5.9633,-0.78977,-4.8688,0.73884,
-3.9972,-1.0486,0.72272,-0.56862,2.3425,-1.4981,6.0963,-2.3992,10.8986,0.82037,2.1071,-7.0091,-1.2024,12.2634,
2.9916,-2.9139,5.0177,-0.05257,16.302,6.7865,-1.0179,-6.1117,1.0857,-5.9778,0.052458,-7.0705,-3.5404,1.4047,
2.5709,0.87612,2.0653,-1.2545,13.5162,3.728,-3.6082,-5.0218,0.77933,-0.55764,0.29051,-3.0311,-1.641,-5.6696,
-1.6807,1.5469,-2.6379,-6.7228,0.41313,1.8171,5.044,0.82285,4.348,4.5375,0.99598,-2.6083,1.109,1.6604,
6.3741,-1.1972,9.3307,-1.7399,14.1269,5.8056,0.16231,0.050583,-6.2765,-8.509,0.21355,3.574,-1.1265,-0.60815,
4.5454,0.32087,10.6986,3.6671,7.9762,-3.2198,-6.1144,-3.8093,-6.3823,-8.4808,2.1285,5.7697,-0.095456,-7.8025,
-5.6093,1.9888,-4.0433,-4.9891,-6.6024,-13.8727,3.1705,-0.92919,7.257,4.8025,-0.65033,-6.8685,4.0081,-0.34448,
6.0555,0.18228,-2.7157,-1.0743,6.9299,1.0597,8.0415,4.1882,4.17,-2.9575,-3.7448,-2.3591,3.5266,4.2555,
4.7278,-3.685,7.5702,3.8109,13.263,8.8294,-6.4203,-3.2939,-10.1802,-16.88,-9.7866,4.049,-6.8079,-6.6051,
-5.197,3.7667,-2.5252,-2.2026,-1.6328,-2.7874,3.1238,1.7242,0.19254,-1.7672,-1.4869,5.734,3.7233,1.0222,
-6.8132,-2.2437,-10.0863,-9.301,-4.3066,-4.0666,1.4903,2.5849,-0.30117,6.0516,0.53075,1.0519,4.464,-0.0031979,
1.0672,-2.3503,4.6189,3.0669,8.2436,6.0595,-11.3738,0.74232,-12.0935,-7.5681,-1.1885,4.122,-2.7935,-2.6548,
-5.5043,0.92379,-1.0814,1.1957,-6.351,-2.7402,-3.2196,2.385,-1.4859,-2.0524,-3.2864,-0.22312,4.8459,0.63799,
-11.6815,-0.33647,-13.7909,-8.2756,-20.07,-8.1189,4.4459,3.4472,5.5931,6.025,-4.776,-4.789,14.9195,0.35874,
-5.9194,-1.5216,-2.5991,-1.7535,-4.886,0.80389,2.4919,2.5175,1.6421,1.0837,0.089866,9.5983,10.8908,0.096248,
-5.0821,-3.8406,-1.9615,0.27966,-3.1468,-1.1723,1.3783,2.3662,0.57948,1.9828,2.0124,17.3381,4.9345,2.9828,
-2.3671,-2.6459,-1.8438,1.2272,-1.9941,-1.1024,-3.0432,-1.1502,-1.8654,8.6123,-0.51844,6.1744,7.531,2.3219,
1.1494,-3.4514,11.7642,-0.77462,2.4643,-2.4825,-7.1989,-8.3121,-5.1279,4.7216,-3.3798,-3.3551,5.1509,-4.5664,
-3.7398,-2.762,10.0945,-2.6563,-6.3602,-4.7433,0.46386,1.3462,2.4106,2.0281,-2.2127,6.0057,6.2881,2.4565,
-7.372,-7.8991,-2.5625,0.87727,-13.6916,-1.0844,0.43625,9.4599,2.7481,2.8705,1.7766,11.9117,11.2132,5.6834,
-3.7962,-11.0406,1.6886,3.4762,-6.3626,4.0423,-10.4362,-2.9179,-10.6732,0.046755,-1.9454,2.2789,4.033,-5.0215,
-2.6043,1.1912,6.8901,6.1599,-4.0524,3.7995,-8.364,-2.2606,-11.4788,0.044179,-9.0593,-5.5704,1.3806,-6.6486,
-2.6895,5.2171,2.8613,3.6207,-9.8353,-1.972,-0.87227,6.3107,-1.8725,-5.0202,-8.2752,-10.7798,10.6978,-3.1162,
6.149,1.5296,13.2945,6.296,4.8548,4.8952,-7.0869,-1.7807,-10.4372,-16.2881,-4.4042,-6.7585,10.5379,-7.75,
6.5032,0.23279,15.1481,9.5334,7.5765,7.2528,-8.3487,-10.1098,-11.498,-10.2494,-3.8988,-9.0043,1.9516,-7.5257,
-0.63571,0.70098,0.13923,4.6228,-6.9781,-3.306,2.7573,-1.3085,3.2919,4.4656,-2.7008,-17.1414,5.2087,1.1203,
2.0538,4.2746,-1.9176,5.551,-9.5722,3.4006,2.8331,2.8678,2.2508,-0.50234,-1.3336,-7.1946,11.8863,0.81235,
4.3409,0.16148,2.536,6.182,5.1022,11.8734,-4.0856,-6.4635,-11.9843,-13.0055,-5.1098,-1.9425,4.9064,-7.4313,
4.8036,-0.57134,3.107,4.606,0.096044,4.6533,-2.1535,-3.4244,-1.7445,-3.7892,-5.0444,-8.8156,1.9607,-3.3703,
4.5151,1.8733,7.7411,0.47307,-5.6941,-0.92833,-3.4703,-0.80855,1.7344,-1.6334,-6.6697,-11.1789,4.2534,-1.7215,
5.9312,-1.3724,9.4455,-2.2066,6.9394,10.4553,-5.4315,-4.3752,-10.18,-13.8282,-6.5107,-7.3749,4.2394,-4.2696,
3.1652,-0.32615,-3.1723,-3.0381,4.5953,17.0589,-1.7311,0.22561,-3.3023,-3.8395,1.1108,-1.1479,9.2872,5.1456,
-7.1476,-1.7528,-13.1053,-6.2303,-9.7804,5.912,0.30094,1.1759,9.4289,7.4781,4.4181,1.3311,16.9252,6.7646,
-4.3086,0.76292,-7.9802,-2.0001,-16.7861,0.73699,4.6212,2.5516,8.8632,6.0656,2.7072,4.1438,16.8735,2.0204,
-1.6397,0.71691,-7.9836,-2.3622,-8.0659,1.1749,1.4516,3.8446,0.61883,0.39876,1.0983,1.4848,7.6662,-0.99309,
-5.8797,-0.7719,-9.9147,-4.6306,-5.6538,2.5507,1.8469,4.0963,3.4738,6.6418,6.8174,2.3601,8.1705,1.959,
-7.2141,0.47925,-7.6326,-2.6656,3.1211,8.9051,-4.7718,-0.24684,-2.7602,2.6279,-0.099537,10.1722,7.9213,-0.32768,
-5.5764,-1.7187,-3.5597,-0.33647,3.6567,11.0219,-11.9573,-1.9197,-11.9946,-8.3761,-9.0116,12.6949,-0.025825,-5.3697,
-2.5905,-1.8567,-4.5511,-0.075081,-10.6627,4.3353,0.088543,4.7036,0.053501,0.56241,-0.9989,11.2105,0.69885,0.97825,
-1.9532,0.66525,-5.7243,-2.4812,-14.4817,0.70072,6.3497,6.3496,3.4243,1.4925,1.9531,8.1273,1.1389,6.2217,
-0.14853,-0.097799,-0.31896,-1.6092,-2.7668,3.7919,-2.9495,-1.9853,-6.6633,-7.9968,-0.81541,2.5782,-1.0989,-1.1412,
-1.3447,-2.2613,0.90524,3.0669,1.9788,4.2875,-12.1723,-7.4096,-13.2532,-9.204,-3.8997,-0.2278,-2.2375,-8.0624,
-2.71,0.28471,-2.0414,4.3294,-6.3344,-0.30825,0.12739,3.64,-1.3705,0.025133,-0.29108,3.1605,2.7172,-0.82995,
-5.6807,-0.4555,-5.0521,2.3822,-8.6057,0.43337,-1.5672,8.0012,-1.5295,-5.0378,-3.8893,4.176,-2.9897,-3.9134,
-5.5815,0.29496,-1.6158,7.7826,1.7923,8.8433,-14.7298,2.9411,-9.3917,-7.8693,-1.9689,5.6124,-1.1233,-6.3299,
-5.7283,-1.1688,-4.4111,1.0494,-7.9559,0.59967,-5.6511,0.35475,1.2949,4.6542,6.3442,1.9014,8.5853,-0.64726,
-5.626,2.9983,-6.798,-2.1471,-17.8429,-4.9799,6.4981,3.4665,8.2071,7.026,2.83,1.064,3.9724,0.59641,
-7.9396,3.0598,-0.84649,6.4179,-12.675,1.3449,0.56459,2.0537,-0.72099,-1.3488,-4.8111,1.7235,-1.3272,-2.0905,
-6.4986,-3.3905,9.3279,11.3352,2.1855,6.0847,-12.0025,-5.7821,-14.7777,-11.8729,-8.861,-4.6466,0.68086,-5.8217,
-2.9757,-0.053626,6.1167,8.0036,12.2982,8.3707,-11.5234,-6.1585,-18.8323,-15.7403,-14.3549,-13.7678,-1.5292,-5.2314,
-1.5919,6.4571,-4.6147,5.3542,3.6066,13.8944,1.4601,3.129,-3.6023,-6.3597,-10.8425,-13.6647,-0.23257,-0.33776,
-4.6298,3.4186,0.72389,2.3818,-3.5997,10.4092,-7.5456,0.77169,-4.9532,-7.6659,-7.5409,-13.0862,-2.8697,-5.3792,
-8.4496,2.0084,6.7062,1.0339,-7.4813,4.2413,-11.6719,-5.2999,-7.3068,-7.4466,-6.3653,-12.5418,-3.9026,-7.2258,
-10.1118,7.9134,-3.5785,5.5511,-13.0579,6.6379,3.1284,4.4181,7.2316,6.7385,1.9708,-1.9073,8.6236,7.3077,
-12.3974,2.6181,-10.1125,0.87951,-12.2742,1.9011,9.3277,6.0809,7.4001,3.9243,0.4061,-2.2751,10.0346,6.5078,
-8.5198,-2.1185,2.3046,-3.2704,-5.5125,-2.7925,4.1885,1.137,3.8228,1.5194,-0.82287,-10.574,5.8174,-0.39036,
-8.2503,2.5877,4.8177,2.4692,-8.315,-3.83,2.7322,-1.583,3.8342,6.0073,1.3954,-13.5552,5.7091,-0.60813,
-8.7191,2.4329,2.6004,9.0695,1.8249,3.1482,-8.519,-4.8625,-10.4958,-7.3685,-3.509,-6.4754,-4.7568,-7.3201,
-5.0627,2.0457,7.9878,8.2846,6.7768,9.4671,-7.7671,-0.47312,-13.843,-12.4698,-2.5753,-3.4355,-10.0148,-4.2296,
-10.7845,2.1639,-0.92718,-3.5407,-7.7298,-1.9468,6.7989,6.0632,1.0876,2.3784,1.6765,-13.1113,0.468,8.3163,
-11.3423,-0.13505,-4.487,-7.4256,-21.366,-8.3379,12.0553,2.5659,13.4356,13.6846,2.7812,-14.0119,7.9117,7.5763,
-6.0827,-1.8139,2.7719,-4.3287,-5.984,-0.84799,-2.768,-6.5059,-1.4705,-1.2365,-3.4114,-9.556,1.4113,-5.1705,
-2.584,-0.50005,4.293,-0.45381,-4.058,2.8185,-4.8914,-1.536,-5.6004,-7.7905,-0.55541,-2.9568,-1.3243,-6.0654,
-5.3213,1.4579,-0.78503,0.055584,-11.5275,-3.6173,8.4173,5.7868,8.8356,6.7769,10.5654,0.11286,2.6113,3.9397,
-8.3767,-0.075584,-6.0408,-3.3224,-7.9436,-1.9542,5.9839,4.9574,6.2566,5.7677,11.3775,-1.3399,6.7932,5.6313,
0.80303,-1.0349,0.10623,2.1796,5.5484,8.2864,-2.0879,4.178,-2.3135,-2.2912,7.8023,2.5968,7.8319,2.4014,
-0.69118,-1.9369,1.0639,3.9772,6.6616,7.307,-4.855,4.8914,-6.9952,-4.0817,0.5855,1.4769,-2.2792,0.32888,
-4.7471,6.615,-3.0972,1.5694,-7.8381,6.1457,6.2826,18.698,6.199,10.2632,6.094,-0.78085,4.3655,12.1197,
-9.0422,-0.77157,-9.4191,-7.443,-20.2628,2.6432,5.6644,16.4913,7.514,10.4908,8.3797,-5.7959,8.6826,8.2588,
-6.0889,-3.6176,1.7516,-1.6936,-4.947,5.3774,1.4684,7.7892,1.7608,6.4872,8.359,4.193,5.7517,6.7997,
-7.1698,-2.9186,2.6103,1.3005,-0.43189,2.6442,0.41599,12.1426,-1.2374,4.1697,3.5192,1.0494,2.9965,6.3912,
-7.463,-2.5025,2.2127,3.8736,6.5834,5.619,-3.7063,12.6189,-8.6349,-3.0703,-1.2717,-3.5933,2.0933,-0.017794,
-14.728,-2.8343,10.7566,5.5694,4.7422,-0.98511,-7.3403,-0.1898,-8.1169,-5.2967,-1.6773,-0.96758,-2.3706,-1.9449,
-15.2905,0.71023,11.5575,2.8246,-9.6424,-8.1564,7.0794,1.2678,6.4702,8.5189,7.5823,-4.2835,5.0025,6.3665,
-11.9628,0.66739,-2.1512,-1.201,-18.5843,2.4557,6.1729,4.5665,8.8535,5.5974,4.717,-13.1858,7.1122,2.6103,
-9.3168,4.4837,-1.5402,6.1019,-3.3692,16.4083,0.98182,6.2207,-1.3187,0.44087,5.3979,-3.2356,7.1679,2.9356,
-12.8551,9.2764,1.6853,8.8688,-9.3129,29.5238,-2.2106,8.0166,-0.034239,2.1016,2.9048,4.4303,0.71183,5.411,
-8.9506,17.1557,1.3434,8.0959,-22.8541,34.2606,-4.2469,13.5614,3.5835,5.1093,-1.3666,2.9595,-2.9461,7.7377,
-7.9314,10.3416,0.29872,1.8254,-35.5829,28.8303,-0.61783,6.9629,4.8145,5.7663,-0.80287,3.746,0.60491,5.8269,
-13.963,2.7316,0.52177,-3.3454,-43.3298,20.111,0.62453,-0.44431,3.8027,6.1437,0.93299,6.1728,2.2563,3.7905,
-11.9204,1.3625,0.24949,-2.9037,-27.4741,19.1453,-6.8847,-3.0692,-6.7898,-0.73284,-2.7389,5.561,-3.9051,-2.4629,
-8.0719,0.55758,-2.8987,-1.5244,-19.3175,20.6479,-3.8203,-2.1619,-5.6593,-0.44767,0.55918,9.3249,-2.4657,-1.592,
-12.649,1.7292,-11.1607,-5.5305,-23.7023,12.9013,4.3624,3.5112,7.4545,5.605,6.069,6.1141,4.6719,8.8676,
-9.9619,5.4823,-8.0809,-5.6806,-30.9568,10.681,5.065,6.675,12.3099,9.607,4.741,-3.4118,7.2841,8.336,
-3.8203,7.3223,2.2861,-0.76026,-30.7866,13.1734,-1.2642,6.0337,3.1354,4.4511,-1.0873,-5.8579,0.82172,0.36382,
-0.45786,4.2316,7.2104,1.9367,-14.8394,17.9268,-4.3221,5.4305,-8.3811,-8.5902,-3.1915,-3.3375,-2.3613,-1.8274,
0.29252,2.2905,6.0548,0.13325,-12.6235,16.6098,1.4808,6.31,-3.2985,-4.9413,0.61546,-2.4144,3.8059,2.862,
-2.6171,1.1892,0.3889,-0.35668,-21.9892,7.4185,1.392,5.9314,1.2377,4.5142,0.57899,3.0331,-0.76075,1.7259,
-3.9063,-4.6667,1.3294,0.62859,-16.3313,4.5633,-4.4761,1.7186,-8.9595,-1.5417,-2.8302,9.6,-13.2486,-6.0904,
-3.4312,-6.0742,5.8292,-0.61419,-11.7362,7.4227,-3.0025,2.3387,-8.1812,-4.5825,-2.9016,4.4445,-9.32,-5.4838,
-7.8046,-3.5401,-2.4743,-6.1209,-23.8063,-1.4583,8.9883,3.8856,6.4097,5.5749,2.3342,-5.2221,2.0855,0.38888,
-11.6751,-4.292,-11.4849,-7.6819,-26.2345,-9.084,8.9309,3.6524,10.4842,8.1324,7.0144,-1.5348,2.4418,6.1501,
-3.5028,-3.3116,-0.43146,2.661,-10.5605,1.8253,-5.705,3.6742,-4.2449,-0.3097,1.5318,8.4397,-3.2483,3.6115,
0.323,-2.8717,6.1021,5.635,-2.3345,4.3671,-6.6884,5.1412,-10.1362,-2.942,-5.0678,1.9075,-4.2584,-3.1129,
-2.5884,2.6032,-0.53096,1.4405,2.1443,3.1408,3.3538,12.0636,1.5592,0.60899,1.0213,0.3468,-0.62849,0.93072,
-4.6027,4.6162,-2.1859,0.14881,15.272,10.4241,-5.2831,9.6526,-8.4163,-2.561,3.1292,13.5828,-4.2062,4.0079,
-5.7726,-1.9275,0.35518,-1.3066,9.5348,10.7628,-13.6434,1.8423,-16.1067,-6.7459,-5.2535,13.7315,-11.1844,-1.535,
-4.9443,0.11632,-0.63,3.1106,2.2142,8.6712,-6.5578,0.76794,-6.9452,-6.8231,-7.8308,1.8208,-9.549,-1.9248,
-0.068148,8.0633,-3.7255,5.0933,-2.4981,8.8736,6.1279,5.7833,7.5716,2.0222,2.0393,0.50607,4.762,8.5548,
2.3463,6.133,-4.4665,2.8593,-9.0969,4.485,5.76,5.9185,8.2018,6.7213,0.95283,0.47594,7.8505,4.1849,
1.0002,6.0065,-2.0289,6.3032,2.7771,6.3851,9.0298,7.7325,5.5406,6.0771,-3.2017,-0.27598,8.1028,1.7646,
-4.8441,0.8256,0.020819,0.14016,16.7105,4.556,3.6676,3.412,-0.57667,-4.4107,-3.0098,-5.0799,5.6882,1.1766,
-3.5896,-4.5266,9.661,-5.6528,17.9975,-2.4663,-10.6525,-2.5769,-12.5932,-14.2689,-5.2394,-10.0773,-3.3297,-8.0526,
0.96408,0.56527,11.491,-0.49295,3.9022,-1.8364,-2.1799,3.8442,-2.6785,-3.2899,-0.58667,-6.0987,4.1009,-0.821,
-4.8781,-0.91468,0.19694,0.018793,2.222,-2.6903,8.556,1.6852,5.6771,4.1381,2.8232,-1.8761,10.1216,4.0487,
-1.6931,-0.86003,0.18489,0.9813,11.7295,-0.60092,4.668,1.1019,5.3362,3.8896,6.51,-0.31753,8.5498,1.8774,
2.0241,1.8434,0.415,0.19976,4.5184,-3.2157,3.6652,1.277,5.2573,3.4155,5.8782,-3.9137,5.3859,-2.8143,
1.1791,6.7942,-0.33303,2.8391,-1.7784,-6.156,6.5786,0.95916,6.6288,6.3438,4.3204,-0.54559,7.7136,2.416,
-3.2298,3.4943,1.6149,0.74032,4.1131,-5.3045,-1.0468,0.41991,3.3388,1.6251,4.0614,0.93317,5.3228,1.7889,
-0.86683,-1.7771,3.2052,1.4193,11.3381,-0.40696,-7.9738,-0.32818,-4.8153,-10.283,2.6124,-1.7739,-0.54015,-5.7903,
6.1748,0.49894,-2.0485,4.9493,6.5602,5.6432,-1.9516,2.3428,-3.3213,-4.1222,3.6612,3.394,6.9643,-2.3096,
0.98385,-5.3158,-12.0487,-4.0245,-7.9334,-0.9621,2.0217,-0.69049,4.1091,7.2122,4.4052,2.2262,6.0643,-1.6888,
-4.6188,-3.3096,-11.0848,-10.7729,-14.8087,-8.8581,2.1414,1.5206,7.4779,6.5385,6.3105,-1.5228,2.085,-1.3465,
-2.8954,2.6735,-5.1171,-8.1984,-6.6893,-6.8808,4.9049,6.7315,9.9213,4.6999,9.7878,-0.46752,12.0828,0.66244,
-4.4089,-4.9587,-13.2462,-9.8756,-13.2779,-11.5292,4.3697,-0.66225,7.1569,6.5871,5.1032,-3.0906,12.0807,-2.0289,
-2.2162,-3.6968,-8.5946,-5.4267,-8.1424,-11.3194,1.6974,-0.14012,2.8711,5.7099,1.9049,2.3975,2.6792,1.9497,
0.80908,-0.10081,3.0081,-6.0652,3.9151,-5.3378,-3.7069,0.83238,-4.0499,-1.8633,-0.1378,8.0385,-5.1945,-2.0239,
3.1709,2.7975,5.2379,-8.1116,0.78788,-1.1614,-2.0385,-0.66405,-0.91503,0.65839,0.35264,5.6277,-2.4725,-2.3846,
2.0168,3.1116,1.5492,-5.2144,-7.9363,-5.43,5.7971,1.3044,5.4068,5.4396,1.2958,-0.01211,4.9067,3.0616,
-0.27385,-1.6544,-4.0873,-3.6967,-4.8088,-9.684,7.136,4.3592,4.3595,0.53394,-0.46917,1.1935,13.048,1.1902,
0.22497,-0.10885,-6.7342,-0.58234,5.1207,-3.8003,-1.0049,4.5796,-5.543,-5.7651,-2.8516,6.9064,10.3374,-3.7015,
-1.235,-1.5488,-2.9559,1.3806,1.9212,-0.19803,-7.6933,4.787,-10.5133,-3.9731,-4.1265,3.5997,2.968,-3.4796,
-2.3658,-3.1431,-3.9838,0.57483,-7.5941,0.055273,-4.5801,15.346,-0.4825,4.2194,-3.638,-0.71359,8.334,3.2371,
4.5246,-3.4365,-4.2267,-0.42398,2.0201,3.426,-1.4133,9.1226,1.9566,-0.3725,-5.8298,-0.18884,5.9053,-0.33158,
11.7252,-1.5433,6.8729,3.2171,15.9989,5.8722,-6.8719,-5.5247,-10.4531,-13.6063,-9.5776,-2.8288,-2.8849,-11.1577,
9.5754,5.2982,7.9068,4.4699,11.7855,3.1093,-5.0137,-3.3856,-4.5233,-3.6309,-3.2184,-8.9256,5.0009,-3.7398,
-3.5326,-3.6968,-6.6676,-9.8983,-3.0216,-11.1773,2.036,5.9766,9.8481,6.7099,-3.5072,-19.9595,8.0753,2.2692,
0.29502,-3.7157,-13.137,-4.6042,-8.7454,-12.0734,7.4572,4.8949,11.7883,6.5485,-4.0199,-11.2901,5.9038,1.8923,
2.2053,-1.0824,1.7513,1.9388,5.8793,-3.1541,-6.9697,-6.9682,-3.019,-3.0037,-6.1891,0.9567,-4.0916,-6.4162,
-3.2295,0.42858,4.418,-2.998,7.334,1.8557,-7.5157,-5.586,-3.1995,-0.41313,-3.8893,2.8273,-1.4358,-0.24688,
-2.3128,4.9826,1.9838,4.6537,10.9918,9.6985,1.3714,3.1853,1.5722,4.6733,-5.8251,3.8629,3.2301,5.7939,
-5.0663,2.7552,14.8804,14.9795,15.1528,7.6701,-4.9776,-2.7906,-10.5739,-1.8738,-7.886,2.667,-3.2304,-5.1592,
-8.1366,5.9641,18.808,14.5629,9.4231,0.46124,0.62347,0.26909,-2.2265,2.0952,4.1566,5.8812,4.676,2.8633,
-14.638,1.0268,3.5796,-0.049407,1.8676,-7.5199,0.82725,1.9404,5.8611,1.7283,1.2559,3.3594,8.011,4.379,
-11.1086,-1.204,1.0747,-2.698,8.7455,-9.2384,1.0186,-0.82758,6.2323,4.7581,-0.9891,1.9526,2.4687,-2.3917,
-5.3807,0.55525,1.2514,-0.84866,12.8002,-9.8891,4.5731,-1.983,1.7612,6.6416,3.6502,-3.708,-0.33074,-2.007,
-5.5395,-0.9241,-5.5724,-2.2438,6.2479,-8.8136,12.0113,0.54635,5.9937,4.3151,5.3592,-4.4496,8.366,2.452,
-5.6891,-1.3506,0.54656,1.2653,3.9448,-7.3205,7.4342,1.9598,5.6345,4.0562,3.5918,1.12,8.3464,-0.10572,
-0.28652,0.41767,7.9856,5.7687,8.2874,-7.6046,-0.0017127,1.6013,-2.6578,1.6437,2.653,0.81142,-3.0006,-4.6787,
1.4179,-2.2585,1.9628,1.8071,13.8157,-3.5329,-1.6884,-1.6283,-8.5239,-6.8911,-1.1216,-8.1549,-7.3999,-11.3878,
-1.3185,0.52789,2.5682,3.8681,19.9764,3.1868,-4.2384,-6.592,-10.1818,-6.7184,-4.6695,1.7342,-1.8944,-9.4995,
-6.3008,-0.22691,1.691,0.98469,4.6778,-11.1044,-1.3332,-7.4016,-1.135,3.0845,-2.2204,10.548,-0.57617,-0.97555,
-1.8254,-2.8644,2.7948,-0.27968,-9.7028,-17.0661,2.8446,1.9606,5.923,5.0686,6.8309,7.264,-1.7464,0.77021,
-1.234,-2.2106,6.0011,4.5573,4.9793,-1.9422,-6.9675,2.8068,-6.002,-3.9126,4.4928,3.9356,-5.498,-8.435,
-7.6676,-0.87289,0.57959,0.18678,7.9343,1.6688,-1.4876,0.46901,-2.9901,3.3122,3.0182,2.9764,0.85762,-6.2419,
-8.1719,-0.82052,-2.8296,-5.1271,-2.1827,-6.1441,5.3501,0.9228,3.9377,7.9338,5.2472,2.3159,8.0365,1.3634,
-3.1016,-2.4583,0.47385,-0.72186,8.7947,0.7323,-5.335,1.1086,-6.6626,-3.3883,-0.12907,1.9357,-0.39916,-1.8516,
-2.6746,-0.62356,-3.17,1.4906,12.3644,7.6782,-4.292,4.6575,-4.5756,-0.051507,-3.2548,3.0249,-5.4369,-2.4639,
-5.4066,-1.0681,-10.6926,-3.9015,-0.42901,-2.9054,4.6426,-0.44217,6.7861,10.5564,-1.6133,0.91518,1.1558,-1.3517,
0.70237,-6.3066,-3.7845,-5.1136,1.5254,-13.3363,4.8465,-1.8619,6.379,8.4772,1.858,0.86026,6.3891,-3.1988,
4.7576,-8.5798,5.3606,-5.0478,7.9413,-11.8133,-6.773,4.7573,-7.2602,-3.3601,-4.2795,2.4959,-2.4299,-6.1404,
2.303,-3.9677,1.9055,-5.4678,8.1878,-3.6327,-4.1974,9.5335,-2.7272,-0.024965,-4.2637,-0.78736,-3.4894,-3.6028,
-0.24534,-2.7653,-5.9216,-2.7296,11.0709,-0.52217,1.8395,3.6589,2.7391,3.8329,1.7772,-9.4168,-0.8699,-3.8686,
5.7952,0.051969,-0.98678,4.4238,19.8065,8.9089,-0.92223,1.27,-3.933,-2.9048,-0.016919,-7.1648,-2.5047,-4.8415,
4.9651,-1.3974,0.036291,0.78391,9.4595,6.9281,-1.3493,2.1581,-2.2507,-5.6225,-6.2824,-6.2529,-3.3187,-5.5149,
6.1134,-0.83163,3.8905,2.1831,11.3021,3.6204,-4.6423,2.0286,-4.5263,-6.7314,-5.9055,-5.3958,-5.5297,-7.1122,
7.916,1.3877,3.8983,4.7035,19.5418,7.5003,-10.8715,1.1838,-17.5109,-15.2454,-3.8641,-3.3846,-11.2237,-8.8549,
-0.27196,-0.14163,-10.3151,-3.7737,4.2693,6.0866,-2.5067,5.9332,-4.8908,-5.6538,1.1882,1.6389,-1.873,-1.093,
-6.0402,-5.4358,-18.8548,-11.742,-10.0869,-1.0275,4.3926,7.9878,9.5026,8.7854,4.9733,4.9151,5.9522,5.2396,
2.0352,-8.0019,-10.011,-7.6632,4.6183,-1.448,2.6831,6.544,5.4375,3.3171,4.6751,3.6561,3.1847,2.0329,
3.6003,-5.3526,-2.4204,-3.588,14.8258,-0.63775,-0.12948,5.4284,-3.8068,-5.3176,0.77919,1.7495,-2.0681,-4.115,
-0.47233,-3.1035,-0.34726,-2.8906,-0.16375,-6.8662,-0.60387,3.1743,-0.20416,5.1246,5.0705,5.0187,-2.9081,-2.4217,
5.8228,-4.3633,0.15574,-1.2711,3.3412,-7.9007,0.87885,-1.3547,-0.19168,1.4424,5.2485,5.1998,-0.32325,-1.7947,
8.8478,-1.209,0.1464,-3.123,17.2408,-0.19586,3.7182,2.101,-3.5546,-5.875,-0.36864,1.9953,0.66001,-2.1689,
1.3271,-4.27,1.8248,-5.5872,17.7728,-2.8352,4.218,3.6622,0.756,2.4313,1.8222,2.1165,-0.58442,-3.726,
-0.68072,-6.4244,-0.2133,-0.91319,5.1368,-6.5219,-0.85535,1.9962,1.1926,3.7317,6.0516,5.364,0.89644,-3.9844,
-2.5681,-4.1102,-8.3952,-1.3408,8.2031,-5.6482,-3.6965,2.3584,-6.1098,-2.7587,5.6885,3.1139,-2.0494,0.11108,
-1.9318,-3.3815,-3.5529,-0.29578,11.0856,-3.3809,0.8638,-1.1569,-2.3685,0.78146,4.8651,2.9273,-2.8905,2.9967,
-0.12892,-3.9017,0.75781,2.8552,6.8053,-3.4193,2.0175,-4.7031,4.7632,1.9396,2.4042,6.8493,1.3805,0.16558,
-2.5313,-6.0782,-6.0366,-2.6187,3.9864,-3.2141,2.8603,-1.0465,3.5131,-0.58733,5.634,8.8484,2.7435,0.63758,
-4.7896,-5.2311,-9.0484,-7.7643,3.2652,-2.5393,4.135,4.3189,1.3746,3.3043,9.1528,6.8713,-2.7233,6.3844,
-1.8511,-4.6763,-3.4442,-2.2367,5.7204,-3.1099,2.1996,1.4083,-0.87752,3.347,4.5058,5.7356,-5.6934,6.7242,
-1.74,-3.9138,3.9933,3.2001,8.7517,-1.477,2.5496,-0.60443,1.1033,-0.7102,3.2716,12.6223,-4.8699,2.4644,
-11.0356,-2.9556,3.5127,-1.0892,7.9856,-2.1117,-0.25449,1.601,4.1706,2.9478,3.7982,13.0703,-7.2288,1.5936,
-13.2658,-6.6349,0.89157,-8.255,6.0604,-6.3231,-0.23945,2.9514,6.8127,5.1813,3.0881,3.1273,-11.1336,3.9079,
-0.90067,-3.8266,7.1046,0.43551,10.517,-3.5336,4.5956,1.3281,4.9576,-0.43221,2.9028,7.278,-16.7321,5.6016,
1.5637,0.74151,9.0887,4.2655,7.4761,1.0169,3.8377,0.76623,1.286,1.0402,0.80071,15.0362,-18.1385,7.6759,
-7.6889,-5.0873,5.1691,-9.0056,0.76082,-3.8646,-0.73062,-1.2077,2.1729,4.352,2.1987,4.4933,-12.7117,3.3592,
-0.23792,-0.20304,12.813,-1.4756,14.8152,3.8389,-2.8562,-4.269,-4.4652,-5.3093,4.7181,-1.8025,-14.1184,-0.93998,
1.2226,2.7017,11.0798,5.8438,20.7956,9.8751,-4.1311,-6.423,-7.5713,-9.811,-4.2416,-4.5864,-24.3585,-2.8118,
-3.6715,1.5752,5.1124,-1.7377,5.4479,3.0161,4.7934,6.9778,6.983,4.8776,0.83312,-4.7932,-14.7023,1.6953,
-5.3794,2.9274,5.2881,-5.9718,-7.7741,-3.9134,3.542,6.5592,4.0332,7.3568,-0.18073,-5.4695,-10.9276,0.62967,
-0.95925,6.8492,10.0325,3.7866,6.7923,7.1673,1.6422,-3.7163,-6.5731,-7.1846,-7.1598,-2.0083,-18.7076,-3.0235,
-0.90169,4.9919,3.6455,0.1849,9.8795,11.0755,4.9181,-0.11888,-3.2867,-6.3923,-5.7663,-0.9239,-20.4777,-3.8064,
-3.2579,2.2821,0.53445,-6.5749,-1.8003,-3.5681,5.5871,1.8162,1.2491,5.5606,2.7746,-0.3863,-20.2131,-4.5422,
-5.2316,1.9042,8.4561,1.2914,12.4077,-4.0773,0.67218,-8.6566,-6.2977,-2.2448,2.8491,4.2166,-23.0977,-3.0643,
-5.3999,3.7179,8.9129,5.552,12.2657,5.8085,0.15014,-0.42468,-5.4377,-5.4844,0.75019,8.7841,-19.7839,2.9039,
-5.5576,1.5669,-1.2627,-5.8681,-2.5703,-3.6993,5.9255,8.2777,8.3862,3.5216,2.6331,1.5084,-16.1865,1.7655,
-3.7781,1.4726,-0.70519,-5.9982,-16.2751,-8.2978,5.5702,0.068468,11.7392,6.6845,1.993,1.8996,-19.0719,0.21359,
1.7512,1.3843,5.1217,5.449,-4.2113,1.3591,3.3073,-0.41803,4.2859,2.427,1.3915,12.3909,-15.517,2.129,
2.1281,-2.5552,-0.0058562,4.6401,-8.297,1.2776,2.145,3.4639,-0.79149,0.35322,-2.0665,5.3809,-13.1397,-2.819,
2.2414,0.73161,-1.6927,8.4595,-8.5221,-1.4502,-2.081,5.4252,-0.50258,1.0554,-6.5218,-1.9318,-13.5566,0.4836,
-0.30325,0.68771,1.7833,13.2541,-13.3134,-4.7376,0.93634,7.0279,6.276,3.8841,-0.82781,6.8612,-10.815,7.203,
-3.6597,-3.6921,3.1223,6.6741,-16.3712,-7.3457,5.2183,0.33948,4.453,3.6513,6.9344,13.1982,-11.6122,3.8786,
-1.0298,-4.4347,-0.43924,2.8994,-5.2658,0.32569,4.9054,-1.6093,-0.1523,-1.3883,5.0723,6.1396,-11.3976,1.7174,
-5.0654,-6.8197,-11.7411,1.0382,-19.0498,7.778,3.4058,5.9591,6.3643,2.7924,3.5631,1.1919,-8.0622,4.7479,
-12.9564,-7.3746,-11.0368,0.4942,-32.0069,10.2036,-1.1367,2.2273,4.5364,7.9273,3.831,-0.32609,-8.0606,5.909,
-7.84,-3.0755,2.641,5.767,-33.9424,17.3044,0.8595,1.1296,0.40809,6.488,2.1552,-0.78823,-6.131,7.9648,
-4.9595,-0.48085,3.4469,5.4209,-17.8058,17.2304,2.7361,12.6309,1.3475,4.1701,-0.86621,-0.259,-4.7988,9.4151,
-8.0366,-1.8985,-0.13462,2.6853,-23.6073,12.34,0.64353,12.3552,4.1589,6.8121,-0.81447,-0.72562,-6.9217,6.9218,
-3.939,-2.5075,4.4532,5.6577,-18.5755,10.8767,-1.0818,1.732,3.1865,3.7523,-1.0066,-5.2618,-2.4086,2.8915,
-0.8101,1.9813,8.0424,11.5848,-6.3737,10.706,-1.4993,3.5563,1.549,1.599,-1.4281,-3.4999,4.4844,3.2,
-7.2692,-3.199,2.4979,7.7564,-9.1245,8.8586,-2.1325,3.1017,1.6968,4.1544,-1.1017,4.6641,0.11822,4.213,
-4.9051,-5.8994,-1.0262,7.2908,-8.5773,11.2189,-0.076128,2.9154,1.5952,6.7969,1.3748,6.7942,-0.37104,10.2265,
0.20993,-1.689,-4.821,9.2639,-3.7239,16.3308,3.7848,9.0074,2.9458,8.7997,3.2205,1.5667,3.5076,13.9517,
-7.5157,-11.2289,-12.2447,-2.3794,-8.8033,10.53,2.1112,-0.21035,4.2151,3.4512,2.0632,-5.7588,-2.4877,5.4016,
-5.8594,-14.6525,-6.4484,-4.8877,-2.7311,5.3194,2.7079,-3.8127,7.0957,3.4851,3.6266,-5.1719,-1.1331,1.9445,
-3.3387,-12.0861,-8.2306,-3.8715,-1.3624,-2.954,4.7146,-1.4148,6.4289,8.8196,1.7218,-8.477,1.104,3.5151,
-4.3432,-11.6019,-10.8698,-3.3978,-0.075327,-1.5714,4.1908,-2.5347,6.2842,5.6394,1.3775,-1.9428,-3.0596,7.4015,
3.1478,-6.0856,-1.059,2.1082,14.0292,12.5021,1.5292,-0.93684,2.5327,-2.4122,6.5975,12.2738,-2.876,7.4394,
1.0307,-8.6125,-5.3338,-4.7667,2.9438,4.5212,2.4013,0.083701,-0.029413,0.62503,7.6479,-0.15208,-0.77523,1.6903,
-4.0928,-10.2649,-10.5574,-11.4706,-11.3328,-4.6682,6.837,2.7298,5.9979,12.8796,4.5375,-11.9535,1.4404,5.2043,
3.8657,-9.1673,-2.6933,-5.4799,-11.2557,-0.049532,1.6063,1.6019,5.6378,8.7326,0.891,-4.0057,-0.09201,4.8923,
8.9362,-9.099,-2.5315,-1.2945,-2.8674,-4.3851,-3.793,1.506,-0.48482,0.013698,-2.5371,-1.837,-6.3532,1.7065,
6.9542,-7.5892,-5.7541,-0.25297,-0.76713,-7.9784,-0.67288,4.7896,-4.3121,-0.95099,-0.45672,-2.6906,-8.3822,3.0499,
6.5365,-6.1695,-2.9987,3.6186,6.5097,3.5875,-1.1144,1.1278,-8.3922,-5.2327,0.53501,4.2193,-8.8436,3.8312,
7.8316,-2.6663,-7.8805,0.75039,6.3601,11.8084,-3.6991,4.1936,-5.7195,-2.2672,-4.0764,13.3661,-9.0358,7.6987,
4.9515,-4.4345,-15.1204,-9.8999,-3.1805,5.7973,3.2717,6.8345,3.7827,7.0279,-2.386,9.1897,-3.6734,11.0932,
3.6904,-6.5788,-12.2848,-7.3775,1.3489,3.0391,5.4853,3.5317,2.1097,4.1958,1.6138,-0.52048,-1.5246,7.0534,
6.3615,-1.8453,0.021483,0.29598,10.9089,7.6774,-4.9667,4.7661,-9.1041,-4.733,-3.7857,0.95701,-6.7358,2.2918,
4.0513,1.1577,4.8407,-4.0603,2.0599,3.8426,0.63418,11.2292,0.60142,1.8182,0.29807,3.7919,-0.54683,4.5647,
-6.3149,-8.0705,-9.5498,-13.9398,-5.2948,-10.488,7.8267,0.91429,3.9396,4.6009,3.1725,-8.005,1.4144,3.8086,
-4.7307,-9.7559,-12.4717,-6.596,8.7612,-10.9435,4.2237,-5.1661,-2.8048,0.22751,4.6694,-2.463,-0.35814,4.303,
-2.2775,-8.9294,2.3766,-4.5128,-4.5387,-8.1175,2.7652,-0.75857,2.9074,-0.50927,5.1123,0.33606,0.38693,3.8041,
-2.3822,-5.7421,1.1496,-6.8935,-18.3663,-12.2102,8.1429,2.42,10.2047,0.24464,3.6003,-9.5665,3.9787,6.7089,
4.7506,-2.2645,-3.0167,-1.9002,-3.1644,-6.4159,6.449,2.5157,-0.28948,-4.3498,0.25078,-4.8947,3.499,7.0292,
9.0451,-2.3694,-0.66676,-0.58111,8.8359,1.4406,-0.92758,1.6417,-6.2979,-3.3657,-0.96933,-0.50389,-0.80853,3.4742,
12.5997,2.3521,-0.86772,2.5872,5.1722,5.9339,-1.5948,2.7485,0.58747,-1.4765,1.258,-6.4992,-0.51859,3.9891,
23.8953,7.9955,8.3434,12.5549,18.9619,11.3625,-10.6582,-1.2728,-13.5478,-15.4879,-8.9404,-8.0374,-12.0566,-4.9273,
21.2563,8.7211,8.5657,8.1862,31.9242,8.5116,-14.598,-0.47356,-22.9785,-20.9459,-15.8758,-12.1345,-19.2874,-7.2828,
