"AF3","AF4","F3","F4","F7","F8","FC5","FC6","O1","O2","P7","P8","T7","T8",
-12.7745,-4.5793,-0.7229,7.9537,-8.4357,8.4361,0.72336,7.4718,-0.24097,5.5436,-4.0974,0.24097,5.0617,-0.24097,
-12.9719,-6.7151,1.2487,-0.23626,-6.4837,5.5194,4.5359,4.6134,-1.6728,0.87268,-0.47706,-0.25542,1.8655,-1.6728,
-9.5424,-6.0712,2.3786,-0.46305,-8.7458,4.4653,3.5408,13.2542,-0.8495,-0.86691,0.27446,-0.96346,5.8509,0.59676,
-8.488,-3.2964,-1.1381,7.2775,-6.2929,6.1256,-1.0099,14.8695,-3.2087,0.14897,-3.1165,0.54061,6.9461,1.5253,
-8.7014,-3.3398,-1.311,11.9028,-2.2996,8.4094,0.73766,8.4335,-4.7031,0.38123,-5.0984,0.74937,1.4679,-0.73563,
-6.9744,-1.9341,2.865,13.8397,-5.7775,6.6995,2.3806,6.7222,-2.7337,1.5632,-3.1057,-0.50089,-0.78936,-1.4144,
-10.1712,-3.0231,1.97,5.5373,-13.8668,-1.6564,-0.41354,5.1138,-1.3646,1.7106,0.69627,-2.1578,0.46307,-2.0527,
-11.2486,-3.0832,0.64646,-0.33857,-8.4555,-3.2443,1.7804,4.566,-0.55986,0.8846,-0.06887,0.1408,2.6044,0.23966,
-11.5371,-3.3797,-0.35619,5.4668,-4.5733,0.32531,2.6379,3.3282,-1.9721,-2.0601,-5.8489,0.61474,2.4482,0.22528,
-9.64,-4.8646,-0.093856,8.2718,-5.5042,-0.41757,2.2387,4.8157,-0.16697,0.23223,-5.257,-0.1455,0.13213,-2.4393,
-5.9281,-0.47487,1.1171,2.7138,-0.11222,1.7766,2.3453,6.214,-0.39792,1.9055,-0.84419,1.5505,-5.9013,-2.052,
-5.3317,-1.1695,-0.63741,1.3459,3.5097,4.8033,2.9277,3.1898,-1.5791,-0.37774,0.41153,2.1806,-5.7885,3.6145,
-3.8067,-7.6071,-0.35797,1.5064,1.6121,1.8638,1.0646,1.311,-1.7256,-0.11434,-0.3363,-0.11966,-3.7542,3.6388,
4.1347,0.079983,2.5558,2.862,1.5152,4.1623,-0.92722,7.4991,-1.1399,3.7491,-0.31635,-0.59465,-8.8313,1.974,
0.9943,4.4137,4.3309,4.1363,1.4245,4.8767,-0.38942,6.085,-0.58931,-0.81436,-0.29714,-2.005,-10.7118,-0.072395,
-3.1629,0.53326,10.0963,10.8782,3.5079,3.8609,3.2491,4.9968,1.133,-1.9706,0.44382,0.28469,-3.079,1.6189,
-5.1423,-3.5961,7.3214,7.0921,-4.1743,-1.9143,-0.079299,2.0459,0.8241,0.31683,-2.2339,-0.45575,-4.0995,0.31698,
-10.3776,-3.1396,-0.58992,-1.7694,-12.3598,-7.8252,-1.7615,-4.5846,3.9079,2.9491,-0.41287,1.2586,-4.0948,0.05676,
-10.2369,0.90563,-1.5184,0.26499,-6.3155,-4.4632,-2.6202,-1.4174,3.6734,2.2903,1.5401,3.1117,-1.439,2.4635,
1.4645,5.1896,6.7674,7.4795,1.7762,1.1072,0.91149,4.4522,0.56097,-0.73967,-0.9629,-0.44943,-3.2808,-1.5407,
7.6434,4.878,7.3255,9.9235,-1.7046,0.076695,0.85657,-3.0455,-3.3293,-0.21313,-5.7256,-5.7253,-11.2789,-5.7868,
2.6053,0.48821,1.3426,8.6049,-1.8431,-0.1691,-0.88182,-3.1036,0.0041672,3.4148,-6.1047,1.6083,-9.8786,-0.3777,
-2.8537,-4.8437,-5.0045,0.37585,-0.76864,-1.6048,-1.3108,0.45666,0.96778,3.6924,-1.4001,6.8144,-5.4295,0.60883,
0.93319,-5.2762,-4.4635,-1.8161,-0.48133,-2.2316,-0.991,-0.77581,-0.77728,3.2296,4.7096,2.308,-5.8268,-0.15083,
6.1798,-3.9953,-2.2675,-1.7071,0.51142,-0.6519,-1.4139,0.23507,4.5715,2.5539,6.3553,-0.24062,-5.4772,-0.14178,
6.0498,2.2697,-2.3722,-4.738,4.0959,1.0747,-2.5342,2.8718,3.0922,2.6414,1.8764,1.4608,-1.5334,0.10792,
4.2408,4.0619,-2.2301,-3.0076,4.3323,0.52802,-1.8999,0.28962,-4.8059,2.9651,-2.5748,2.8192,-2.8874,0.58361,
-0.35199,-5.8227,-2.0963,0.06533,-3.1584,0.97828,0.62418,-2.6203,-2.1074,5.1973,-1.9383,2.1681,-5.1248,0.54859,
-7.321,-7.6428,-3.1756,-0.17979,-5.6203,1.1608,-1.1003,1.1521,1.1523,2.7161,1.7936,5.6532,-2.6479,0.75641,
-9.5328,-1.6401,-8.5286,1.5182,0.74296,-2.5243,-0.79329,3.2526,0.84219,0.86635,5.3014,5.5554,-0.80133,1.4344,
-1.9712,1.5911,-9.222,3.1141,5.2779,-0.68584,0.45937,2.3343,-0.89534,-1.355,1.3677,-1.768,-1.9588,0.62519,
7.0651,1.7366,0.73133,2.2044,3.2735,1.0425,3.5648,4.8454,-1.565,-3.4429,0.080319,4.3636,0.32791,2.7568,
6.8822,-3.9112,2.3747,0.38489,-0.055901,-5.0456,2.628,0.45729,-2.194,-1.5491,-1.6113,7.7172,-3.3072,0.90421,
5.5054,-1.7479,0.78593,5.6644,4.2858,-1.8503,-1.868,-3.9085,-2.5443,2.4002,-4.4071,1.4696,-6.4832,-0.11391,
6.8621,2.936,-0.46628,5.0834,2.8236,0.42964,-1.0327,-5.3614,-0.70462,2.015,-1.4914,-5.1263,-1.9966,1.0975,
5.2451,0.59071,-5.0176,-1.7291,-0.47888,-0.80097,-1.2117,-4.3164,-0.42138,1.6532,3.1779,0.72493,-3.5641,-0.17316,
5.4125,-0.40883,-3.7524,-1.6256,3.406,3.1032,-4.9957,-1.1651,0.086069,4.9282,2.505,6.4662,-5.2782,5.622,
5.3285,-3.5176,0.087895,-5.1432,1.9966,-2.1444,-1.5627,-3.2646,2.2498,4.3913,0.66727,-0.42944,-0.38243,5.5255,
4.5273,-2.3422,0.082621,-7.2448,3.805,-1.5333,2.8699,-4.5145,0.18711,2.2001,2.5559,-3.2957,1.0872,-0.59019,
3.0502,-0.51465,-0.64547,-4.1588,11.0483,6.0302,1.0102,-6.413,-2.4754,-2.5114,2.1613,-2.8573,-2.1117,0.16789,
3.5903,-2.1708,-0.84793,0.18789,9.6622,1.0889,1.1908,-3.8593,-1.1218,-3.0839,0.3442,-1.9627,-0.77995,3.2911,
4.8211,-1.0762,-4.1711,-0.78725,6.1904,-2.3509,-0.80883,-0.73524,0.39172,-0.48825,-3.5324,0.56566,-4.1071,1.1659,
4.5319,1.398,-5.8494,-4.5969,8.7111,5.021,-3.6528,-2.6193,0.36776,-2.8695,-1.3927,0.53126,-8.1995,-0.83273,
1.8496,3.7245,-2.1238,0.49989,1.9221,1.3451,-2.4696,-5.8364,0.82786,0.19492,3.9937,0.98155,-4.3333,0.66326,
-0.67175,2.055,1.3779,4.808,-8.3163,-3.5561,-0.87489,-6.9327,2.7066,5.4856,1.8257,0.92243,-1.6629,-0.34063,
2.502,-0.23745,0.57229,-0.54171,-1.7918,5.5753,-2.9916,-3.3832,1.3389,0.095284,-1.8993,-1.784,-3.2504,-1.0431,
5.003,1.464,-3.5594,-5.5709,10.6078,9.8201,-1.6072,-1.0111,0.53568,-1.5977,-2.0263,-3.8461,-0.40382,2.153,
-4.4557,-2.4802,-7.6842,-7.1648,0.81273,-1.374,-0.064539,-3.3605,4.3599,4.2828,1.9521,-0.72285,4.4411,1.0599,
-9.9732,-1.8497,-8.1877,-4.8065,-8.8772,-3.7019,-3.4353,0.21531,5.0624,1.6155,6.1731,0.76656,3.692,0.99611,
-1.903,1.3948,-7.4554,-4.7591,-3.7653,2.5458,-3.4697,1.4077,0.17894,-2.5788,5.0798,-1.4486,-1.1088,0.21298,
4.237,-2.3041,-3.3925,-4.7147,2.9688,3.1162,0.35364,-2.292,0.4094,1.6735,-1.2507,2.2535,-2.7292,-0.52247,
4.7059,-4.3352,0.90867,-4.6731,4.4776,0.27787,0.091224,-2.3956,-0.3383,2.2958,-3.827,3.3234,-2.3248,1.1959,
4.1823,-3.8339,1.0953,-5.5973,2.0401,-5.2822,3.7014,-0.56445,-2.005,0.9534,1.4645,-1.4551,1.9123,-1.5272,
3.9314,-4.0863,1.0292,-2.8518,-1.9392,-10.2679,5.4075,1.3972,-0.43889,1.3777,4.7506,-1.8502,3.7258,-0.4717,
3.4545,-4.0821,-2.1656,-1.9573,-3.992,-10.3747,2.9139,0.59042,0.79273,0.090177,-0.59563,0.42999,-1.0771,1.7262,
5.1754,0.019236,-5.4101,-2.3218,-1.3424,-8.3064,5.1492,-2.8195,0.26323,0.5667,-2.0062,0.88612,0.43336,-0.30554,
3.1777,2.1872,-5.3269,-1.942,1.3893,-7.0852,4.1169,-2.8913,0.0060153,2.7019,3.1754,-0.37234,2.5765,-1.0106,
-4.2438,-2.2823,-3.5611,-7.6096,-1.1042,-10.9979,1.9421,2.5849,6.7546,5.4323,7.8056,1.5787,2.4224,3.8708,
-9.2918,-4.0736,-2.3831,-12.9376,-3.4481,-10.8204,2.7895,2.9117,7.7955,1.7319,4.9272,2.4478,2.759,4.6024,
-8.7343,-1.901,-1.7582,-7.3411,-0.83107,-2.9404,1.6578,-1.6013,3.4714,-2.2284,4.6311,1.819,5.0036,1.9161,
-8.9334,-3.4739,-3.8221,-6.1775,-0.058072,-0.11261,1.7995,-2.2284,4.4682,4.413,9.8971,3.3969,4.9445,1.078,
-6.7099,-0.6146,-3.8335,-7.0119,-2.7059,-4.2034,5.3067,2.0025,2.995,10.1735,8.0982,6.8087,1.9966,3.1827,
-5.102,2.0738,-1.9162,-2.0119,-7.6048,-11.905,4.7478,1.6418,0.16425,9.8045,0.6224,4.7129,2.1177,4.1971,
-9.8574,2.1906,0.36812,-1.65,-7.8716,-9.0213,1.8116,-0.14416,0.39559,9.4575,-0.62001,1.7788,3.6781,5.1503,
-14.3278,1.336,4.4432,-3.7204,-3.3017,-4.8648,-0.46646,-0.85864,-1.3156,4.3105,-0.34161,1.9133,3.2162,3.6362,
-9.6118,-1.6367,5.6228,-2.5328,-1.6578,-9.8756,1.0073,-2.7353,-1.2367,-1.7332,2.5709,0.35225,3.0233,1.9713,
-3.4917,4.9693,4.0804,3.6445,0.61102,-5.6674,-1.704,-3.7763,-1.4037,-1.8699,1.2116,-2.3202,-0.29185,0.16605,
-6.8974,10.6969,4.5587,6.0776,0.33363,4.0729,-4.735,-2.8266,-2.0421,-1.9989,-1.5124,-3.868,-1.9613,-2.0128,
-9.6166,7.404,4.0442,3.5433,1.0365,2.6232,-2.2817,-2.416,-0.71475,-0.67369,1.2299,-4.8412,0.80789,-1.6511,
-9.522,3.5853,-1.5011,2.3668,7.2408,1.5015,-1.6629,-3.2349,-0.67186,-1.5976,0.19178,-0.69434,-3.097,0.37616,
-8.9506,1.4415,-3.3397,0.29617,11.6266,10.5704,-1.5631,-2.0769,-0.63155,-2.948,-2.7122,5.6138,-6.768,4.2095,
-7.9317,1.355,1.1995,-2.1317,11.8934,12.3463,-1.4693,-0.98846,-0.59366,-1.8068,-2.0676,2.8669,-2.9875,6.3675,
-6.4914,2.238,2.5738,-6.3421,10.6978,3.4109,-0.89924,-1.893,1.8521,-2.6623,-1.4611,-5.0179,1.0486,-1.2454,
-2.9685,5.7192,2.1784,-4.2744,9.815,1.037,0.84194,-1.5385,2.4643,-2.7439,-0.65056,-6.4041,1.2267,-6.7143,
-6.165,3.4481,-0.84461,2.2488,8.262,2.4208,-0.17268,-5.3023,-4.4322,-3.061,-4.9496,-2.6456,-6.078,-2.4548,
-10.3747,1.0718,-3.4453,0.90883,6.5608,3.4807,0.56082,-7.6355,-1.9974,-1.1904,-3.93,2.0927,-6.4364,-0.13856,
-7.5828,2.2125,-3.9617,-5.6534,6.4083,2.0668,-2.6061,-3.5622,1.2557,1.05,-0.078523,1.7259,-0.9888,-1.3353,
0.34375,1.3567,0.37315,-1.699,12.0496,1.2196,-2.209,0.74913,-0.024662,3.1564,0.16693,-2.9567,2.6862,4.7706,
-1.3641,-1.3758,3.4843,6.8386,5.783,-1.987,1.057,-0.98304,-1.2285,2.2441,-0.084056,-6.3947,0.35584,4.7253,
-6.1025,3.045,2.7933,7.8745,-7.5794,-6.6881,0.51168,-1.4065,0.29149,-0.30113,0.88531,-3.6009,-1.5942,-3.271,
2.2178,7.4421,0.93844,4.269,0.34717,-4.1172,-0.24192,-1.5626,-0.4489,-0.52357,-0.85503,-0.25138,1.1535,-4.7615,
6.9048,4.1028,-0.56436,0.15628,14.4263,2.3961,0.2543,-2.9153,-4.2786,-1.9386,-4.1784,-2.6467,-1.3265,-2.0659,
-0.0172,0.72339,1.157,-1.0582,10.307,1.5292,1.4441,-1.5353,-0.40621,1.3109,1.6161,-3.6929,1.4044,2.6376,
-2.1853,1.8853,-0.59968,2.6208,-2.6039,-4.1061,-1.2936,-4.5762,-0.62281,0.027444,-0.16806,-0.82025,1.5616,3.2022,
8.5511,9.9669,-0.5637,11.6225,5.2651,5.2993,-3.1442,0.036661,-6.3705,-5.2768,-5.4606,5.9779,-2.389,3.9744,
2.2532,3.5845,-2.9402,3.2122,2.5393,5.9454,-3.9197,2.4448,-9.8444,-9.7807,-2.7226,3.6908,-1.7635,0.36126,
-6.5589,-0.0052487,-1.7997,-2.283,-5.3261,0.76821,-0.79218,2.2979,-3.4694,-0.9994,2.7431,7.3255,5.091,6.6063,
-4.7191,1.9237,-0.72742,-3.1099,-2.114,1.2041,-1.2266,1.1962,-0.36871,5.8095,-0.79544,10.7428,3.3397,8.1386,
-3.2309,0.12084,-0.92497,-7.9852,2.5919,1.8549,-1.8761,-0.080675,0.85848,0.88139,2.8675,3.1086,1.9338,0.17825,
-7.6165,0.35479,-4.0027,-0.034025,-4.5533,1.0205,-6.3431,0.1649,-5.2183,-3.7506,5.3468,-0.69357,2.5409,-2.9657,
-3.0619,1.5386,-1.5932,13.7061,-12.234,5.0569,-6.2037,0.87814,-8.5209,2.0179,-1.4818,3.4456,-0.26284,0.82743,
1.942,1.9282,2.3588,9.9917,-5.7154,4.7535,-1.9751,1.3074,-5.1171,0.93246,-9.1056,0.8283,-4.1035,1.7421,
-4.4408,0.36646,-0.19308,2.6435,-1.5159,1.094,-2.8202,3.6393,-5.2923,-0.56951,-5.1846,-1.6313,-1.4469,0.19155,
-8.5129,-3.5121,-1.6275,2.9671,-11.0661,1.0282,-2.1693,2.9388,-3.5287,3.8032,4.7672,3.769,4.9067,4.5182,
-3.9048,-0.16793,0.15735,3.03,-9.1969,3.618,-1.3158,0.11136,0.29891,6.2266,1.3481,8.6045,4.8532,8.8268,
-4.6346,0.80624,3.5221,-0.044091,-0.93204,1.9544,-2.6833,1.5507,0.28074,3.9245,-4.5176,4.714,0.22348,2.0305,
-7.7307,-2.6164,6.685,1.8865,-2.8045,0.39115,-4.9327,1.4579,-4.5566,-3.0596,-0.39034,-3.7637,-5.0923,-3.3942,
-3.8929,2.3609,5.3201,2.2553,-1.19,3.2597,-4.6367,-1.5221,-5.2475,-1.9122,-0.36692,-3.5379,-4.3049,0.66579,
-3.1769,4.1474,1.6264,-2.7003,1.2915,3.5465,-2.9123,-2.3946,-1.5582,6.3977,-5.1652,-0.91551,1.2561,1.1082,
-2.7453,-0.19878,3.216,-2.7793,-5.2934,2.6104,-1.5322,0.88206,1.1864,4.8086,-1.2403,-2.5478,2.3855,-1.6098,
0.07071,0.054345,6.1563,-3.8176,-9.0734,2.213,1.693,2.5166,2.8026,-2.9515,7.2705,-3.6,3.9299,2.5844,
0.7896,4.6306,-0.23882,-4.3116,-0.093118,-1.053,1.8326,-1.25,-0.016835,-1.5694,5.1468,-0.73268,4.4172,5.0806,
5.5627,3.8706,-3.1163,3.1777,6.6611,-0.99005,1.2405,-2.1387,-5.8002,0.45277,-0.46442,-1.1709,-1.1502,2.8478,
10.5314,-0.70018,6.7114,3.4692,4.8154,1.9616,1.6482,-2.0106,-4.9705,-3.9129,-0.43679,-8.3312,-5.4198,-2.144,
8.6944,1.9932,7.5138,-2.2824,8.1422,4.9777,-3.0302,-0.20296,-4.431,-5.8471,-0.65131,-8.0726,-3.8895,-4.6662,
6.2446,4.7661,-3.0599,0.74664,9.0994,4.6785,-1.4021,1.7374,-4.1652,-5.0143,-0.1303,-3.2494,0.68216,-1.4942,
5.1465,4.2387,-3.1178,4.3173,2.5279,-0.66385,2.297,-1.5003,-4.6386,-4.9544,0.11848,-6.1879,-0.56406,-0.19969,
5.3201,6.395,4.7825,2.612,-0.033875,-1.5879,-0.73292,-4.7843,-2.4321,-2.729,-0.37056,-2.9246,-2.458,-0.18725,
1.3855,4.324,-1.53,-3.5703,-1.2371,0.19461,-4.7863,-3.7743,2.2936,-1.36,1.8208,3.7588,0.82255,1.5112,
-2.0721,5.5104,-6.7408,-3.838,-3.573,5.0032,-6.4273,0.30851,0.70969,0.16744,0.26532,6.4253,1.2551,1.4201,
-0.26053,6.8675,-3.6853,-1.9205,-5.5278,7.3545,-3.8725,-0.91483,-0.055795,0.88075,0.49037,8.2094,-0.50694,1.0939,
-0.4861,2.8398,-7.0794,-3.9747,-6.4012,3.2981,1.9032,-2.065,5.009,2.9968,7.933,7.4757,4.103,6.0902,
-2.3849,-0.22292,-12.9213,-7.5923,-3.6072,0.20791,1.7893,0.46879,1.8162,3.7811,6.011,1.2423,5.3028,7.1708,
4.5066,-2.6197,-8.2897,-8.1011,0.94752,2.1232,0.71757,0.44066,-4.0774,2.108,0.8296,0.68585,2.0922,0.95597,
9.0567,-1.4984,-3.9361,-4.7228,-0.55536,6.8167,-3.1816,1.8603,-6.2431,-2.839,-0.6662,5.9471,0.038658,-1.0298,
3.2109,3.412,-3.6997,0.38108,-0.52181,5.9256,-5.4011,0.30261,-7.7969,-4.1147,-3.0366,0.76981,0.036109,-1.4497,
4.2238,5.8586,-1.7903,2.0457,4.089,1.9548,-0.49752,-3.3307,-6.1236,-0.73406,-1.6493,-2.8916,1.2395,-1.6039,
6.1393,3.8201,-1.4421,-1.2108,2.1562,-0.33185,-3.119,-5.7822,-5.5154,0.032653,-1.3092,2.3434,0.9239,-1.7489,
0.22708,0.45716,-0.63248,-0.89694,-0.62448,1.3751,-5.5832,-1.8201,-1.0869,2.2001,-0.50749,2.9259,4.4837,2.4536,
-2.4376,-0.29317,-2.2818,3.7362,0.13635,2.9798,-4.0429,-0.023662,-1.7446,2.309,-2.6462,-2.7933,2.5274,3.5117,
3.7342,4.7856,-0.45763,6.6455,2.7793,2.56,-4.5237,-4.6015,-5.7377,-0.48105,-3.6927,-0.45651,-2.6859,1.1314,
6.4024,7.8732,3.426,2.3901,0.68454,0.47801,-5.2164,-6.7358,-2.5012,-1.4158,-2.5071,0.53498,0.84992,0.099395,
4.3315,6.6779,4.4257,2.4882,0.88444,1.6546,-1.2875,-2.7162,1.7467,0.83829,-0.18748,-3.5945,4.8963,1.2987,
3.5894,2.4206,2.2318,4.7488,3.2413,1.0732,-0.2466,-0.1429,0.1954,-0.6585,0.30593,-3.861,-0.69991,-1.6715,
3.3738,1.3113,4.5082,2.5359,5.9395,1.009,-6.9805,-4.9548,-5.1187,-4.9571,-3.0871,1.1912,-7.4066,-5.9097,
1.0023,-0.93656,3.5148,-0.74977,3.8959,1.1894,-8.2489,-9.7192,-5.535,-3.9368,-2.1785,2.325,-4.3111,-2.9036,
0.94235,-2.3264,-1.0346,-1.1865,-2.6046,-0.32795,0.92338,-5.2794,0.58193,0.15607,1.3264,-0.70679,0.28611,2.0911,
5.9473,3.8385,3.125,0.089765,-2.2071,-0.54947,2.555,2.027,4.1627,2.3156,1.97,-2.8338,-0.45419,3.6526,
8.7235,5.7774,7.9988,-3.0491,-1.3518,-4.1319,0.23252,2.6283,4.6358,2.4177,4.5029,-3.8686,3.6704,5.6026,
6.0311,0.36926,2.4574,-2.143,-9.2246,-6.5353,2.3875,0.78357,3.6345,1.0675,4.9558,-0.021279,5.6196,3.5795,
5.91,-2.3042,-3.2334,0.15448,-11.3225,0.3645,2.003,0.013425,2.6933,3.1729,3.4534,6.9696,0.70289,3.6054,
8.9298,1.6904,0.81695,-5.157,-4.8581,0.82502,0.919,1.9408,5.4242,8.7671,6.6207,7.9977,3.5532,4.8354,
6.9478,2.5533,4.1424,-11.1145,-5.5309,-8.8659,2.3101,0.3781,4.1345,4.8666,2.849,-1.6412,7.196,1.1708,
7.2543,0.23096,4.1348,-7.3142,-6.4044,-8.0925,6.7508,-3.26,5.5736,-4.8254,-1.4193,-7.0863,4.1131,0.85958,
5.614,-0.024092,3.6455,-3.7421,-6.2608,-4.9557,2.7306,-0.41308,8.8549,-1.4022,3.7273,-0.63536,-0.71318,4.9056,
7.928,2.1463,2.2217,-4.7226,-7.0907,-6.8282,-1.5309,2.263,4.7079,4.2249,8.0832,2.0536,3.4267,5.3339,
14.4422,2.2589,-0.56267,-6.1265,-4.0137,0.089467,3.1407,-1.9701,1.292,0.35645,4.4647,-4.5771,4.4264,0.91699,
17.432,5.9798,0.91689,-6.7228,2.0117,10.2075,0.54171,-4.262,0.25057,-4.9676,-0.14152,-1.8919,-3.5519,-0.10235,
22.1709,8.9952,8.0929,-3.909,3.337,8.149,-1.4188,-4.0065,-3.1387,-7.0794,-3.5073,4.0065,-5.2668,-1.5422,
25.6612,8.4557,10.9816,0.6636,1.6908,3.8034,3.0049,-3.284,-5.8427,-5.691,-4.2609,-0.57294,-1.0946,-1.4499,
15.9265,7.9482,4.056,3.5161,-2.2673,4.5393,-1.9959,-1.6409,-6.4567,-3.4211,-2.5592,-3.9128,-1.5106,0.08355,
7.7403,5.5433,-4.8643,-0.069112,-11.2901,2.3385,-7.179,-4.4347,-3.6589,-2.7337,-1.4416,0.66053,-1.9022,-1.8499,
13.0605,5.2107,-3.1262,-0.064965,-12.5409,2.1982,-0.48127,-2.2405,-1.0288,-2.0878,-1.3551,5.4416,3.9965,-0.29263,
7.2152,1.2822,1.1588,-0.78443,-15.4038,-3.4773,1.7168,-1.3831,-3.1367,-3.6497,-0.068485,0.53537,3.5158,1.4122,
-0.93049,-0.24054,6.3919,0.22696,-17.3717,-10.0171,-0.31443,-4.1922,-0.53788,-1.5025,3.792,-2.8707,0.89471,3.2556,
1.0535,2.6659,8.4185,3.5878,-13.4373,-7.0059,-3.1881,-2.0125,0.94019,-0.44852,4.0464,-5.1091,0.35863,2.5779,
3.6416,0.819,9.1185,0.23928,-7.5696,-3.9343,-1.3093,0.75959,1.125,-0.66234,6.9369,-6.0076,3.4704,0.73622,
7.5205,2.4571,12.6692,0.94782,3.2489,-1.0467,2.3846,-3.3833,-1.5936,-4.238,4.3515,-4.4419,0.12912,-1.4771,
12.6129,10.7458,15.5244,7.3989,7.1513,7.4518,3.4464,-4.8676,-3.1852,-5.1886,-4.8272,-3.4524,-3.976,-0.1832,
11.3742,7.2085,13.6286,3.0981,3.3478,9.4148,3.2396,-1.2011,-0.10205,-1.9852,-6.9481,-5.6554,-0.84536,0.79166,
10.9329,1.7146,7.7495,-2.6312,5.7982,10.0555,-0.088026,1.0404,3.0378,2.7134,-1.9517,-1.7009,0.89282,2.4316,
8.1076,0.88856,-5.4902,-2.7145,0.3889,12.5849,-4.1803,-2.1557,1.65,4.7196,0.33476,4.4269,-0.84821,-0.3656,
1.5953,2.0403,-10.2222,-0.38223,-8.5523,10.6248,-7.5447,-6.1235,-4.9563,-2.5533,-1.8547,3.9201,-3.9306,-6.3694,
0.053575,0.4714,-2.8602,1.5687,-2.2548,7.5769,-10.4667,-8.1669,-6.1054,-3.3642,-1.2613,0.79261,-6.1051,-6.9514,
0.53229,-4.8591,-3.1705,0.99262,1.7369,6.6404,-7.91,-8.6408,-2.3646,0.69407,-0.70366,-3.5933,-3.3287,-4.6061,
3.1517,-1.4343,-7.0774,-0.75394,0.91,7.4475,-2.374,-4.5067,0.91054,1.8579,-1.3846,-1.6907,1.451,-1.1965,
6.0961,0.33901,-5.4479,-3.8417,1.5783,5.3134,-1.5082,-2.5491,4.4713,2.4694,0.38573,1.5443,1.123,-0.40133,
5.971,0.077476,-2.4697,-4.8167,2.2063,3.7891,-1.6594,-1.6734,4.4438,3.0439,1.5677,-0.71779,-0.63183,-0.13651,
3.2026,0.55476,1.0524,-1.6357,4.9664,5.4899,0.3684,-2.055,1.2851,-2.4409,0.027335,-6.9412,-2.5221,-0.61025,
1.3235,-2.6113,5.5693,0.14991,5.3916,3.9555,-1.3407,-4.1006,0.0029272,-5.9097,-1.1794,-12.0681,-1.6477,-4.6712,
6.3053,1.6427,6.4399,0.86382,0.97072,5.4054,-3.9114,-1.6854,0.72565,-3.3859,-0.86764,-3.8727,-0.34396,-1.2575,
7.6147,4.6776,5.3306,-2.803,-3.6668,4.8401,1.8669,0.10294,2.8517,-4.3881,0.38971,6.242,0.40003,2.9158,
3.7831,2.4686,6.4568,-5.5271,-1.5188,3.5856,4.6472,-5.2061,1.7165,-3.6426,-0.11583,2.0109,0.85819,0.3305,
3.3152,-1.7769,7.7567,-1.0981,0.74145,2.1656,-0.6933,-5.6166,-2.4838,1.1552,-0.34985,-2.2071,1.5296,-0.89463,
2.3931,-7.2141,2.2298,-1.7553,-9.1852,-7.3646,-1.8568,-2.6283,-2.576,-1.5654,-0.087663,-1.3515,-0.73156,-2.046,
2.2495,-1.961,0.16782,1.242,-10.5623,-5.4769,0.66477,0.90337,-0.011295,-2.9177,-2.0106,0.65774,-2.6159,-0.95939,
-2.2238,-0.87905,0.63969,0.68558,-4.144,-0.32756,-2.7496,-3.4891,-6.2771,-1.7784,-10.0851,-0.82798,-6.7972,-5.2401,
0.80195,0.61972,-0.36279,-0.31965,1.4075,-0.79007,0.79009,-3.762,-5.9007,1.2206,-6.1053,0.18579,-3.0152,-5.4079,
-0.69242,0.58254,-5.6437,1.6277,-0.6051,-6.5272,5.081,-1.1257,0.23789,-0.29887,3.4196,-2.7179,1.5041,-1.227,
-8.3639,-2.8266,-6.2691,2.4942,-1.051,-7.5816,3.812,1.8342,5.5265,0.20123,6.1071,0.33795,5.2704,3.1851,
-12.9235,-0.96958,-5.6518,3.5496,-2.193,-2.5472,-0.031868,1.4829,1.5793,-0.53397,2.1251,8.2716,3.7491,2.7533,
-9.9789,3.6679,-2.6616,5.5058,-2.7843,1.221,3.1031,0.67105,1.7255,-1.2248,1.2747,3.1956,2.3189,0.90041,
-8.6568,2.2425,2.5598,5.4164,0.033867,0.9068,3.1579,0.38982,3.7911,1.4997,0.95721,-6.3961,2.4207,0.60542,
-9.5839,1.1439,6.7447,4.1273,0.031606,-0.5941,1.0404,0.3662,1.1537,1.8919,0.41761,-7.4584,2.7577,2.0156,
-8.0448,3.9675,8.7504,6.29,-4.3088,1.8519,2.906,0.82639,-0.36198,0.33238,3.2848,-5.0829,1.6281,2.8587,
-6.8387,4.4528,8.9483,9.0461,-3.8093,6.3205,1.0444,2.464,0.86503,2.4816,0.91859,-2.6088,0.80751,2.4458,
-7.8749,-0.63528,7.4473,6.093,-2.1343,2.0847,-0.46432,1.3516,4.1874,4.2607,-1.5469,-1.0062,4.1333,0.85301,
-12.9456,-1.3196,5.3132,2.5944,-3.6935,-2.6197,0.2869,-1.3801,4.1775,-2.5025,0.23316,-1.6688,4.1263,0.078933,
-7.3483,4.062,2.1021,5.331,5.6869,7.6606,-1.6587,-1.7795,-1.376,-3.3164,0.70133,1.3237,-1.4237,-0.40797,
-1.605,1.4079,0.048052,5.0109,10.6486,10.0933,-2.5233,-5.0474,-4.1857,-1.6714,-5.1256,-3.5763,-4.2306,-4.722,
-3.4371,1.3232,6.3115,4.71,8.5632,3.2209,1.0023,-2.8161,-0.56035,-1.0889,-1.9257,-8.1822,-0.60255,-2.9927,
-8.5333,1.726,4.9687,4.9096,5.6395,2.0636,0.9424,-1.683,-2.4547,-1.0238,3.0103,-4.317,-1.0486,-2.8129,
-5.1293,0.17616,2.2604,5.0969,7.2293,5.7962,-0.5604,-6.4028,-6.1638,-2.4082,-1.0267,0.76273,-4.3601,-6.0186,
3.3736,3.0581,10.8019,6.2374,11.6158,6.8947,0.43755,-4.5723,-5.312,-3.71,-4.8215,0.71696,-5.0624,-5.6575,
-0.20322,1.4284,9.6718,1.5248,7.063,4.0708,0.4113,-1.8874,-3.5471,-2.0411,-1.1578,-4.6287,-4.7586,-4.3537,
-4.7705,2.5477,3.0653,0.71021,0.13101,3.103,0.14542,0.39476,-0.68337,3.1428,4.4551,-4.5922,-0.37598,-0.47727,
-4.0022,7.2153,4.3279,4.0418,-2.2872,2.4351,1.1008,3.2634,3.6962,0.54388,1.7774,-2.3882,3.0213,4.3718,
-3.2799,4.3721,3.586,-2.4674,1.7066,1.3249,5.3733,4.5136,5.8848,-1.8991,1.1891,-2.7271,3.8041,3.1454,
-4.0474,2.6639,-0.0035771,-5.6934,1.1223,-1.6471,5.0509,4.2428,5.5317,4.4818,6.4204,-1.5991,2.612,2.4748,
-5.2506,2.0219,2.407,-3.9057,-6.658,-5.8868,0.40929,2.5422,5.6819,5.1765,4.5887,-0.057161,1.9731,3.2904,
-3.2481,1.1775,3.95,-2.9483,-4.0892,-0.95364,0.62593,2.6308,3.654,1.2508,1.6625,0.18746,3.5417,-1.4866,
-1.8484,2.7941,-3.2768,-3.0123,4.5919,2.2366,3.7214,1.7496,-1.145,-1.4754,5.1777,-0.065209,3.5702,-3.5665,
-2.4608,1.9031,-5.2499,-5.0012,-0.74533,-4.8875,4.7034,0.43936,0.61097,-0.18203,6.0723,-2.2305,3.115,1.7087,
-2.3129,0.34332,0.84995,-3.2547,-10.3413,-7.9684,2.0109,2.3414,1.5384,-0.65281,0.88751,-1.6145,3.8922,4.4989,
-1.9332,0.08129,3.4505,-0.40829,-6.1054,-4.8392,2.1312,0.99565,0.24081,-3.2652,0.59329,-0.31231,4.864,0.61311,
-3.2635,3.4509,0.83289,3.955,-4.7753,-0.6925,3.9315,-1.4742,-1.7018,-2.105,1.0396,-1.7398,1.1977,-0.86948,
-3.0674,2.2797,-1.145,6.1276,-7.381,-0.16878,1.2852,0.54266,-1.5995,-0.050695,-0.95117,-4.0458,1.608,1.593,
-3.8475,-5.0877,-3.4867,-1.4707,-7.4203,-4.0153,-2.648,0.9918,-0.057495,-1.4937,-1.3758,-5.2491,2.9575,-1.3953,
-0.72457,-1.8904,1.0608,-2.8287,0.73812,1.0464,0.40292,2.8605,2.3561,0.52413,0.63494,0.36851,2.2981,1.099,
-0.68087,-3.223,3.8899,-3.6231,-1.2346,3.8759,2.7891,-0.20297,2.2149,-0.95335,0.59661,0.34617,3.6063,3.4434,
-4.7376,-8.5734,1.0052,-6.5389,-12.0065,-2.8644,2.8629,-1.8783,2.8052,-1.1373,2.2483,-0.39773,4.113,1.0674,
-1.5611,-3.2385,-0.019667,-5.1825,-6.9476,-2.2104,2.6909,3.0549,5.0472,5.1976,4.0413,2.0365,1.9378,1.4856,
-1.7081,-3.7674,-4.598,-8.9691,-3.3975,-0.87268,0.36055,1.1846,4.9851,4.1627,1.1475,-0.25509,1.5808,0.1909,
-4.2572,-5.2281,-7.9371,-7.2257,-5.8452,-1.5432,-1.8302,-2.0199,3.4812,0.29747,2.7659,3.3756,4.1371,2.3491,
-3.2784,-1.2994,-6.738,-3.1767,-2.8429,-1.6921,-0.99752,-4.5503,3.0309,3.895,2.8409,4.3784,1.7197,3.8953,
0.051557,3.8404,-7.0568,-3.2269,5.7636,2.9894,3.6418,-4.9999,5.5008,6.3127,0.50153,-0.94576,0.89337,2.9385,
-0.91586,6.0201,-9.0435,-1.5875,9.2741,11.0048,1.9771,0.6027,4.2064,1.5956,-0.49288,0.074853,0.83976,3.2441,
0.34438,2.0435,-4.8855,2.1232,1.2459,10.5855,-2.2389,2.2538,0.82057,0.29456,0.26005,1.7576,-2.826,1.3622,
6.5905,1.9211,0.22812,2.478,-2.2031,5.1299,-4.9969,-4.1482,-3.5672,-2.6154,-3.6122,-4.1322,-7.9589,-3.54,
10.2926,8.3136,-3.4012,3.5344,10.2214,9.4016,-0.59947,-2.2123,-5.0402,-6.5561,-5.0824,-7.0175,-7.2402,-4.0507,
10.157,6.3685,-4.6429,3.3223,13.4645,7.3912,0.40037,-2.5615,-1.3633,-6.1627,-3.3317,-7.0789,-5.8419,-1.8795,
12.9218,2.6117,1.9019,-1.6975,5.4255,0.68101,-1.0697,-6.2644,1.6108,0.95574,-2.6496,1.0589,-8.8661,0.64366,
6.8443,-2.8472,-1.5862,-13.1648,-0.20218,-2.2519,-1.0055,-7.3344,-5.2343,-0.065474,-4.4188,5.3336,-11.2257,-3.7333,
2.3356,-0.025031,-5.5886,-8.7597,8.2454,3.4266,0.74182,-1.8329,-7.0896,-2.2309,-1.9843,6.2187,-5.9731,-4.2324,
3.4008,2.1456,-6.4586,2.1302,6.5458,5.8725,-2.4357,-1.4819,-3.0489,-2.338,-5.4807,6.087,-2.9632,-4.2194,
4.4018,0.81137,-3.9017,-0.16704,-4.211,4.3147,-3.0132,-3.5624,-1.1789,-0.9927,-5.875,2.1061,-5.4372,-3.2436,
8.9584,5.5834,4.0452,-2.0852,-0.5839,4.0558,1.5064,-0.93852,-1.5901,0.99506,0.26211,-1.8766,-3.6647,1.2898,
9.1438,4.5255,7.8998,0.20906,2.1022,-1.2488,3.1033,-3.0514,-3.1819,-3.162,-0.47652,0.40513,-1.2752,-1.4391,
10.0414,4.254,7.9082,6.4635,3.4224,0.27241,1.9527,-0.4577,-5.8835,-6.8287,-2.8585,3.2733,-1.1987,-2.3167,
11.8493,7.8549,7.4335,7.0393,6.5912,4.1122,1.3534,3.9078,-4.5664,-4.491,-2.6868,-3.1898,-3.0552,2.1609,
10.6562,4.4913,8.9159,-0.61365,4.7497,-2.4013,4.1649,-1.1471,3.4206,-0.84684,-2.5258,-1.5524,0.020442,0.58474,
9.0527,-0.11627,7.4169,-5.3973,0.1262,-6.5957,3.4329,-6.3807,2.7332,-1.7601,-1.8921,3.8432,3.3934,-3.7884,
8.5098,-3.0016,1.1871,-5.5552,-0.36308,-4.7535,2.7448,-0.69544,0.64121,-1.1724,4.0062,-1.6898,5.1183,0.29503,
1.7324,-1.3755,-3.7047,-6.186,3.0329,-4.9505,3.0622,6.0954,1.0849,-1.1022,2.8018,-2.5525,4.329,4.1339,
-1.746,3.0454,1.8203,-4.369,4.2968,-1.7614,0.9503,3.3191,-0.90885,-2.4824,-1.2227,6.2777,2.623,2.9216,
-2.3643,-4.6089,0.98793,-6.2758,-4.8789,-3.3427,-3.6862,-7.2441,-4.4695,-0.16404,-1.3905,2.7678,1.2606,-0.8689,
0.18765,-5.7786,-0.51761,-2.0433,-13.7452,-6.5166,-3.947,-6.3275,-1.7912,5.6304,0.62108,-1.7371,2.6312,1.1114,
1.6224,-0.61143,0.95948,1.9359,-14.8489,-9.0179,-1.7822,-2.5737,-2.1659,-1.4561,-0.38028,-2.5969,-0.41898,-0.88368,
8.7561,6.6559,7.1687,5.6759,0.14204,1.6463,2.6633,3.3656,-5.8921,-2.8148,-1.3216,-0.030755,0.57026,-0.83043,
4.3742,0.9541,5.7744,-0.93094,7.726,2.0297,1.0574,3.6458,-8.9133,1.2103,-7.0271,-2.4393,0.53581,1.6297,
0.73749,-8.7443,3.9819,-5.6956,-6.717,-7.2509,2.922,0.052817,0.29886,3.548,-1.3026,-5.6671,1.9502,1.5317,
4.7911,-5.0862,1.0919,1.1536,-7.0369,-3.2004,2.0237,-1.6376,3.4144,-1.7261,1.4267,-4.1218,0.62785,-3.1395,
6.6727,5.5833,5.6057,10.4844,7.4853,6.3916,0.69703,1.5942,0.558,-3.3098,-3.7202,-1.7053,1.7955,-1.7463,
3.3799,4.284,8.1614,6.9633,6.6745,4.5619,0.65521,0.53419,-0.43981,-0.70104,-5.4256,-4.4955,0.72342,1.733,
4.6229,-0.79378,4.2973,-0.2034,1.9357,2.3595,2.0622,-1.4265,1.9967,2.715,-2.6899,-3.2619,-1.2482,2.1109,
0.0071816,-4.6025,2.1117,-4.0476,0.3733,-0.67413,3.8666,-3.2687,4.2875,2.0702,-5.4206,-2.1019,0.7549,1.0204,
-0.47518,-3.844,5.8414,0.051657,0.35091,-2.5619,3.6346,0.78385,3.0664,-1.428,-6.5412,-1.9758,4.0841,4.3336,
1.7225,-1.9266,-0.052704,0.77146,-2.3212,1.2073,2.6936,5.3161,0.23084,-1.5838,-0.60554,0.79431,3.1161,4.3146,
-5.1293,-2.7749,-8.2447,-6.5052,-7.9665,-3.2035,0.60383,3.0689,2.1452,1.4038,2.3233,2.1925,2.4468,2.1275,
-4.8215,-3.5722,-2.4474,-6.1149,-7.9705,-7.832,0.5676,1.9209,5.3909,2.7658,-0.70815,1.097,3.7462,4.8924,
3.6622,-6.7326,0.59175,-2.8562,-8.4568,-2.0597,2.4615,-0.60467,2.6571,2.1177,-1.6302,-1.3791,2.0754,3.6343,
3.9249,-2.9542,-2.8182,0.68965,-8.4313,2.4027,1.35,-2.0147,-1.8406,2.9545,-2.4963,-0.81446,-2.3874,0.041774,
0.073737,-0.1256,-4.3361,2.8177,-7.6847,-5.2135,-0.90043,-0.68871,1.885,3.5004,-4.0339,-3.4169,-2.0035,-0.68386,
0.55171,-2.0463,-4.5579,-0.24346,-11.5615,-11.6491,-0.84641,-1.1293,5.1463,1.3621,1.0288,-2.7295,3.4194,-2.0886,
-2.8561,-1.4418,-7.1767,-5.0498,-20.0271,-9.5042,-3.206,-1.5437,1.4633,1.2806,6.7514,3.2186,5.1422,-2.9274,
-5.577,-3.2832,-4.8181,-8.121,-22.1999,-10.8623,-0.12133,0.47732,4.2678,4.578,6.8285,2.5433,9.6542,-0.34187,
-0.1807,-8.6299,-3.3237,-9.321,-15.3243,-16.2361,0.60885,-0.75661,4.7347,1.1699,-0.088688,-2.1886,7.8701,-1.0443,
4.4097,-4.4964,-3.3655,-3.7003,-5.4868,-10.6825,0.33158,2.9044,3.2455,1.8228,1.1217,2.5223,4.2646,2.1517,
0.52943,-3.0216,-5.3325,-2.2727,-4.9164,-7.3902,1.0348,4.4172,1.3638,2.4366,-0.6326,3.576,4.7319,4.1919,
-3.5997,-6.4557,-4.2897,-5.7518,-11.1293,-11.0441,1.2137,5.3574,0.076672,-0.36072,-4.2101,3.1205,8.0634,4.6633,
-8.4454,-12.5763,-1.3812,-11.9146,-14.5589,-17.8533,1.3818,6.2408,3.6875,5.2045,3.9963,5.5843,9.7487,3.1787,
-11.5539,-13.0268,-2.9853,-10.4766,-13.4444,-16.5409,-0.38807,-1.6052,5.1532,8.9894,4.9616,5.0085,5.5482,0.81858,
-5.7987,-3.3269,-3.5293,0.034136,-8.0582,-5.6663,-1.0879,-3.6783,3.639,5.3168,-0.39758,5.4312,4.0102,4.8671,
-0.63077,-1.6817,-1.8715,1.4781,-5.6465,-6.2909,-4.3973,1.8448,0.52835,-0.78705,-0.85589,2.6949,2.3236,3.1285,
4.9509,-1.3396,3.7846,4.0408,1.2,-6.6365,-2.928,5.8317,-0.22648,-0.016698,1.8468,0.84578,-0.46718,2.2177,
2.9666,-3.4284,3.7985,3.5573,-0.077336,-6.4793,1.827,-3.4362,-2.864,-1.7029,-0.91557,-2.8204,-0.19818,1.3617,
-0.10365,-3.7048,-2.2142,-1.477,-6.3394,-8.019,3.6453,-5.6404,-2.2104,-1.6005,-1.3423,-4.5791,7.0443,0.79787,
-1.0613,-1.072,-5.4554,-4.7624,-5.9588,-4.6453,1.0165,2.8932,3.2248,1.388,4.5228,0.033944,10.4785,4.1244,
-4.1311,-3.6592,-9.2259,-7.6102,-4.3962,-0.75118,-0.73172,-1.3778,4.2366,1.5457,5.4562,0.75527,3.8238,2.1898,
1.4194,-1.9934,-7.2261,-0.40464,0.20631,3.1503,0.27651,-1.777,-0.83782,1.9349,4.165,1.6738,-1.2259,1.0945,
5.4316,-4.5249,-4.6233,-0.13939,4.2913,1.7564,-2.3912,0.016342,-4.403,-1.3147,-0.66418,-0.59577,-1.3933,-0.65839,
3.4182,-4.0126,-2.6585,-4.2286,2.3463,3.338,-2.4889,2.6667,1.8865,-0.03027,-4.24,0.64504,2.3055,2.5144,
2.49,0.80763,-5.1503,-5.6619,-5.266,5.7891,-3.0627,5.158,2.0145,3.1048,-4.7087,3.2577,1.926,5.0148,
6.1975,-1.651,-10.1439,-6.7684,-4.95,2.5497,-1.4327,0.99214,-0.034534,0.99032,2.8047,0.65207,-0.59972,1.3395,
9.1998,-2.516,-7.1249,0.38634,6.9159,2.3965,2.0275,-0.031485,1.4136,0.44874,4.5643,0.13079,-2.0098,2.2232,
8.6478,-1.4012,-1.8772,2.7737,6.9833,-0.63984,2.3878,2.381,2.2931,0.42181,-1.976,-0.359,-3.8174,1.6079,
8.8519,-1.0757,-1.5231,-1.4905,1.0207,-4.2164,3.9318,1.9967,2.3965,-2.737,0.79408,0.38544,-2.8654,0.30612,
9.7673,-0.52943,0.49623,3.4199,7.2262,-0.10727,-0.16031,-1.9793,-0.63962,-4.0188,2.6744,0.84448,1.1631,0.76992,
11.8323,0.70763,5.5281,11.6504,7.5155,5.4428,-3.7661,-1.6195,-4.6986,-4.0186,-6.4037,-4.7498,-0.11197,-2.4098,
17.1479,9.5832,13.1502,18.9051,7.7875,13.5519,0.55721,6.9133,-3.6938,-2.0903,-7.7067,-3.7419,-1.7925,-0.09556,
12.7446,8.0439,7.0585,12.4681,8.7665,10.3286,2.452,4.5708,-1.544,-3.4111,-3.3879,-1.5887,-3.6131,1.8384,
7.6418,0.33067,0.85067,2.5612,4.8663,2.9603,1.3408,0.92185,-0.0052872,-5.6168,-1.7386,0.43454,-0.98598,0.28158,
3.0855,-0.41253,-1.37,-4.1004,-0.0054228,-3.2429,1.0193,3.0357,-0.72787,-2.6283,1.4992,2.5776,0.7604,-0.94015,
-7.4635,-4.0027,-7.3133,-13.2539,-4.5844,-11.9664,1.1991,-0.27947,2.4493,1.6268,8.3987,2.182,2.8839,0.32109,
-10.3901,-8.1014,-7.8389,-13.9054,-5.2736,-11.2484,1.1272,-1.227,7.1226,1.0468,8.3767,4.9431,5.121,3.1939,
-7.8385,-11.4712,-7.3681,-7.7679,-4.4748,-5.2709,1.0596,1.2572,5.7314,-1.9081,0.6437,9.9497,1.4398,0.59258,
-9.0554,-6.6856,-7.6489,-4.1688,-1.5553,-1.3392,1.237,5.2791,2.254,1.8218,0.84605,10.5575,1.5944,-0.64826,
-11.8863,-0.018154,-5.7439,-2.9546,-2.426,1.1515,-2.2115,5.4441,-0.2916,2.6766,3.6876,3.6573,1.9804,2.7649,
-9.2452,-2.9094,-2.0251,-2.7771,-3.7265,-0.846,-0.15083,0.77887,2.6182,-1.8225,5.3943,0.06366,0.89748,2.1168,
-6.0389,-8.2784,-1.1807,-7.1902,1.5583,-7.3032,1.0635,-3.3652,2.2201,-2.4361,4.8297,5.6035,0.60266,-0.6613,
-8.0867,-4.4072,-1.5918,-8.687,4.8393,-4.9363,0.9997,-0.27079,3.5332,3.4947,4.0579,7.6774,4.4229,4.681,
-13.8687,-3.6607,-4.3885,-9.6118,1.1747,-2.2303,2.8677,-2.6649,6.6954,2.8028,3.3323,-0.97821,5.6035,1.0255,
-10.8672,-2.7179,-1.9558,-6.3838,4.2375,-4.2654,1.0086,-3.7101,4.6067,0.94766,4.8198,-0.67832,3.0984,-3.6151,
-6.5998,-3.2782,0.81261,-3.3497,7.1167,-7.1429,-1.2211,-0.83637,0.71487,-1.2784,5.2535,4.4241,1.2253,-0.74711,
-7.4091,-1.3943,-0.92338,-2.4258,5.4844,-4.0633,1.9852,-1.5091,0.91294,-3.3713,4.6974,1.989,0.4284,-0.94325,
-5.0361,2.0636,-0.38581,-6.6183,8.0476,-0.92718,1.8664,-3.347,2.3042,-2.6868,2.969,-2.9508,0.40292,-4.7433,
-3.2879,-1.4344,0.1195,-7.6673,8.0469,-3.7634,-0.17359,-1.6997,0.23798,-0.59721,0.86292,-3.2555,0.37898,-3.4946,
-7.9111,-3.7587,-0.85177,-1.4229,3.7075,-0.16336,0.80092,3.2228,0.22347,-0.079671,-0.15295,0.31407,0.35601,-0.39261,
-15.149,-4.0149,-1.2828,-5.1937,3.9672,2.2568,0.75264,3.5116,4.0667,-2.0029,1.3023,1.7413,0.33488,-1.3332,
-13.0352,-3.0511,-1.4473,-5.6054,10.2367,0.9161,-0.015881,0.64935,3.0993,0.76841,0.50122,0.43149,-1.3729,1.3979,
-1.6478,2.9166,0.56821,6.3005,14.9256,6.1638,-0.97834,1.0928,0.021301,2.1686,-3.8672,-0.55827,-3.2183,4.689,
-1.067,2.7416,-0.91214,8.8146,6.3168,4.8296,-2.3664,1.5092,0.50196,-1.8179,-7.0096,-3.4173,-2.5432,-1.3774,
-6.3054,2.0949,-3.2678,5.8753,-0.32895,2.1295,-2.2241,3.3466,2.8822,0.2191,-1.7685,-1.2838,-0.94461,1.1156,
-4.9628,2.4516,-4.9999,6.4871,1.137,6.8224,-2.0907,-0.22868,4.1555,2.1346,1.2301,1.2033,-4.2619,2.4949,
-1.7729,6.6428,-3.2536,8.508,0.58689,8.8237,-2.4472,0.26743,3.4243,0.56027,-4.6283,1.6135,-4.0062,-1.0288,
-2.3897,8.4132,-2.8172,6.3106,-2.0996,0.34029,-0.13142,4.8309,2.4952,-1.1608,-5.5561,0.79358,0.33129,-0.72631,
-1.041,2.8472,-4.8174,2.3165,-0.76837,-0.88542,1.5637,3.3358,3.0689,-1.8141,0.32086,-2.3875,1.5167,1.0045,
0.46748,5.5686,-1.6365,6.0337,2.17,9.7728,-0.94049,2.1715,0.47437,-3.1512,-0.18055,-1.2802,-1.4666,0.944,
-0.52466,9.0907,-1.0561,10.0102,1.5577,11.1148,1.0444,0.59519,-1.9644,-5.8545,-1.6157,1.6889,-1.8608,-2.4869,
-2.4214,7.0994,-0.51083,5.5532,1.4642,7.0735,1.9456,0.55948,0.56355,-3.575,1.8557,-0.82254,-1.7491,-2.3377,
-3.4814,5.4682,5.0634,4.979,2.0997,6.89,-1.3042,0.76688,-0.6751,-0.7094,0.53902,0.43165,-7.6697,-0.9921,
-2.7903,4.176,8.1343,10.947,-0.43664,6.9588,0.22009,0.2387,-3.5269,-2.1129,-1.4213,6.1906,-6.7274,-2.3786,
-0.45376,3.2025,8.3692,13.4237,-1.1333,3.4078,1.4122,0.46535,-5.0025,-5.1196,-3.0232,0.75745,-3.6726,-1.9949,
-0.18557,3.7333,8.108,13.8231,-0.82483,-2.8222,2.5323,1.1608,-1.0869,-1.197,-1.6365,-3.3854,-0.80118,0.29393,
-6.9231,0.61699,3.2829,7.6909,-11.3804,-7.4734,0.93431,-2.2835,-1.0219,-0.643,0.87154,-0.77188,0.69292,-1.1702,
-5.7844,-0.14293,7.1838,6.507,-11.4205,-2.9276,0.63729,-1.4232,-5.0575,-2.7736,-0.86752,-0.4846,1.3747,-1.8229,
0.34728,-1.5806,9.6448,7.0804,-8.8071,-0.82377,1.081,2.0367,-5.2365,-3.0891,-5.1542,-5.2758,0.81029,-1.2316,
1.7725,1.8884,2.7994,8.5836,-10.689,-0.29218,-2.84,1.4323,-1.548,-1.4577,-3.399,-1.1031,1.2434,1.7346,
-0.50304,5.8725,-1.4659,7.8276,-11.2527,-1.4799,-4.8393,-0.34086,1.1964,-0.16543,-1.5078,-0.31399,4.3023,5.246,
0.49124,4.0741,2.4786,4.4656,-7.685,-3.801,0.75398,-3.6946,4.0169,0.32666,-3.3453,-3.187,5.4906,-0.85316,
-0.74353,0.69618,-0.32163,0.58227,-6.983,-2.8501,1.4316,-5.1602,2.5706,-0.41584,-6.2781,-1.7909,2.0277,-8.2738,
-1.4218,0.41344,-1.9896,-2.1038,-8.7336,-1.9562,0.14045,1.6569,2.6573,1.7783,-4.2142,0.0037571,1.1827,-0.306,
-0.13167,1.1115,-2.1112,-5.111,-1.7016,-2.0798,-1.0728,7.583,1.2926,-0.015652,-1.7921,-2.1661,-1.5394,6.2203,
-2.5339,-1.3653,-5.8409,-4.3224,5.1494,-1.955,0.43782,8.5743,2.1794,1.4315,-0.23835,0.37446,1.9274,5.8471,
-9.1308,-6.586,-11.275,-5.9913,-5.283,-7.6227,0.89348,5.1673,3.0125,0.86326,-0.22405,3.2441,4.2219,4.5319,
-3.0389,-0.64678,-9.8751,-2.0159,-6.6528,1.2712,1.0808,4.6168,-0.30131,-1.3572,1.4766,3.7728,1.3175,2.0913,
2.6871,0.11493,-6.1496,2.2024,2.664,14.9333,-1.1532,-1.2038,-4.3806,-3.9274,0.18273,-0.55095,-1.4131,-5.024,
2.0437,-1.8204,-2.4064,2.552,7.3247,11.6269,0.36205,-2.0962,-0.74353,0.64684,-2.7205,-1.9644,0.11772,-0.3845,
1.4389,0.2168,-5.6362,-3.386,0.61844,4.1802,0.82249,3.8144,1.711,2.0541,-5.4496,0.081906,-0.37151,7.3516,
3.5217,1.891,-8.4316,-1.0132,-6.4085,6.099,0.53217,2.8622,0.40349,-2.1665,-2.9535,0.79989,0.85608,4.2589,
0.65934,4.4291,-5.756,8.4476,-7.2289,7.4203,-2.1509,2.45,0.62025,-1.3136,-0.12469,1.4753,3.9382,-0.5759,
-6.1289,0.78914,-7.821,3.1203,-12.5797,0.22638,-3.9502,-0.10739,2.0295,1.1755,-2.0456,-1.0236,1.7739,-6.3257,
-4.7971,1.224,-7.8339,-0.92357,-11.343,-0.7513,-0.33898,-1.065,4.3176,4.9616,-2.4051,2.8944,-0.74285,-4.9821,
-4.2683,3.8016,-6.6405,-2.5554,-8.0111,-1.4291,0.88665,4.0601,3.3357,3.4586,0.87273,6.3362,-2.3855,-0.10385,
-10.038,0.44025,-8.4115,-10.356,-14.0381,-3.0308,-0.85401,4.5396,2.8943,0.11785,2.5074,2.8223,-3.4474,-2.7489,
-2.928,1.137,-7.1837,-5.1552,-15.365,2.2125,-1.0435,3.5441,1.9976,2.7621,1.1519,4.8223,-2.5175,-0.41461,
2.068,-0.37751,-6.7531,0.4568,-11.0689,-0.8128,-0.017027,0.43893,-1.0144,2.114,1.5647,7.4251,-1.4025,3.4666,
-4.8046,-3.7293,-5.8655,-2.4627,-8.9585,-4.138,0.94832,-0.55127,0.010374,1.0233,0.50693,3.6056,1.0917,1.3305,
-7.4083,-1.5774,-4.0673,-2.3149,-10.8311,-1.9616,-0.55484,-0.51819,1.456,2.8901,-2.8979,0.49671,0.06236,-0.67756,
-4.072,-0.51862,-4.3055,-1.2124,-10.1815,-2.808,-1.4856,-1.9331,1.8508,1.7526,3.0608,1.9129,-2.3517,-2.5653,
-2.8631,-1.9335,-3.565,-1.6213,-5.232,-3.1216,-3.3245,-0.37112,1.2576,-0.28055,7.6976,5.6548,-1.7285,-1.9292,
-5.1019,-4.71,-3.3515,-2.0065,-5.4003,-3.4163,-3.6074,2.5437,2.146,1.664,3.3793,3.8692,-1.1428,0.59663,
-4.7958,-4.9094,-7.4888,-2.8499,-6.0404,-2.2474,-1.4628,4.3192,0.089058,1.5642,-0.19787,0.26262,-3.4844,1.0428,
-2.8208,1.8927,-5.8341,0.93649,4.2042,1.9848,0.79417,5.7469,-2.0854,0.26504,-0.42696,0.96977,-1.1062,5.0776,
-0.7234,1.2972,-1.6277,-0.084029,7.3264,1.8657,1.7108,0.58179,-0.99599,1.2135,-0.88328,2.3578,0.8884,4.7734,
1.4892,-3.3599,-3.2173,-1.7662,6.1635,2.959,0.88484,-1.6223,1.2329,3.3098,-0.10738,4.8679,-1.3341,2.7997,
-4.8669,-5.5687,-7.3628,-5.9983,6.7578,1.3355,-1.5782,0.40303,-0.28708,0.21893,0.86316,1.6836,-1.7362,1.1853,
-6.0209,-4.2705,-4.5107,-6.6025,6.8345,-1.155,-1.0013,0.37907,-2.1983,-0.27591,2.7398,-1.7917,2.2246,0.63244,
-3.2493,-1.6039,0.098525,-4.7603,6.4246,1.3246,-0.45952,2.7667,-2.0662,3.1149,0.64698,1.2081,0.64464,-0.85154,
-6.9108,-2.9539,-1.8356,-5.4386,2.6647,1.7271,0.53238,4.0469,1.9142,2.928,-0.8381,2.0995,-2.768,-1.7648,
-1.1939,-0.84849,-3.6536,-2.7022,5.8788,4.9979,0.018044,0.91161,3.7275,1.306,0.65845,0.045329,-2.12,-0.69502,
4.4218,-2.4848,-3.6754,-5.1916,4.3212,1.5646,-4.5623,-5.1686,3.2629,1.4686,3.7524,-1.6446,-2.2338,-4.7507,
2.7102,-4.7458,1.3658,-5.8439,-0.27635,-4.7958,-1.3961,-1.4841,8.3698,5.7193,9.7938,3.7567,1.2747,-2.055,
2.3064,-1.8098,-1.8498,-1.3957,0.46336,0.071436,-2.5178,0.29198,3.2881,0.79663,-1.1579,1.3619,-0.97118,-3.1368,
10.8449,4.5656,-3.6668,4.4724,2.8455,14.1671,-1.8846,0.75662,0.19852,-2.1435,-8.3191,-3.5403,-0.43074,-5.8409,
8.9894,4.0507,-4.6521,0.5886,-6.2431,17.7759,-2.4944,2.3984,-1.0187,-0.81002,-2.7582,-3.5688,-0.16393,-6.2138,
3.1474,2.3614,-4.8549,-1.3744,-13.0991,11.4072,-3.3086,2.2545,-0.47517,-0.27902,0.29932,1.466,-2.5642,-3.9123,
8.5019,1.9785,-2.3947,2.3232,-8.2158,7.1071,-1.9055,2.36,0.75794,-0.98541,-2.37,0.65492,-2.1696,-4.4012,
7.5099,2.3417,-3.2149,1.2195,-10.1332,7.6445,-3.2374,2.7003,-1.6977,1.0014,-0.78151,1.5795,-1.0756,-5.101,
-3.0639,-1.655,-7.8424,-8.0125,-23.6252,5.7398,-4.0068,-1.3178,-1.1136,0.94159,2.6396,0.038691,-1.0108,-6.2409,
-0.95138,1.8188,-3.9974,-3.193,-22.087,5.3959,0.089976,-0.27444,1.8457,0.88555,0.071102,-3.82,0.97848,-3.4563,
6.3361,6.048,-0.38314,7.6035,-10.1567,8.9285,-0.87975,2.6341,-2.6038,-1.5782,-2.3433,-3.5908,0.91931,-5.1772,
8.3663,4.2391,-0.84232,3.2911,-6.655,7.4287,-3.7193,3.4401,-3.8936,-2.9295,1.1715,-2.8932,0.86438,-7.2769,
8.8284,5.4308,0.65425,-2.2092,-12.5225,1.6801,-3.0139,2.7516,-0.28578,-1.7896,-1.7911,-3.6837,-0.15158,-3.948,
9.2626,2.2124,0.13306,0.33343,-15.6275,3.0256,-0.42297,2.1045,1.1776,-1.2003,-4.0942,-0.57063,-1.5887,-1.7829,
3.6458,-0.57121,-4.9364,0.07269,-12.5205,4.0491,-1.6027,0.7732,-0.58003,-1.8514,-0.23287,1.1511,-1.2522,-3.8449,
1.9808,-1.0189,-4.6402,-4.27,-12.7333,-4.3885,-4.3986,-1.6833,-1.5096,-0.77602,0.74542,-2.2924,-0.21322,-5.0604,
5.4771,-6.0196,-2.6748,-5.7012,-17.9953,-12.0797,-1.9657,-7.1262,1.2323,0.47514,4.3159,-0.94984,-1.4055,-4.5161,
3.702,-6.6226,-3.4784,-2.4669,-14.5053,-8.4621,1.5265,-5.7345,1.1582,0.44686,7.9131,3.9276,-1.3214,-2.3167,
4.9264,-3.8149,0.10454,-1.8367,-5.922,-2.1696,-2.4213,-0.087549,-3.2494,-2.4722,4.5465,-0.64611,0.68632,-5.07,
13.3077,5.0909,9.7395,4.0578,2.6281,7.1194,-3.722,2.81,-4.5009,-3.7699,0.41707,0.35629,1.1273,-5.2479,
12.9912,7.6775,11.5652,11.5271,6.327,12.4768,-3.4987,1.1951,-8.5692,-4.99,-5.3925,2.745,-6.1712,-2.5229,
12.2119,3.3607,9.4253,13.7278,6.4295,10.2822,-0.87844,1.6056,-3.2346,-2.7622,-1.6948,-0.79389,-4.3549,-0.92507,
11.9614,2.195,8.3776,9.5299,3.6332,3.3985,-2.7542,2.9553,-0.63013,-1.6323,1.7812,-3.6385,-0.71936,-3.2799,
8.5921,1.3404,7.634,6.789,2.2101,-0.90277,-2.3479,-0.83745,-5.1716,-1.7754,0.46945,-2.2149,-3.8092,-2.8422,
8.0766,-1.6326,7.1759,6.3816,4.0057,-0.8486,-1.2427,-3.6793,-4.8613,-3.1151,-1.005,-1.6001,-5.9908,-3.1536,
10.0021,-1.0527,7.2273,4.0705,3.7654,1.6124,-2.6144,-0.56645,0.25062,-1,-0.94468,-2.468,-0.32916,-1.0362,
5.3049,-1.2303,5.1067,1.6569,-0.075967,-1.1356,-3.1807,0.19067,1.4406,-0.21688,-2.0931,-2.0792,1.86,0.23108,
7.1557,1.0127,4.0769,7.583,3.0618,-2.7547,-1.785,0.90213,-1.7793,-1.4092,0.68361,-0.74911,-3.3133,-0.98808,
12.2702,3.6033,5.5198,8.8155,4.0834,1.5081,-1.4367,2.0535,-0.94894,-2.0477,3.2939,-1.4273,-2.8733,-0.6876,
8.8825,-1.6746,5.9115,1.7786,-0.25916,-0.27003,-0.62762,0.24263,0.31284,-1.6839,-3.8936,-2.065,1.3964,-2.816,
8.5905,-3.7433,7.244,0.94903,3.8537,-3.3869,0.1334,0.46904,-0.42929,0.10435,-7.7573,-1.6997,-1.8208,0.96841,
6.87,-2.7956,8.0144,2.0971,-0.95677,-4.3887,-0.59774,0.68209,-0.64427,0.82122,-3.1943,-2.3208,-2.9166,5.9722,
-0.77281,-1.6637,3.6774,0.043356,-9.576,-3.1613,-2.9718,2.5696,0.35848,2.2184,-1.0742,-0.7351,1.5969,2.2397,
-2.8956,-5.1793,-6.9076,-8.3954,1.8446,-8.0328,-2.5525,2.1744,0.57794,-0.084289,1.1594,1.9601,-0.18614,-4.8846,
4.0266,-2.9404,-5.5288,-10.3018,12.8209,-8.5152,3.3852,2.044,1.5076,-0.079232,7.3563,1.3606,0.30742,-1.699,
8.3643,3.2616,4.2025,-4.1405,6.0259,-0.050535,2.9407,-0.24828,0.21184,2.0947,2.3352,-1.3726,-0.43438,2.4998,
10.0316,1.3787,7.5658,1.652,5.9055,3.5679,-0.85117,-0.47435,0.4401,2.21,-2.8661,-2.4956,-2.5775,-3.1938,
8.2248,0.57305,2.5325,3.722,11.0948,-0.26158,-1.523,1.7237,-1.2735,-0.57372,2.3675,-0.6586,1.6745,-4.6889,
-1.4277,2.4669,-5.3322,1.5705,6.0908,-4.1023,0.49657,-1.2722,-3.1253,-4.3957,0.77922,1.7915,1.5741,-0.069252,
-4.9572,3.5239,-1.879,-0.21072,5.4842,-1.2048,5.0463,0.49158,1.1598,0.9295,-1.9189,3.371,0.75648,4.9964,
-7.793,-3.6772,-2.4889,-2.8494,-0.38828,-5.2296,-2.2461,0.70282,-2.0431,0.15106,-0.59866,-1.4108,1.4342,-0.84681,
-8.0488,-4.6618,-5.9555,-0.027341,-4.4628,-9.0137,-1.3885,0.90162,1.2126,-0.58136,5.4628,5.6633,5.9275,-1.0374,
-13.8326,-1.0074,-8.9724,-1.9537,-0.33841,-4.1343,0.62327,0.84775,4.0325,0.41762,0.79694,11.5907,0.26939,1.9176,
-19.7513,-2.3935,-4.5774,-6.6574,-2.2463,-1.4759,-2.7888,2.7248,3.7904,2.8029,-1.1793,4.1461,-0.22894,1.3203,
-25.3149,-7.0704,-3.8211,-8.6678,-13.6809,-10.5466,-1.175,3.0435,6.4552,5.0446,4.6758,-0.44074,7.9797,0.27703,
-27.1705,-5.682,-4.0735,-4.7735,-13.342,-13.77,1.7878,1.8968,6.5501,4.7422,7.2876,7.2982,6.5369,4.1166,
-23.8528,-5.5821,-3.1062,0.092612,-7.962,-8.3645,0.47524,2.024,5.9161,1.8066,2.7529,4.6912,2.0473,1.2185,
-21.6987,-5.0062,-1.2326,2.7381,-6.7613,-0.3908,-0.27663,1.1792,4.8378,1.9387,-1.9915,-2.5802,2.1654,-1.9881,
-23.7713,-2.2955,3.1799,1.6098,-9.2479,-3.2596,-4.1162,-3.2301,-3.6474,0.85826,-0.426,-1.9432,2.9996,-2.8329,
-16.0782,0.73433,6.8455,1.9951,-3.3904,-7.8843,-3.8692,-1.1077,-3.9105,-0.63903,0.56389,-0.38033,6.676,-2.1806,
-10.2928,5.029,5.4704,5.2499,5.9723,-3.5549,-1.7089,2.3332,-1.2658,0.84557,-7.6651,-3.25,3.8653,-0.12153,
-18.3521,2.3169,5.1424,3.0069,1.2754,-1.8956,-2.088,-0.21711,-0.70764,2.2409,-4.3125,-4.0187,0.25917,0.84986,
-19.4202,-3.3657,4.5929,-3.1995,-3.8628,-6.8435,-2.2042,-2.3732,0.058176,-1.0271,1.4894,-1.6084,0.0026564,-1.3703,
-5.481,1.416,7.4508,0.12594,10.4689,-3.7813,1.5435,2.3484,2.7058,-1.6884,-6.5537,1.1392,1.6897,-0.56518,
-3.9468,3.5002,11.1011,2.2875,15.9871,-1.8672,3.1386,-0.92549,0.37427,-1.3461,-8.8115,-3.9904,1.8293,-2.2185,
-7.0845,2.3259,11.8809,2.1503,14.0635,-2.7195,1.0216,-5.2087,-2.0583,-0.30099,3.2863,-6.6435,-0.69104,-1.6034,
-0.63362,2.4275,7.0709,1.7801,18.2812,2.987,1.6834,-2.2449,3.1266,-1.0061,4.7761,-2.1477,-1.3727,4.0366,
3.2608,2.7638,0.37967,0.70941,22.9689,5.7003,5.4388,-1.6283,0.52845,0.5001,-1.7769,-1.0545,0.63785,5.2402,
3.3061,5.7315,-1.3303,4.2823,27.6167,7.0455,4.3896,-0.80721,-4.0825,2.6393,-1.4294,-3.6428,-0.12332,1.3104,
-2.6766,5.3873,1.6422,6.9176,14.8727,4.6944,0.75198,1.6516,2.9111,-0.89332,1.5487,-3.906,-1.562,-1.6601,
-9.2651,4.1,0.097213,4.0922,-0.11962,-0.40776,-2.1859,2.0342,4.1825,-4.2139,-0.95459,-0.77931,0.45973,1.3314,
-0.75527,0.23881,-5.452,-0.25091,13.2642,-0.62403,0.11466,0.70707,0.31632,-0.82785,-0.65612,2.4007,3.0835,4.8671,
5.798,-4.3548,-3.9196,-5.2971,26.5683,-5.6483,4.6875,-1.0221,0.5383,-1.0191,2.0348,0.56944,-1.1989,0.95968,
6.173,1.932,3.305,-3.292,32.5668,-12.2992,4.6472,1.2084,2.6752,-2.1628,0.70742,-0.18763,-2.8142,-2.2309,
5.5617,2.539,2.8657,-2.3716,25.5511,-17.1049,5.0913,-0.55182,2.2737,-1.7926,0.42355,-1.3817,0.97008,-1.8566,
3.7817,-2.916,-0.68066,-0.78305,24.4999,-15.5967,5.2678,-1.4826,0.20907,-1.2026,2.8087,-1.7807,3.322,-0.29891,
-2.7119,-4.6694,0.80621,1.1919,23.5121,-13.6968,4.9519,1.0167,0.1963,-2.5769,0.22984,-3.1203,1.6767,-4.1371,
-3.9953,-3.4247,2.6863,-3.2177,25.958,-15.2849,8.029,-3.8648,4.0411,-2.904,0.21628,-3.8968,3.9864,-4.3711,
-5.9249,-5.3886,-2.0544,-9.0504,21.2668,-18.4654,6.8242,-5.8023,0.18348,-2.0067,4.3004,-1.494,4.4704,-0.97555,
-8.7025,-9.6446,-7.4748,-9.7127,12.0371,-15.6702,6.6561,-0.87438,-2.961,1.2472,4.2838,0.28284,3.9612,-0.19366,
-7.6986,-5.2098,-4.134,-3.8275,14.2071,-8.9457,3.846,-3.7147,-0.37346,-0.2741,-4.1686,-0.21629,1.7951,-2.1105,
-6.2726,-0.55863,2.8627,2.1869,14.3188,-8.8906,-0.24096,-4.9378,0.13111,0.22451,-4.4002,-0.20308,0.24134,-0.5378,
-1.3167,-2.6945,3.896,3.2608,6.952,-8.5984,0.49663,0.9023,-1.5638,0.93417,-1.0029,-1.396,1.4319,-2.1925,
3.824,0.60066,4.3856,6.1986,6.7758,-5.9133,2.1541,2.053,0.2173,-1.7734,-5.0401,-0.10737,3.0332,-2.7839,
-0.020901,1.2875,6.7736,6.5496,7.0926,-10.1378,2.7477,-3.6138,1.4096,-2.8719,-5.943,-0.82383,-0.76418,0.99811,
-2.9117,-0.71793,6.8495,6.1566,2.3287,-9.5295,2.1009,-3.8789,0.84305,0.19251,-4.6221,-1.2563,-1.6822,4.7951,
-2.9782,-1.398,3.7872,3.1359,-0.9447,-5.8245,-1.6403,0.45141,1.9975,-0.54217,-4.104,0.024112,1.0696,4.2662,
-0.38961,-1.7963,2.1135,1.0198,1.0399,-7.4035,-2.5065,-3.4323,1.8774,1.4188,0.96271,-0.94143,1.9695,0.63552,
4.4545,-3.1347,1.5048,3.3687,6.7621,-6.4773,-2.3561,-9.0109,-1.6097,4.7077,1.3869,-2.8136,-2.487,-1.8127,
1.2949,-3.4284,3.3429,0.27432,2.9826,-4.1603,-1.7326,-6.0599,0.41535,2.0153,2.7502,-1.1983,-0.89172,0.70638,
-7.2189,-1.0535,2.9009,-2.8756,-6.1148,-8.008,0.058629,-1.599,1.1133,-1.2391,5.7182,0.56083,-0.11532,5.7252,
-4.3754,-3.4007,0.7989,0.18921,-0.44508,-7.0453,-0.42705,-1.5033,-1.8458,0.76366,2.4828,5.8296,-2.0364,9.2383,
-0.97964,-10.1863,1.956,-0.062884,6.0893,-3.0074,1.768,-3.1001,3.3264,4.333,3.5389,10.0593,2.1834,6.5146,
-0.67966,-7.8876,1.1155,-5.603,2.1088,-4.9959,2.385,-4.1191,4.3324,2.868,3.5678,2.9481,2.7755,-0.3835,
7.3149,0.056979,2.7358,-1.6514,3.669,-3.0094,2.4829,-0.25701,2.8667,1.4906,-0.74367,-2.7724,-0.52449,-3.494,
8.0813,-2.5975,1.8488,2.5451,2.726,-2.1055,-4.1736,2.41,1.4898,-0.28605,-5.7607,-1.4008,-7.9648,-4.4896,
6.8735,-1.2364,-0.43177,3.5977,4.2496,-0.77431,-1.2721,2.5063,1.6414,5.2747,0.12853,5.1907,-6.2821,1.3234,
5.2558,-0.92124,-5.949,-5.5363,2.7898,-3.3789,4.3479,-2.7053,-0.14383,2.7891,4.2186,0.78194,-4.6994,-0.9252,
11.2072,1.5444,-0.28966,-2.3118,5.5143,1.1623,5.0511,3.2414,1.7928,-2.1987,3.9653,-1.1929,-3.9358,0.094411,
7.8832,-3.128,-1.9595,2.8886,2.0504,1.8155,0.16828,0.39582,-1.4483,-0.86153,0.59388,0.083471,-5.3868,0.81165,
1.1437,-2.9403,-5.6983,0.78708,-1.4471,-2.1494,2.5688,-2.52,2.9774,7.8673,4.897,5.3811,0.72095,5.1017,
0.35194,-2.5227,-8.0077,-6.2498,-8.3499,-8.5286,2.1735,-0.19986,2.5575,1.8514,2.4338,1.925,-0.52737,0.69804,
6.5976,-2.8535,-6.0813,-4.4288,-10.2593,-8.9809,3.9715,0.77623,0.47567,-1.6339,1.3237,-0.11894,-0.97789,-3.2,
6.9246,-1.477,-3.0653,0.41625,-10.849,-7.7187,-0.84657,-0.95757,-1.2401,4.0073,1.0033,3.0217,-1.1602,0.12503,
3.6171,1.5037,-0.47078,-1.0545,-10.1981,-4.3635,-2.724,1.9924,2.6912,7.1413,0.46071,4.7686,0.35569,3.9739,
0.26679,-1.7198,-4.0582,-6.0532,-4.0423,-4.3425,1.5371,-0.29653,3.2524,1.6514,0.67427,1.8311,2.9857,1.0842,
0.73249,-1.6164,-2.3682,-1.8334,0.056362,-4.5641,1.4446,-4.1354,-1.7633,-2.3039,2.5622,-0.20669,-0.08576,-1.3908,
4.5452,-1.0377,4.5226,2.6152,-3.8036,-4.7724,-1.0524,-2.4412,-5.5136,-2.1659,-0.96618,-1.6408,-4.9016,-2.2719,
11.0214,0.47082,8.5895,1.012,-0.20096,-2.0759,3.8314,-0.36608,-5.6652,-0.58966,-3.8003,2.7964,-4.1251,-0.68933,
8.4319,-2.9314,3.2539,-9.1716,1.2574,-5.3254,4.0839,-6.1287,-2.9147,-3.9287,-1.1621,0.21853,1.907,-2.0938,
3.5874,-7.0941,1.1303,-8.6211,-0.26412,-8.8622,2.3929,-3.8326,0.15247,-1.2827,0.83602,-7.5076,7.5774,-0.039719,
3.8541,-2.3301,2.5087,3.9473,5.5363,-3.5102,3.2132,4.1097,-2.7492,4.0969,-1.6247,-4.1651,5.1946,4.7829,
1.213,-0.74429,-1.9804,3.2283,5.2044,-5.2276,3.9845,0.9713,-0.65583,1.9232,-1.527,0.90578,2.9549,2.568,
0.65779,-3.1098,-1.8616,-3.2324,2.4815,-3.4681,2.7811,-0.051302,3.2399,0.36106,1.9391,-0.11289,4.2234,1.4496,
1.8236,-4.1285,0.90169,0.57743,6.4304,3.2481,0.92698,3.0853,0.39442,-0.86544,3.028,-0.82902,3.2471,1.6036,
5.8116,-4.6041,-2.7683,4.1577,5.3212,2.3299,0.14847,0.24859,1.5756,-2.0188,-0.28762,-1.9846,1.3646,0.30206,
9.8014,0.49307,-4.5302,1.4979,2.5916,1.7079,-0.34261,2.1616,6.3015,2.4409,0.69374,-3.312,4.6574,2.2124,
7.2851,-1.9466,-3.776,-3.4122,5.8106,0.64157,1.1242,4.9245,4.4776,4.2226,3.5451,-6.4873,3.896,1.1158,
8.5348,-4.9633,-0.89876,-4.4128,12.4518,1.326,1.7797,-0.43268,-0.37076,0.35384,0.68083,-7.3033,-3.8095,-2.5671,
17.182,-2.7376,4.94,1.6368,17.0071,7.9951,0.70878,-2.8166,-1.3126,2.261,-4.1805,-1.5622,-2.6169,-0.0026928,
16.151,-3.0552,4.6436,2.9849,15.9867,6.5515,-1.2619,-1.2018,-3.162,-1.2491,-4.894,-0.50464,-1.0136,-2.8946,
12.2895,0.98446,1.9548,3.7696,21.294,5.676,-1.6682,5.6192,-4.9005,-4.5486,-3.1541,-0.9563,-1.9171,-1.2751,
11.7931,1.6483,-0.33162,0.89237,17.8472,9.4328,-3.7372,5.0411,-2.4373,-0.17832,-2.7239,-1.6223,-1.5611,6.2732,
12.2908,-2.548,-5.8553,-4.2229,5.9306,8.144,-6.1645,-1.2869,-1.0858,0.073343,-0.39129,0.16228,-2.1903,4.692,
14.6866,-3.1182,-5.7452,-0.35429,4.8511,4.0397,-3.1433,-0.0051161,-1.2618,-1.1361,0.83725,2.8039,-2.7821,1.7587,
8.5027,-3.895,-2.026,0.63129,2.6319,1.3872,-0.54462,-0.0048101,-0.7042,-1.068,-2.105,0.70745,1.2413,2.6175,
4.3772,-1.0102,-1.6635,1.7982,-1.1414,4.4374,0.69335,0.23691,2.9535,1.6472,-0.29152,3.7985,5.2641,3.6657,
6.043,-1.9137,-4.9379,0.24432,-3.4829,0.79695,-0.31235,0.22246,1.8122,-0.37958,0.69007,2.1245,0.60974,-2.339,
9.7777,-3.4861,0.90196,0.47109,4.1979,-0.93809,-0.53457,3.8245,-1.912,-1.0797,-1.0386,0.30985,-1.596,-0.9934,
9.1913,-3.7586,6.1503,2.8527,6.3564,-1.8459,-2.4305,3.1134,-6.6177,-1.979,-4.8329,0.29103,-1.0181,0.030304,
11.0502,-1.1227,1.4427,3.1637,-2.2199,-2.2173,1.0896,-0.44813,-0.91781,-0.89618,-1.1682,-0.69053,0.0071002,-2.8638,
8.6999,3.042,-6.1157,-1.1235,-5.7021,-2.3252,1.7471,-3.5543,2.2703,0.36242,-0.85715,-4.2645,-1.1986,-2.9329,
0.46471,-0.033068,0.035849,-2.9847,-7.7706,-9.8987,1.1604,-6.7159,1.1697,-1.1056,1.6044,-0.6342,0.80149,-0.82923,
-2.696,-7.5027,6.5419,-1.6001,-19.1143,-17.7405,-1.5606,-8.4819,-0.10504,-3.2082,2.7132,0.60892,1.4765,-3.9123,
5.9017,-0.54479,4.4619,3.0754,-11.4597,-4.8657,-2.1901,-0.50095,-2.2681,-0.8463,-0.10045,-3.5247,-1.2629,-1.9905,
12.0551,6.9597,1.5431,-0.24259,3.3279,9.5262,1.0748,2.1802,-1.8911,-0.55455,-0.81778,-3.5547,0.98155,-0.66582,
7.9573,3.1677,2.8963,-2.1562,12.8894,12.4494,-1.4003,-2.2894,-4.6701,-3.4138,-2.215,-0.44888,1.4046,-4.0003,
5.5519,-0.87901,5.6148,2.3117,3.9216,7.8463,-2.2799,0.74072,-4.8716,-2.7268,0.32828,1.506,1.3205,2.9884,
8.1111,-1.308,3.8319,1.6913,-3.0624,4.0008,-0.69707,2.1423,-1.687,-1.1172,6.5753,-0.030376,5.5799,8.5939,
7.6242,2.1447,3.6022,-1.3029,-0.95068,6.1711,-3.5475,-3.2886,-2.068,-0.086043,5.2167,-3.8852,3.3166,2.7754,
4.5159,3.7035,5.0731,2.8728,2.2401,7.0064,-4.5397,-2.3682,-2.6666,0.16032,-2.0859,-5.821,-2.4257,2.85,
5.2088,3.4808,5.2506,10.8952,-1.2692,3.693,-3.7854,5.4867,-2.507,-0.81363,-3.8894,-0.16908,-0.83393,7.9812,
5.3782,-1.0663,1.5611,3.4925,-5.0495,3.4714,-5.487,0.81869,-3.8029,-1.2467,-0.76355,2.2512,2.5901,3.164,
4.5736,-1.4843,1.9499,-0.57293,3.4487,6.1557,-4.6753,-4.5331,-0.20025,1.7201,-1.6821,-0.29401,2.9171,-1.3641,
2.8529,0.5325,0.38661,4.7636,8.062,1.9299,-4.8772,0.55962,-0.67017,-1.7575,-4.9556,0.20556,-2.5606,-1.7647,
5.0921,-0.94548,-3.9751,2.0679,2.7578,2.7782,-0.72797,6.3109,-1.1121,-2.6157,-3.2118,0.67539,0.48534,-3.5868,
7.6791,-0.40636,-1.8084,-3.3588,0.66413,7.4323,4.1364,5.9322,0.88326,0.91567,-1.0909,-1.2933,5.7589,0.4853,
3.8436,-1.3465,0.71043,-3.6394,3.9985,2.1654,1.9598,2.6835,0.82958,-1.0677,-0.061317,-1.6979,1.5567,-0.026443,
1.2029,-2.7115,0.6678,-0.52856,5.6873,4.928,-0.5679,2.041,1.7441,0.92456,4.2807,0.33218,0.49945,-6.7733,
-0.31553,-1.585,-4.193,-2.425,6.3099,10.8988,-3.9083,-5.3127,-0.28871,3.7612,0.64939,-0.16968,-1.4587,-6.8488,
1.8726,0.19734,-4.1824,-1.0747,9.5467,7.1119,-1.5046,-13.9116,0.9339,3.2945,-0.11248,0.081463,-0.64829,0.55151,
2.4833,0.90863,-0.79771,1.6411,8.2508,3.07,-0.20882,-14.2819,0.15474,-1.0003,2.0637,-0.64656,-1.8145,-1.1686,
2.3346,1.3363,2.1424,2.5067,3.8996,5.2957,-2.1247,-12.4609,-2.7468,-1.4224,-0.47051,-0.1256,-1.2234,-2.5445,
3.8815,-0.91329,1.7727,-0.77692,0.53188,3.2909,0.17216,-13.4007,-1.377,-0.13202,0.76278,-0.35926,1.5013,2.1877,
2.2021,1.0699,-3.6365,-4.1045,2.9103,-1.2451,1.1259,-8.2581,-0.33025,1.3219,3.6093,-1.3018,2.8573,3.0205,
-7.0886,-0.92246,-8.7205,-6.7508,-1.1207,-4.5448,-0.86982,-6.3164,1.1358,0.76068,0.50068,0.22257,3.1678,-2.4634,
-8.8324,-4.0006,-6.992,-4.1761,-3.2226,-0.65673,0.86959,-8.5885,2.7549,0.95647,1.1935,4.789,5.6292,-1.1103,
-7.5794,-4.9656,-8.2599,-8.0231,-1.8242,1.0701,-1.352,-7.8325,-0.061714,0.17595,1.8451,3.2961,3.1221,-0.32051,
-10.0169,-6.1137,-9.6923,-13.3266,-1.2326,-1.4044,-1.753,-5.4341,-0.057782,-0.31677,2.6985,0.20604,2.4526,-2.2297,
-12.3084,-4.3006,-8.1469,-6.26,-0.67668,1.5719,0.76275,-5.108,3.3197,1.1485,3.9828,4.0501,5.198,0.7966,
-13.7391,-3.8016,-5.9709,1.105,0.087283,4.1291,2.4038,-4.0787,6.7359,3.7307,7.3593,6.4586,5.1271,2.4356,
-13.879,-7.9123,-1.2743,-2.3357,1.5278,-1.9037,1.2957,-4.7983,0.54718,0.61432,4.5071,3.6605,1.445,-0.12069,
-7.9848,-6.2325,2.4178,-2.9187,3.6056,-3.4764,1.4591,-5.7154,-5.5114,-0.14567,0.13957,1.272,1.1171,1.0916,
-5.8183,-2.7248,-0.86097,-2.0205,2.6661,-1.5804,1.6123,-5.6132,-1.0832,1.0686,4.2283,-0.97375,3.2195,-0.66088,
-7.6386,-1.8387,-1.0505,-0.69417,4.1931,1.6472,-1.1358,-5.5176,-2.2232,-0.68298,4.2158,1.2536,0.8569,0.58383,
-5.0111,-1.4869,6.0029,4.4092,5.1468,4.2,-1.3086,-6.3914,-6.1872,-2.8112,-2.0627,0.93788,-0.88129,2.718,
-4.2283,1.9765,4.6781,4.6268,0.98141,2.0195,0.6979,-3.598,-0.51354,-1.6784,-4.8317,-2.0111,3.0277,-1.3017,
-5.9028,3.3042,1.9878,2.9034,3.815,2.8631,-2.236,-0.97157,2.4098,-1.5777,-2.1312,1.002,4.2923,-1.2232,
-6.7537,-1.4736,3.5555,1.0417,9.1295,6.3065,-1.3787,-3.5646,-1.3504,-1.7242,-2.7264,1.1831,0.90155,1.9835,
-9.2407,1.5071,6.7164,2.9072,7.6177,8.3381,3.0425,1.4698,-0.30532,2.7178,-4.0089,-2.2626,0.84722,0.41798,
-15.9174,2.8627,4.8674,-0.15955,3.3044,3.0173,0.93156,3.3095,0.19516,2.5549,0.5702,-4.0548,1.7605,-2.017,
-12.07,-0.20134,1.683,0.81412,6.4804,3.8003,-2.9805,0.70061,0.18322,0.47322,1.0177,0.04468,0.20883,2.4421,
-3.6331,1.257,0.61774,4.1397,10.4299,7.9106,-5.2122,-1.7516,-1.274,-1.9653,-10.1306,-0.43993,-3.6601,2.7775,
-2.6917,1.4226,5.1604,0.27638,9.5636,4.303,1.6084,-0.9231,-0.47423,-1.124,-6.3893,-4.9928,2.1031,-1.0041,
-4.9403,-0.10906,3.8865,-1.6689,9.9536,2.1166,4.4044,-1.3501,-2.374,-1.057,3.635,-7.1038,2.4589,-3.8364,
-3.9208,3.5131,-0.4443,1.0826,8.6333,6.5691,-1.8856,-1.9922,-3.4366,-1.7167,1.248,-3.5439,-0.82191,-0.95486,
-2.9629,4.025,1.7517,3.669,7.3922,7.38,-1.5317,-3.5597,-1.5434,-2.3369,-4.3707,-3.5725,-1.0138,0.78943,
1.0717,2.8196,3.5748,6.8233,7.913,6.4553,2.417,-2.3818,-3.8609,-4.6063,-6.0362,-5.7682,-5.2913,-5.0421,
5.587,4.3375,2.1553,7.137,6.2331,8.7193,1.0665,0.89438,-4.3524,-6.0174,-7.8434,-0.36069,-5.6969,-4.0169,
5.7339,2.6312,1.0619,4.7804,1.5206,6.7501,-1.8893,-1.5696,-5.0554,-6.1385,-8.8188,-1.3031,-3.9086,3.4552,
4.4253,1.9912,5.8186,4.4938,-1.4629,1.0422,3.044,-0.9933,-0.89542,0.014598,-2.5054,-3.6353,0.66397,3.7296,
-1.6248,1.8717,3.0594,3.7418,-9.5703,-4.3229,4.7896,-2.38,2.5323,-0.46867,1.0194,-0.52468,1.5885,-6.6171,
1.1238,5.3748,1.6705,7.6146,-9.2371,3.4082,-0.55946,1.3778,-1.717,-5.5022,-0.72944,2.1579,-1.1584,-6.461,
4.913,2.642,4.4626,7.6399,-6.2725,10.9167,-1.9719,4.1879,-4.5063,-5.1719,-2.6136,-2.3101,-3.4993,-5.1093,
-0.92541,3.2068,6.8464,2.6022,-10.9574,14.3591,1.2799,1.2855,-1.5843,0.68206,-1.2515,-0.96623,0.32658,-5.0437,
-4.0031,4.2195,4.2662,-0.68718,-12.4693,17.1132,0.96235,3.3773,-0.28421,-2.0102,0.02863,2.225,3.9222,3.6949,
-3.5218,-0.13084,1.3589,-1.851,-10.998,19.2197,-0.30046,6.7903,0.93791,-5.5048,1.7144,1.3684,3.4457,9.0166,
-9.5772,-2.0514,1.2772,-4.1503,-17.5692,18.0663,-1.247,6.8646,2.3277,-0.354,6.9139,4.1786,4.203,7.5115,
-12.3772,-0.96423,0.23643,-1.4914,-21.8175,14.5719,1.2382,8.3812,0.26004,2.0776,10.3552,5.3739,6.3612,5.1328,
-4.6447,2.7086,0.94515,4.1417,-13.519,14.4205,1.4049,9.5651,-6.2635,-0.69861,-0.148,0.47216,2.846,4.5834,
-2.1967,1.8234,4.5041,3.6525,-11.0204,12.3502,-1.8127,5.8579,-7.5751,-2.8261,-11.4675,-0.2793,-1.9043,2.1395,
-1.342,-0.9371,6.403,1.7461,-15.4209,8.9581,1.4296,7.1936,0.83356,-0.004965,-0.8971,4.7991,4.7179,0.80582,
-2.7075,0.56516,2.6446,3.5693,-14.4954,5.0464,-0.1027,4.8341,-0.66294,0.4775,0.60276,1.6189,5.399,1.7216,
-3.0272,5.3517,1.5218,6.7298,-9.7695,7.6359,-1.5426,-1.7227,-3.0331,1.4129,-5.2182,-0.88859,0.25454,2.1004,
-2.6046,2.3791,2.6358,5.1207,-12.7988,8.865,-2.6548,-1.3784,-2.1282,-0.35906,1.1209,-0.11238,-1.9299,-3.5692,
-3.4122,1.7544,1.9953,3.3672,-14.9229,6.4049,-3.4599,-0.33182,-3.4467,-2.7481,2.0175,-2.9977,-0.3683,-4.3194,
-3.9304,4.3007,2.117,5.8167,-8.9658,8.6717,1.3275,-1.9987,-1.5523,1.5146,-1.2366,-0.16674,3.2692,1.0015,
-4.4179,-0.5371,-1.1435,2.8162,-7.2231,6.9466,-0.92181,-4.0479,1.192,-1.2278,1.9706,2.0124,0.90391,-2.1917,
-1.7425,-0.022712,-0.11082,-0.727,-9.1996,6.0476,-1.3482,-2.8409,5.9409,-0.18961,7.1553,-0.036284,1.3318,-3.9886,
-2.843,-0.26255,0.61896,-2.3704,-11.2994,3.9973,-1.0266,-3.876,4.8614,1.5088,2.146,-1.2392,-0.43553,-2.0623,
-5.0828,-2.1752,-1.8285,0.66367,-9.6573,5.2035,-3.3753,-3.6432,1.6774,0.45368,0.089262,1.727,-2.3374,0.47183,
-4.2961,-0.59821,-3.1653,2.0703,-7.6318,6.3378,-4.1369,-1.9786,3.5047,-0.53763,2.4938,1.1417,-2.1973,0.44329,
-1.8687,2.5712,-3.2159,0.74083,-7.8968,4.2703,-4.6116,-0.65459,2.0896,0.21798,-0.30692,0.35029,-4.2347,0.65812,
-0.55152,-0.71682,-3.2641,-2.9188,-6.6999,6.6654,-2.6479,0.10781,1.2411,1.8919,1.8809,2.9801,-3.7394,1.8237,
-1.0004,-4.5302,-2.5864,-3.2256,-2.4415,11.0857,-0.078446,-1.3449,2.1305,1.2965,5.1425,0.87313,-2.0688,0.74995,
1.4698,0.080394,-0.98492,3.2344,-0.36683,8.0104,-2.9663,-3.6743,-1.3713,0.2548,1.4595,-0.14312,-1.4627,-2.1871,
3.7917,1.0394,-2.3721,5.4505,-6.1294,2.2272,-3.2702,-5.3821,-1.2891,-0.24288,-1.0382,1.3117,0.071313,-2.5378,
2.6001,2.4231,-4.1577,1.2673,-5.7614,4.022,-1.146,-1.6849,-0.73001,-0.22808,-0.97615,0.26892,-1.8614,-0.93952,
4.6133,1.5548,-1.2572,-0.014023,-4.2109,5.4679,-3.7284,2.0316,-2.8554,-3.8298,1.2516,-0.95251,-4.4008,-4.0166,
3.6136,-3.5997,1.9518,0.22779,-15.2862,2.0063,-0.37118,-0.25947,0.44944,-2.8767,2.8637,0.79187,0.92493,-6.4267,
0.50471,-1.4555,0.38839,-4.6061,-14.369,1.8859,3.5075,-2.1721,-0.059464,0.66993,1.2461,0.26243,1.3514,-2.6667,
2.1612,-0.16335,-0.84021,-5.5351,-1.6965,5.3882,4.0199,-0.83694,-2.2251,1.835,2.8581,0.0057135,1.5113,4.9651,
-1.1015,-6.1791,-3.4409,0.34066,-15.6947,1.9319,-2.7287,-0.06336,-0.40433,0.51963,3.8919,2.1745,2.1435,7.3183,
-2.4817,-7.7365,-4.1988,2.2484,-28.8531,-1.559,-6.9038,0.42238,0.5838,1.9347,-0.198,2.0441,1.051,0.61271,
8.9952,-3.1748,0.15074,-2.9479,-13.0219,0.22204,-1.9101,2.5664,-2.1026,3.5056,-1.3912,0.71635,0.26481,-3.0397,
13.0355,-5.1537,0.3829,-7.3506,1.8594,-11.1192,-1.5543,-2.1671,-8.0022,-1.7662,0.37928,-1.0141,-0.95614,-5.0263,
11.0478,-6.0495,1.0831,-4.2582,15.8479,-22.2624,4.5648,-3.2421,-1.4963,0.99113,3.4898,-0.71204,3.6807,-3.5196,
13.5184,-1.5892,0.29471,-5.208,28.997,-15.8655,6.46,-1.8428,1.727,2.137,-3.709,-1.8746,2.7365,-1.6212,
17.2868,5.0139,1.0002,-5.6187,41.3572,-6.4776,3.4211,-1.491,-2.9561,-2.0888,-9.0303,-2.0033,1.8492,-2.7295,
15.0443,6.4003,1.6635,-0.21987,37.3088,-10.6683,7.3132,-1.1606,-4.466,-3.6507,0.42957,-2.1236,4.3898,-5.6987,
11.4906,0.47263,0.84034,3.8907,33.383,-11.7154,6.6334,-2.2962,-6.3677,-4.637,1.1267,-3.2015,-0.45332,-5.5978,
11.2831,-2.9302,1.2719,-2.1273,30.8981,-3.2997,5.753,-2.1585,-3.0931,-0.019989,-2.3154,-1.0812,-0.90805,-2.8518,
9.4013,-1.5491,0.47264,-10.9178,22.0548,-8.6453,3.7211,-2.7518,0.70793,3.1147,-2.4169,-1.7393,2.2799,-3.4036,
5.9447,-0.0098696,0.92622,-5.9239,16.8747,-11.5011,2.5335,0.78772,2.1117,4.856,-2.7543,0.77522,1.6612,-0.78922,
3.4186,-5.5531,0.6299,0.45683,10.8007,-11.5337,1.6584,0.017323,1.7438,2.8772,-3.7941,1.9338,-0.60787,-0.98307,
9.239,-2.5688,3.2432,5.4911,14.2501,-13.0113,0.83596,-1.6709,2.8445,-0.42893,-3.8074,0.61245,-2.2586,-3.5752,
12.5411,2.406,4.4949,3.7154,15.3232,-13.6769,0.7858,-2.535,5.0839,0.56114,-2.6151,-2.7987,-3.0874,-4.325,
9.6194,0.092484,-0.8365,-4.4613,7.4144,-11.651,2.4259,-0.69568,5.5023,4.6248,-0.28861,-4.8,0.71323,-0.45007,
7.1143,-1.3591,-10.427,-9.496,1.6672,-11.4336,1.7982,1.7564,2.7618,3.8656,3.5849,-4.0298,3.0808,1.5054,
5.4822,-2.0009,-10.5248,-9.1672,0.84376,-14.8449,1.4493,-0.51813,4.7652,1.9465,4.5751,-4.9929,3.6193,-2.2004,
5.8761,1.2526,-0.4933,-3.556,5.8548,-10.3393,4.9778,0.23586,5.6846,2.5526,-1.243,-7.3448,3.1607,-2.3093,
7.211,2.3825,0.25943,0.75496,5.2623,-8.5139,4.9198,1.4268,0.28161,1.1944,-2.3735,-3.7709,0.31975,-1.4476,
8.7066,-1.6168,-6.0226,-1.7005,-2.7662,-12.8233,1.7326,0.85969,1.229,4.0152,3.0715,3.6862,3.1931,0.56741,
2.8815,-4.8942,-9.5177,-12.2037,-4.0465,-14.464,2.1106,1.29,3.0835,4.2562,3.3692,1.0549,4.4478,1.9796,
-5.7273,-9.1801,-9.6697,-21.8356,-1.1524,-15.7656,3.189,-0.47482,1.6934,-1.543,0.99763,-3.106,2.0115,-0.30854,
-2.7325,-9.8346,-10.2949,-18.8385,-0.84225,-14.0967,1.7928,-2.1336,-1.5417,2.165,-0.74945,4.5522,0.20359,0.43287,
8.5186,-2.9775,-5.3388,-3.6082,3.0647,-6.502,2.1672,3.779,-1.9311,6.8554,-1.1864,9.0993,0.67331,2.3351,
14.2745,6.3601,6.5511,10.7083,11.5579,1.6009,2.0372,4.5166,-3.7434,-3.1965,-2.0791,-0.60522,-3.705,-4.5535,
19.4433,12.4862,14.1116,16.8147,14.4796,4.6381,-1.2183,-2.7445,-4.7239,-8.0666,-2.6779,-1.292,-7.0983,-2.5933,
12.0102,3.06,4.1063,6.1649,-0.36846,-4.7988,-5.9655,-8.8459,-5.8867,-3.7257,-3.4811,3.1238,-6.6724,3.3469,
3.5768,-0.016151,1.4493,3.8668,-9.0234,-8.8496,0.65896,1.8078,-1.6771,3.7282,5.8868,7.2747,0.95878,4.5924,
4.3263,-0.014952,3.7727,2.1888,-8.4818,-7.3546,1.5835,2.181,-1.5767,2.0585,6.9796,3.464,3.7935,-3.3962,
13.9489,0.22714,7.162,3.2625,-0.50087,-1.3694,1.2473,-3.9752,-2.2048,-0.71637,1.9818,-3.7335,2.8428,-2.9512,
13.3532,3.3468,8.4193,6.2,3.6263,0.88166,0.44934,-3.4954,-6.652,-2.8423,-2.2347,-6.6427,-1.4254,-1.0867,
6.0443,3.3872,4.7809,3.1767,1.7217,0.58802,1.1455,-0.63486,-3.6016,-1.9491,-3.3057,-5.0391,-1.5806,-2.7089,
3.7532,0.29164,2.0837,-2.7983,3.0645,0.070575,2.5233,2.296,-0.01126,0.5782,-1.1794,-0.88015,0.44223,-0.13605,
0.39474,-3.8239,3.1637,-5.7641,5.0495,-6.4418,1.1664,2.399,-3.1443,-0.17963,-2.3142,0.85966,3.549,0.11285,
2.0581,-2.8709,6.5891,-2.7669,8.8441,-8.7062,5.194,0.085634,-1.2682,1.5186,-2.898,-0.87938,7.4336,-0.13465,
4.5861,0.91679,6.9171,2.4608,8.5545,-4.0865,1.7488,-2.0887,-1.4331,1.6685,-3.9294,-2.9958,0.96204,-0.36754,
3.8288,1.3435,6.5018,3.7592,2.2564,-1.4314,0.19787,-0.03538,1.5452,3.0144,-0.80134,-1.37,-1.0241,0.61815,
-1.2214,-4.5215,3.2194,-2.7331,-2.699,-6.6479,2.114,-0.033029,1.4527,1.3875,-1.235,-2.7338,-0.4805,-0.86497,
0.056929,-7.3839,2.3031,-4.2561,3.4882,-5.5259,1.7464,-3.1643,-2.2501,-0.86515,0.52613,-4.2568,-2.6211,-2.5001,
8.7306,-1.1558,2.1649,2.7481,5.2071,0.59069,0.67728,-3.4564,-0.66882,-1.2952,4.8329,-3.0371,-1.4995,-1.8681,
8.9299,6.8675,-1.5801,6.1984,-1.6126,4.1704,-5.3887,-0.59767,1.5407,-1.4587,-1.9643,-2.1317,0.2775,-1.0329,
-1.2473,5.4911,-1.9673,4.3803,-3.9264,2.9559,-4.1015,-0.56181,0.48393,0.075119,-6.1853,-7.3069,0.74278,-2.4172,
-1.1722,2.7513,2.0069,3.1534,0.64775,1.8144,0.48315,0.43553,-0.99159,3.9268,-1.958,-7.8326,1.1804,-2.2719,
9.5032,4.9966,3.3325,1.5181,0.12672,3.634,0.45393,4.266,0.032457,-0.64693,-3.2865,-1.5778,0.62739,0.75667,
11.8253,3.2508,1.2046,1.9092,-4.7014,4.3801,2.8371,2.0821,-0.93359,-8.803,-5.4997,-3.8935,2.5182,0.2291,
6.0541,1.8504,-1.5192,5.4096,-4.1783,3.3939,0.49767,-2.1406,-5.9393,-7.552,-5.8926,-6.311,1.1618,-1.9538,
4.7265,3.1852,-2.3919,5.085,-2.9638,3.6722,-4.3529,0.39792,-4.1371,0.13199,-3.6109,-2.5583,-4.2106,-0.39077,
5.1665,4.1996,0.40292,-0.28106,-3.0267,1.2829,-1.9223,3.0258,0.20917,2.2935,0.70336,2.1751,-5.1625,3.7307,
1.2408,-0.14996,0.61948,-5.3261,0.77013,-2.4097,1.3263,0.1925,-2.4552,-0.013535,1.8662,-0.60716,-1.72,1.8194,
-2.9307,-6.1667,-0.14036,-3.8015,5.3034,-1.5415,1.0059,-1.988,-1.1023,-0.25392,1.9954,-1.7753,1.0345,-1.9049,
-3.9599,-2.663,-0.37313,2.4524,1.8524,-1.2078,0.70439,-1.1456,3.5433,-0.96135,3.5627,2.9107,-0.71453,1.3426,
-7.097,-0.57527,-2.7611,1.3411,-3.0797,-7.4026,1.1443,-1.559,2.3666,-0.9039,6.2412,4.664,-0.1895,2.2262,
-4.7428,-3.915,-1.6313,0.29658,1.4437,-6.9582,0.11154,0.46296,0.77814,3.4889,6.3489,2.4558,4.16,-0.31777,
-5.9047,-2.2341,-1.0513,3.1711,1.8392,0.20798,-2.7874,1.3993,-1.1965,0.86919,-0.29875,0.38045,2.9467,-0.29848,
-13.9861,1.5154,0.69901,5.15,-3.8148,0.43647,1.9591,1.5563,2.4907,-3.2803,-1.0037,0.11666,2.529,1.8886,
-17.7267,1.6655,-1.5121,4.6,-3.8268,-2.7232,2.0825,-0.22431,-0.31029,-4.2888,-0.2206,-1.5776,0.2076,-1.8401,
-11.1192,1.8067,-1.1802,3.6009,5.8025,5.3942,0.27056,0.03034,-5.3531,-2.344,-0.4481,-0.75978,0.43634,-1.4885,
-9.247,0.97519,5.3979,4.108,-0.088988,2.9011,0.013132,2.6794,-4.3088,0.92989,-0.18048,1.9371,3.0615,2.216,
-13.9948,0.91668,8.4485,10.128,-14.1836,-8.3602,-1.4339,3.001,-3.5683,2.8023,-0.16965,4.231,2.8778,2.083,
-9.7809,1.8258,6.0131,11.9307,-11.7663,1.7826,0.58054,1.3745,-0.46195,4.5621,0.80463,3.0131,3.6692,0.99393,
-13.2912,-1.8994,-0.8549,1.3327,-4.5522,15.7757,-1.1413,2.0151,-1.1574,1.6371,-0.93065,-1.2653,0.79775,1.175,
-20.9294,-2.026,1.3656,-1.3984,-12.7152,18.565,-0.34991,6.9559,1.5636,1.7803,3.7045,3.8723,3.4014,8.0944,
-27.8688,-5.2789,-0.64457,-1.3145,-26.0523,18.4155,-4.6672,-0.2099,-1.4227,0.70913,1.554,3.64,-0.1771,0.86029,
-25.2326,2.2685,-0.12373,5.5131,-34.4916,31.4105,-7.7614,-0.67947,-3.2653,5.0051,-3.3597,2.4575,-3.0588,-2.5655,
-25.8878,3.8196,3.9806,6.8695,-43.7505,32.0565,-5.609,1.5305,-3.3108,2.0533,-3.3991,0.62279,-3.5986,2.1672,
-24.5755,3.8314,3.5008,6.2164,-37.992,30.3741,-6.4777,2.1615,-3.3531,1.2072,-2.4722,0.34446,-3.1417,2.2786,
-22.619,4.5654,3.2907,6.3253,-32.3382,29.516,-6.571,2.9962,-3.1519,0.65281,-1.3596,0.80572,-2.9532,2.6238,
-20.5387,5.015,3.3345,6.187,-27.2645,28.4681,-6.4175,4.0215,-2.7216,0.37244,-0.072946,0.99858,-2.5348,3.1895,
-19.3064,5.1961,3.1344,6.2977,-22.2541,27.7239,-6.5144,4.7445,-2.5583,-0.13184,0.41336,1.4206,-1.9008,3.4801,
-17.9073,5.125,2.7052,5.6787,-17.7859,26.3017,-7.329,5.1825,-2.646,-0.84706,1.1117,1.0942,-1.5456,3.5125,
-16.3507,5.2997,2.0607,5.8201,-13.8264,25.2053,-8.3353,5.8356,-2.9694,-2.2427,2.0091,1.0287,-1.4531,4.2654,
-18.5031,7.1509,-2.6422,0.89114,-17.5763,23.9339,-9.5224,8.1371,-3.0322,-1.3848,-1.7269,2.6542,-0.64297,7.6249,
-14.5002,6.7221,-1.5196,4.2124,-16.0396,23.4625,-3.1663,6.6847,0.042448,2.0725,-1.623,-1.3616,-2.5324,3.7931,
-15.7996,5.5951,-3.1154,11.9131,-12.4261,25.6699,-1.2893,7.4887,0.28064,3.1532,0.16134,-0.074866,-4.0679,4.7706,
-16.5388,3.5727,-6.5439,7.1014,-12.4035,23.4068,-4.8274,3.9059,-1.9054,-2.0972,2.3208,3.0631,-3.1004,2.3152,
-16.2696,3.599,-4.4643,-3.2073,-16.2388,14.0484,-5.2608,3.4304,2.3065,-0.76629,6.2787,1.6743,-0.26309,-2.8851,
-21.56,-0.95499,-5.1601,-6.871,-19.6028,5.4925,-0.60664,5.153,5.5424,3.1363,8.3128,2.5379,-0.72947,-1.2655,
-19.7844,-3.3083,-6.2972,-4.5305,-17.4625,3.7167,4.7324,6.772,6.1742,4.8759,11.67,5.7601,3.1707,0.73813,
-20.7665,0.02394,-7.124,-4.0175,-15.6916,2.2886,-3.0236,5.6425,-1.6683,0.96811,5.4264,1.3169,3.2216,-3.4033,
-21.9309,3.8787,-7.1787,-0.88417,-12.8219,4.0797,-6.2164,3.376,-4.4605,-0.536,1.2446,0.27378,1.0999,2.1033,
-13.384,2.6818,-6.2658,3.9894,-6.7502,6.7272,-1.0229,4.1375,-1.7825,-1.9499,1.6517,1.7034,1.0342,4.3875,
-4.6274,2.7617,0.6174,9.7753,-0.80158,8.0106,2.1717,7.0226,-2.3987,-2.0741,-0.13444,-1.0501,1.6948,0.99052,
-2.1804,5.2478,11.4268,13.2868,3.826,7.7712,4.6932,6.3605,-2.0136,-1.2265,-0.8495,-2.1917,2.7986,1.6547,
4.4579,8.5478,18.695,17.0689,9.622,13.3304,5.6164,1.881,-5.0263,-2.8401,-1.0395,0.10847,2.8717,2.7602,
6.6006,8.035,14.1988,16.5267,10.9729,15.4227,5.2794,3.2144,-5.2071,-0.74154,-1.4595,0.10196,2.6994,3.5585,
-3.195,1.5278,1.5368,8.5457,6.6996,8.9542,1.8297,6.155,-1.7607,-0.45608,-1.1305,0.8192,3.2608,5.9965,
-9.9934,-2.1795,-0.2429,4.8992,0.75374,3.355,-2.8601,3.6163,-3.8245,-3.08,0.14237,0.046921,-1.5149,1.5392,
-6.9832,1.3257,8.4488,5.5696,1.1904,3.1542,-1.2422,0.98924,-4.0769,-0.96704,-0.34811,-1.4022,-1.9059,-0.96332,
-3.9131,4.3792,6.2546,2.102,8.5908,5.616,0.51953,1.1704,-0.21734,0.29627,-3.9426,0.3692,2.7877,5.12,
-4.1603,-0.22189,-4.7255,-0.91668,8.5573,4.3147,-0.9579,3.5108,1.242,-0.68583,0.63224,0.82898,3.5848,3.849,
-3.9107,0.75575,-5.8882,1.0665,1.7774,1.6457,0.54583,5.7102,0.20357,-0.16229,5.897,0.77924,2.4058,-1.6846,
-10.1835,6.736,-2.8838,2.2078,0.46588,2.7523,-0.69221,3.6809,-1.9778,0.088418,-1.4467,0.0095889,1.5381,2.0319,
-12.7062,1.2701,-4.398,-2.5039,3.089,0.8999,1.0365,1.7723,1.7558,1.2879,-0.63657,0.73191,1.6868,3.1152,
-9.7742,-3.8675,-3.893,-6.4513,0.25236,-4.6975,0.73362,-1.9492,-1.0004,-0.47633,0.12475,-0.51706,-3.4758,-3.5794,
-0.27016,2.872,3.33,0.9252,5.7808,-0.31873,1.4125,0.3369,-3.11,-0.68871,-1.088,1.2012,-1.0981,0.25035,
1.9154,1.4946,3.3714,1.1109,10.9774,-0.54035,3.9791,-0.88838,-3.1641,-1.8525,0.18232,-0.075948,1.1371,2.8866,
-1.3327,-0.764,-2.3742,-2.571,10.078,-2.1949,2.0533,-0.11194,-3.2155,-1.9825,0.89451,-1.7584,-3.5106,-2.8299,
-0.52988,-1.4415,-2.9547,-2.1757,6.3398,-0.376,0.2429,-0.34619,-0.85338,0.30561,-1.3283,-0.44805,-2.5766,-0.0085842,
-2.4263,-6.1753,-0.84921,-2.5271,0.17485,-6.138,3.6028,-2.7355,1.1265,-0.19466,-0.76669,1.0251,-0.49382,5.7765,
-6.1371,-10.1435,-0.79871,-8.6425,-3.2101,-12.5186,4.3505,0.32065,1.5404,-0.18298,0.72557,2.8918,0.017746,-0.83705,
-2.3944,-6.6424,0.69547,-8.1235,-6.8739,-7.9111,4.0895,2.7115,2.4123,2.7205,1.6459,2.7183,3.3911,-7.0533,
1.1235,-0.94145,-2.2385,-1.8517,-7.4255,-3.5803,0.46986,-2.2716,-2.071,-0.8174,-0.38081,0.14482,-0.18702,-4.7022,
-0.63093,0.80249,-5.2375,-1.0175,-2.4005,-2.6424,-2.692,-1.4122,-0.7417,-2.4554,0.8471,2.3055,-1.3809,1.6057,
-2.7622,-2.8611,-7.0924,-5.0538,-2.9794,-3.6887,-6.1455,3.7342,0.5081,0.34306,2.0016,1.4443,0.87115,0.30455,
3.67,-0.27928,-4.2567,-3.3043,-6.6572,-0.57528,-3.3666,4.9564,-1.4506,0.32248,1.3991,-0.088628,1.7832,-1.16,
6.3421,-0.2623,-1.109,-1.1781,-4.3296,0.42333,-0.75427,-0.64339,-5.2197,-4.5174,-0.61283,-0.08354,-1.2161,-1.5725,
2.5871,-2.6571,-1.5244,-2.5536,-0.21343,-2.0122,-3.1191,-1.0872,-5.8708,-4.7282,-0.094127,0.8858,-3.0713,0.45,
-0.21942,-3.7028,-2.638,-5.5337,-2.8515,-7.4348,0.6832,2.1118,0.025246,1.5812,4.973,3.002,1.6925,5.0025,
4.373,-3.2396,-1.7568,-5.9246,-1.9575,-8.194,0.88317,1.7436,0.74663,2.6912,2.5054,1.6166,2.3138,4.4614,
11.8236,-0.15298,2.6871,-3.1592,4.9086,0.01014,-3.0264,-0.28895,-3.1548,-2.7727,-3.4297,0.55553,-2.6455,3.2296,
10.8733,2.9897,5.6594,-3.2101,2.445,3.143,1.7349,2.3795,1.6143,-2.3654,-2.5006,0.76317,0.16481,3.7587,
1.0618,0.88211,1.4634,-5.4281,-4.4507,-8.6147,3.0771,4.1649,3.9275,1.6329,-0.42233,-2.1751,3.5289,2.5694,
1.7213,-2.7865,2.5807,-5.3436,-0.086258,-12.1954,2.1689,4.6381,4.8969,3.222,6.1107,0.12475,5.4866,-1.2005,
4.5103,-3.101,3.3899,-5.5047,1.8471,-5.6789,0.11076,3.8777,5.0853,0.61874,9.1183,3.9739,4.6752,-2.0925,
2.0705,-2.192,-1.3932,-6.3797,-0.43288,-0.27693,-3.5113,0.029608,2.6105,0.82258,4.4738,3.0121,-0.18504,3.5766,
4.3564,-1.0962,1.5829,-5.0326,0.55742,2.6322,-2.3363,0.99216,4.8645,1.7371,5.6517,-0.54309,-0.65588,2.8801,
7.4695,0.4154,9.2007,0.089592,4.8623,1.028,-2.1961,2.3789,2.6444,-2.7054,1.9381,-2.4387,-2.5447,-5.0055,
5.575,-0.57339,7.2024,1.5305,10.3551,-3.8539,-1.5824,-2.1026,-1.853,-3.0251,-3.4808,0.60015,-4.3202,-6.6333,
1.8661,-2.9496,0.98568,-4.3459,5.3951,-3.1408,0.44071,-0.53021,0.66876,2.4586,-1.3438,3.4562,-0.20463,-0.45076,
2.2363,-2.7724,-1.0014,-8.4237,0.73326,3.3144,-1.5142,3.8402,3.5209,0.38315,-2.2272,3.2491,0.77175,4.3968,
9.3329,1.2504,6.771,-3.58,6.4738,6.972,0.98728,3.6097,3.3097,-3.0143,-3.0579,1.6079,1.6898,7.025,
16.7267,6.237,12.3907,-1.678,14.5211,6.3127,4.5435,0.74161,-2.4325,-3.5563,-2.633,-1.1397,-0.098844,2.9881,
17.4103,4.6575,10.9244,-4.7103,15.8194,4.7286,4.9938,1.4205,-1.0813,0.27247,-3.6803,-1.3123,-3.7083,-1.7705,
10.3402,-5.0219,2.3147,-8.5255,5.4698,-0.13439,2.525,2.0581,2.599,1.461,-1.2904,-0.99259,-3.7268,-1.4233,
5.8634,-4.2382,-3.6087,-8.014,-1.1249,-1.0906,-0.51905,3.3809,1.4787,0.89136,4.0897,-0.93304,0.35319,0.10838,
5.2706,1.5592,1.6695,-6.3278,-0.33403,-1.2662,0.71739,1.9728,-0.77914,0.59691,3.6034,-3.0462,-0.87329,-3.9955,
13.3905,5.5635,10.4874,2.488,4.2653,2.4252,1.8796,-0.3143,-0.49142,-1.1257,-2.1565,-3.1044,-7.3284,-3.5148,
15.9613,7.6396,6.9658,9.5693,5.4554,7.1002,-0.16156,1.6325,1.9484,-4.4328,-2.5092,-1.4721,-6.4065,1.0347,
4.3983,1.3966,-4.5393,-2.0921,1.7541,1.8539,-0.15187,-1.8399,-2.0249,-8.0232,-0.43049,-2.3481,-4.5759,-2.4019,
2.4472,1.5538,-5.9542,-10.4027,-1.0027,-2.3551,2.5088,-1.0066,-2.1443,-1.5163,2.2469,2.3725,-0.68635,1.3577,
1.8182,0.49645,-8.9712,-8.8144,-11.5476,-4.1418,-0.53448,1.4642,0.39421,2.4313,0.18366,2.2299,1.2833,4.6504,
4.1195,1.4312,-9.8789,-1.0545,-5.5519,3.8197,-0.019789,0.41222,-1.5574,-1.0888,-0.79146,1.132,-3.6142,2.9254,
8.9337,3.5143,-5.671,0.21383,7.5555,7.6877,1.6684,-1.2995,-7.0078,-5.1211,1.9074,3.7154,-6.0487,0.58045,
1.4081,-0.31223,-4.1257,-5.3428,-4.7082,-1.2095,1.3271,2.3936,-1.5259,-1.6805,7.8182,5.1795,2.2677,2.2326,
-5.6661,-5.3549,-5.0832,-7.6731,-9.0052,-4.7521,2.9349,5.8657,4.1095,2.0355,8.0727,3.6637,4.3011,6.1962,
2.1457,-6.2385,-3.5734,-10.8282,5.6351,-4.708,6.8562,0.45206,1.6938,-3.6303,5.4187,-0.65349,-0.054351,3.1734,
3.9449,-5.8644,-2.8768,-14.9994,19.397,-16.4773,2.1063,-4.3955,-2.7464,-7.2686,3.6476,-4.4709,-1.0152,-2.8018,
2.5034,-5.2716,-0.053119,-9.5197,25.2228,-23.9243,1.2565,2.3757,1.0338,0.63933,5.5979,-0.10483,4.1074,0.9817,
2.112,-5.196,-0.77306,-6.7796,26.3607,-23.212,5.2787,1.0281,-1.6795,-1.0865,0.20057,-0.82167,2.1735,-0.7642,
1.2622,3.0697,3.8533,-3.2391,33.215,-15.3115,3.275,-4.577,-7.1222,-5.6004,-7.765,-4.3876,-3.5003,-3.8516,
1.6686,2.8853,7.4783,3.7039,22.5452,-15.8389,0.66814,-3.8202,-3.3206,-1.4082,-8.7456,-2.6783,-3.29,-0.72822,
2.5323,-4.0367,3.6551,3.4817,14.9255,-24.53,-0.81821,0.26492,0.73502,2.5327,-4.3644,0.37448,0.76329,1.7256,
6.9601,-1.143,2.7129,1.5856,26.8045,-20.8886,-0.52815,2.4182,-0.032441,1.1754,-1.4515,0.11104,4.3329,4.7551,
13.2912,2.2998,3.9962,0.044393,31.9453,-12.8866,3.3602,-1.1007,1.8979,-1.7869,-3.2924,-2.3055,2.6269,1.578,
13.699,3.3671,2.5516,1.729,24.0031,-12.3543,3.3995,-5.1324,0.097285,-3.3669,-6.2278,-3.3725,-3.0739,-4.5423,
12.6359,3.8882,5.0498,3.3122,22.3217,-15.2283,1.9905,-6.9934,-2.5599,-2.4418,-2.239,-4.8571,-3.1306,-2.5827,
13.083,1.4858,6.916,1.4263,27.0079,-16.4837,2.594,-7.7791,-3.6116,-4.4649,-2.3456,-8.6635,-0.2917,-1.2225,
13.9853,4.0477,8.6702,0.61778,27.5566,-10.9154,4.1255,-2.7331,-2.1896,-2.5098,-6.7842,-5.4921,0.44916,-3.8007,
10.0129,1.1535,5.9806,-4.9627,21.8056,-9.5374,3.1549,-2.8098,-0.37122,-0.1898,-4.6901,-1.5474,-2.2291,-3.3314,
10.135,1.3253,3.4526,-6.8345,20.7383,-8.7242,0.31449,-3.8465,-1.0723,-1.8656,-0.31136,0.71458,-4.265,3.8579,
10.2498,4.3793,2.0401,-2.3271,19.253,-7.9597,-0.90967,-0.96465,-0.2846,-1.9947,0.91216,0.43074,-4.732,1.4572,
6.5016,-2.3912,-2.1794,-4.3564,12.0725,-10.6154,1.7962,2.2269,5.2759,0.77634,0.13476,-1.7645,-4.6893,-1.7635,
5.1474,-6.1039,-5.4229,-9.8798,8.4559,-12.3888,2.6526,2.0931,6.4058,2.1758,0.60884,-1.1765,-2.9614,3.6452,
6.5258,-2.6046,-3.8927,-7.1179,6.7432,-13.3327,2.2524,-0.68404,3.3699,0.83995,4.1873,-1.8292,0.83123,-1.6356,
7.8215,-0.76112,-3.9001,3.1911,4.1695,-10.3636,0.43006,1.5266,0.99854,0.066652,4.6589,-1.4781,-0.90587,-7.0807,
6.8702,0.24842,-4.6304,6.8565,1.5087,-5.8854,0.40426,3.8452,0.93863,0.54459,-3.3329,1.9851,-5.1898,1.5389,
4.2884,1.4388,-6.5217,-0.062828,-0.75097,-8.1834,3.9954,-1.4468,1.1233,3.6454,-7.2303,1.1426,-2.7088,4.58,
-1.5123,-0.33498,-8.2998,-4.6386,-7.2136,-14.6825,4.4788,-2.5655,-0.14918,3.1855,-1.2531,-0.131,0.10457,-6.5412,
-6.0011,-4.8944,-3.7042,-3.6371,-8.4678,-13.0784,6.379,3.6142,4.4393,0.82496,5.3298,3.492,2.7496,-6.3895,
-7.3285,-4.3595,-1.3126,-4.624,-2.4163,-12.0525,5.2732,4.1205,4.4137,0.53427,0.4305,1.5955,2.3434,-0.46275,
-3.5141,-1.6876,-1.2336,-1.9362,-2.7531,-12.2934,5.4394,3.3911,0.29269,-0.46143,-0.55943,0.5357,3.6493,-0.91669,
-4.5085,-5.2018,-1.883,-1.0971,-6.2033,-8.9047,4.8716,2.4647,-2.3764,-5.0135,3.5715,0.74452,1.7431,-5.4414,
-5.925,-2.7203,-0.56492,0.17379,7.425,0.54783,3.3742,2.5576,-0.064452,-2.0614,3.5984,1.423,-0.048447,-2.4636,
-3.8825,-2.7983,1.1564,-2.488,15.8978,-0.6901,3.8949,2.1634,3.0731,1.196,0.73117,-0.34939,3.0877,-0.62835,
-4.1315,-3.5942,6.8712,-0.89242,2.8924,-6.9157,3.6612,2.5155,2.8883,-0.80437,0.6873,0.1535,3.8663,-2.0369,
-12.3197,-1.2094,7.6642,4.2228,-4.271,-10.5981,1.2724,2.6056,0.54583,-0.51469,-1.0412,1.8315,1.4652,-4.5662,
-14.4728,-0.17275,0.45567,2.041,8.0366,-9.48,1.6782,1.0032,0.99524,1.9261,-0.97892,1.2395,3.3057,-3.3282,
-10.471,0.56051,-2.7047,1.1956,7.3134,-6.2601,3.7467,2.6302,2.1408,2.5339,0.76704,-0.039737,4.7946,-0.95887,
-13.6991,-2.8471,-2.5424,1.6058,-7.2254,-10.2228,3.5219,2.4724,2.4943,4.31,0.23908,-0.51975,3.0606,-2.3476,
-9.021,-1.7126,3.3945,2.9555,-1.3687,-10.5736,5.7205,1.8419,5.2369,6.9437,-0.73936,-1.9346,3.8411,-1.2426,
-0.52555,3.4518,9.6983,3.9835,12.8134,-5.3599,6.1006,0.5261,2.2712,1.4654,-3.8285,-10.7366,4.3335,-2.3734,
1.6751,5.4138,9.3578,2.0572,20.601,-4.7973,3.5654,0.7355,-1.9625,-4.648,-1.9115,-9.8514,2.8682,-4.8821,
6.1539,4.848,4.699,-2.6455,31.6574,-7.6425,1.6642,-0.03153,-3.0495,-3.6463,-0.59156,0.13966,-2.3651,-5.7944,
12.7746,3.8343,7.0681,-3.692,43.858,-10.7994,8.0719,-1.2345,0.26692,2.1161,-0.79704,1.3366,-2.9461,-7.134,
15.1413,6.7375,13.6337,1.109,53.6391,-11.8384,12.6495,0.044659,1.456,2.7123,-1.4723,-5.7333,0.84588,-6.4648,
20.0177,10.1894,10.4053,0.078364,53.7949,-10.6464,7.5515,1.488,-2.0061,-2.2709,-5.7226,-8.282,1.2768,-2.7027,
26.7701,9.3373,7.6121,-0.16753,54.6648,-7.3563,8.7859,1.1575,0.28368,-1.4115,-4.6561,-4.1694,2.4057,-2.2993,
20.3437,9.7414,11.9756,6.1095,44.6365,-8.3607,10.1869,-1.322,-3.1078,-1.8088,-1.9666,-3.4369,-2.0769,-7.464,
16.9541,11.3258,12.9445,8.3942,37.8607,-9.0641,7.8887,-3.4117,-6.0546,-7.2436,-1.6074,-8.2926,-5.568,-9.6675,
15.4545,7.7542,7.3471,7.4082,36.071,-7.0745,6.451,-1.7612,-3.2812,-8.2557,-5.8493,-8.277,-1.8594,-6.1949,
5.1272,4.1555,0.39883,4.7945,28.8451,-6.4091,2.4486,-1.8965,-4.2896,-5.1088,-9.5961,-0.30853,-2.9532,-3.654,
-1.4472,2.942,-1.5535,0.65072,23.7401,-7.9525,5.1944,-0.81857,-1.6219,-0.46376,-0.82542,4.0485,-2.7757,-1.5068,
-9.3139,-2.7783,-8.45,-3.9678,18.2186,-13.983,5.1235,-2.4565,-0.3195,-0.1952,1.3935,-4.1484,0.52407,-2.1396,
-6.1042,-4.2986,-5.774,-0.59652,13.5098,-9.5289,5.0568,1.3061,2.8329,3.4322,0.58676,-3.6587,5.0721,1.1221,
1.7341,-0.90745,0.11626,-0.31953,7.6378,-7.7516,3.0664,1.469,0.01209,2.5031,-3.0636,-1.2693,-2.2218,-0.63225,
1.8713,6.619,5.1712,3.3148,9.3489,-10.4198,4.0879,2.5859,-0.71177,2.1122,-2.6386,-1.4344,-2.3297,-1.7994,
-6.9179,0.43708,5.3426,0.22365,2.0393,-17.0257,3.8424,1.9486,3.1871,2.9491,-1.5167,-0.38422,4.5587,-1.2093,
-8.4312,-8.2665,4.0575,-4.1283,-4.8322,-16.4865,-1.2091,2.7957,2.9956,3.7362,-0.94351,4.9412,3.8031,0.30933,
-8.4073,-3.9136,3.8145,-4.3626,-2.1317,-8.7482,-3.5462,2.628,-1.04,2.0663,1.5232,3.6809,-0.76345,-0.19116,
-5.9746,4.034,4.0676,3.13,0.88829,-5.3312,2.9331,-0.4222,-0.97762,-0.4683,0.9499,-0.87873,-1.1996,-1.626,
2.5785,3.3095,2.8592,9.6907,-0.12933,-5.9757,3.239,-4.7352,-5.2577,-3.3327,-9.2304,-2.2723,-4.5021,-3.4566,
6.2802,0.70128,1.7238,8.6273,3.7353,-3.2066,1.5989,-3.4867,-4.4599,-1.686,-9.1581,-2.6179,-4.2319,-3.2492,
3.9752,3.5513,1.6204,3.7714,9.7777,0.36029,-0.42568,0.096911,-1.2998,0.34332,-0.4139,-1.4965,-3.4961,-2.5723,
2.5314,2.6148,0.80023,2.3398,4.6113,-1.3486,-1.123,-0.63226,-3.8733,-0.88258,-0.1481,2.2083,-5.4555,-1.2127,
-1.959,-2.8445,-4.0687,0.75336,-5.3061,-6.5705,-0.57396,-1.5584,0.21522,2.0627,0.82488,-2.2623,-0.7896,0.30611,
-6.6615,-5.5661,-9.609,-6.0405,-7.8801,-8.5864,-2.4675,2.3917,7.4334,1.9387,3.6677,-8.3933,-0.26006,-0.67635,
-6.9852,-8.8475,-10.7196,-13.1499,-8.1306,-13.1327,-2.0785,2.4892,7.7103,-3.7213,3.6886,-7.1668,-2.896,-1.8411,
-2.4685,-5.6654,-2.1225,-10.6739,-4.9915,-10.1756,2.1438,1.1343,6.0426,-0.84666,2.2622,-2.1573,2.8211,2.367,
1.295,-2.6739,3.5485,-7.3819,0.3697,-3.0573,-0.15397,-1.5849,2.547,2.8196,-3.8991,-5.6433,0.48316,0.53774,
4.5916,-0.10311,5.7459,-2.1185,4.2041,0.98274,4.1938,0.92059,5.2865,3.1326,1.1554,-4.3401,-4.8482,-0.94055,
-0.022254,0.86695,1.0624,-0.5456,-1.3508,-1.9687,1.5316,1.3473,1.5948,-0.91179,2.5318,-2.152,-5.5217,-0.40219,
-3.1544,-0.8723,0.75767,-0.75338,-6.3314,-0.16339,-5.0678,2.4717,-1.1524,0.34821,-2.1994,-4.6739,-0.61109,-0.61902,
-3.6885,-2.9891,3.3633,-0.9496,-8.1207,1.5336,-3.0769,4.0102,0.60396,2.0141,-3.2727,-8.9733,-2.7436,-0.82285,
-4.1896,-0.15822,0.99281,-0.16926,-8.8383,-2.1738,2.1698,3.0472,-0.15517,-1.2398,0.53955,-2.8908,-4.2662,-1.0144,
-2.0105,1.779,-0.51302,-1.1234,-15.0569,-5.8998,1.5572,2.3819,0.33607,-2.6117,1.471,3.0668,-0.15383,-1.9179,
0.27973,1.9137,1.205,0.14926,-14.3944,-5.3048,-0.22342,3.4443,0.55687,-0.2858,-4.1608,-0.73219,-0.8675,-2.0438,
-4.0758,-0.12978,-1.7598,1.5861,-8.7105,-4.5046,3.1644,1.7914,1.9697,3.1058,-0.53673,-4.0627,-3.226,-1.9212,
-6.0004,-3.255,-9.608,-2.124,-12.2852,-8.3314,1.7697,0.47907,4.985,3.6428,6.003,-5.0242,-1.8272,-0.60061,
-5.6404,-4.506,-8.0676,-4.4072,-22.1534,-9.76,-4.1215,1.4142,4.2035,1.4956,5.6428,-1.3483,1.1745,-0.082635,
-6.9892,-3.9947,3.2627,-1.0092,-22.5114,-7.4871,0.22315,1.5703,3.2284,3.0931,2.6531,1.8656,3.2737,-0.31864,
0.66075,2.0298,10.2975,3.3899,-9.5914,0.1927,7.9228,0.99393,0.62436,1.4615,-2.3266,1.7539,1.1488,0.18264,
6.1649,3.595,7.0288,1.0171,-5.8826,2.8325,6.2423,0.69355,-3.0283,-5.1339,-4.3564,2.8537,-1.5714,0.41242,
-1.6768,-2.6462,2.0273,0.71509,-11.5552,-1.4348,-0.15821,1.3748,-4.0519,-3.6211,0.0023827,3.4054,-3.6463,-0.33523,
-6.1554,-2.7284,2.1467,6.2158,-12.5487,-5.4461,0.092711,2.4976,-3.5678,0.69402,0.7256,1.9962,-3.6685,-0.074148,
-2.4121,0.8093,6.3562,4.3966,-17.5808,-8.0119,3.9435,0.90153,-1.9075,-1.7582,-3.1748,0.91214,1.8543,-1.034,
-1.3031,2.2075,8.8673,4.1328,-15.0797,-4.6386,2.2607,0.84743,-2.7569,-0.68839,-2.5019,4.2323,3.1893,-0.97153,
-1.9478,-3.4686,1.3459,3.6439,-3.8106,-2.6731,0.43826,1.0376,-2.3505,2.9683,-1.1465,4.7013,-0.61752,1.7379,
-1.1082,-6.8761,-10.0633,-3.0825,-2.8593,-4.2002,2.0985,-1.676,0.44138,2.0671,2.5375,-0.16077,1.5885,0.91046,
-2.0056,-2.6072,-11.3877,-1.4517,-7.9904,-1.5378,2.9369,-0.1292,2.825,0.97875,8.6517,1.7771,5.3495,0.85583,
-8.8749,-4.6197,-9.4994,1.7691,-10.6437,-6.0248,2.038,3.0118,2.8972,0.19735,7.8919,3.3579,5.7522,1.5276,
-9.3068,-7.235,-7.9651,-0.26525,-9.0412,-7.5915,0.46949,3.3135,-0.16918,0.66745,5.0083,-1.6638,4.9246,1.436,
-5.6149,-6.56,-3.3898,-0.97224,-13.0781,-5.931,1.1642,2.8733,1.0463,-0.095502,2.5382,-0.8411,3.4243,3.519,
-11.5449,-9.0589,0.18756,-2.8426,-22.4167,-12.324,0.61197,1.2546,2.4293,-3.4647,2.8678,6.4402,1.2902,1.3796,
-8.6829,-5.864,1.8638,1.4256,-15.5279,-2.1843,-1.1117,3.8306,1.0785,0.84124,3.9012,7.2589,1.9359,-1.8364,
0.03305,-3.1014,0.78784,3.7504,-8.3295,12.0467,-2.973,0.22659,-2.3605,2.2368,-2.1176,-1.3711,-2.0364,0.68413,
-1.174,-0.26442,2.428,7.141,-16.748,25.4239,-3.0358,-3.8841,-2.942,-2.4769,-8.9802,1.362,-6.9756,4.7407,
-4.237,1.4387,4.9334,9.8456,-29.4814,25.1035,-3.5766,-0.51806,-1.5602,-0.64109,-3.3797,3.4494,-3.906,3.2509,
-6.3927,0.38826,5.1196,4.4344,-35.9075,32.2742,-3.3622,-0.0048107,-0.50245,1.8077,5.9819,-0.13176,0.18496,-1.2827,
-9.8658,-1.0811,0.95581,-3.5442,-33.7528,37.5688,-4.6065,1.9234,0.0098631,-0.22915,4.6589,4.2147,-0.3083,2.1685,
-11.684,-3.9083,-8.2606,-6.2241,-34.6202,30.494,-5.294,4.7006,-0.47266,0.26699,1.0049,4.4437,-1.2537,6.3772,
-10.9829,1.6284,-11.6213,0.89825,-40.2557,24.326,-4.9763,3.9366,-0.44476,1.6968,0.94458,-0.1612,-0.69651,3.102,
-12.2524,5.3873,-8.9956,2.7723,-39.2866,21.9024,-6.6062,-0.15622,1.5103,-3.7075,0.40574,-4.4901,-2.1012,-1.9046,
-4.0454,4.3407,-1.4665,2.365,-27.5292,20.8292,-1.1481,1.5404,1.1788,-6.1366,0.14043,-1.0876,-0.28791,-2.0313,
-1.8745,3.5984,0.55017,2.705,-27.8057,15.2411,-3.4894,0.48409,-6.1228,-5.286,-7.0984,0.90626,-3.1627,-1.9094,
-5.6184,3.8644,-0.9291,2.0608,-30.958,14.3266,-3.7624,-0.027351,-1.4171,0.81577,0.07597,3.262,0.88345,-0.34857,
-11.5481,-1.188,-5.6943,-5.2939,-31.9928,12.9849,-3.0545,0.45645,3.0065,1.2485,7.302,4.5123,4.6866,1.1184,
-17.1217,-4.0087,-10.1729,-7.8683,-33.4475,8.8313,-3.8351,3.8035,0.41595,2.6199,3.0075,7.1341,1.9953,2.0156,
-16.8175,-5.9376,-13.6601,-3.781,-35.0561,6.1321,-1.918,1.8879,3.5242,5.5959,2.1039,7.4292,0.18856,-0.27472,
-10.9877,-5.5814,-10.9118,-3.0718,-33.4346,7.2104,-1.8029,-0.15315,4.7591,2.8501,5.3522,6.0191,1.1411,1.67,
-7.9186,-2.3542,-5.4371,-2.8877,-31.9109,8.2238,-3.6232,2.2659,1.5808,-0.21324,3.1026,2.2837,-0.85577,1.5695,
-6.9613,1.1618,-7.5208,3.5523,-27.5857,12.0689,-4.8518,0.20201,-0.92398,0.76365,-0.93971,2.1469,-2.7324,-1.4165,
-8.4718,1.0916,-10.444,3.3392,-23.0385,13.273,-6.4889,-2.2207,-3.2787,0.71783,1.5268,7.8022,-3.0504,1.0786,
-10.1327,-1.1431,-8.6121,-3.3687,-21.415,9.3436,-4.4123,2.4923,-4.2872,-1.0125,5.533,9.0213,-2.6264,2.2188,
-7.5967,-0.59232,-5.6854,-0.27426,-16.2739,9.2647,-1.7372,2.8245,-3.5483,-1.9158,1.8263,3.1776,-1.9866,2.0859,
-3.2843,-2.9671,-1.9701,5.0446,-11.923,6.2984,-1.6332,-2.6474,-1.8889,0.12756,1.2346,-0.86963,-0.42142,3.8887,
-7.1846,-3.9939,-1.1285,0.64458,-15.305,3.7518,-0.32994,-0.80135,-0.57029,2.771,6.2222,0.87023,1.2911,2.9324,
-13.0203,-0.38008,-5.3994,-3.7326,-19.6894,4.4904,-1.2742,1.1752,-1.9826,0.67678,6.813,3.7098,1.2134,-1.582,
-8.8648,-2.2857,-5.5576,-5.4371,-16.0976,4.2212,2.1764,0.62248,2.9569,1.1179,8.3326,3.9694,3.551,0.92323,
-3.7537,-4.8001,-0.64482,-7.762,-9.5884,7.5829,2.7688,0.8261,1.5742,0.80983,3.2529,-1.8124,-0.27752,1.5907,
3.7026,4.6472,8.0712,2.8269,-2.7464,15.3228,3.0848,2.2226,-2.3764,1.7253,-2.2447,-1.7034,-2.1888,-3.3252,
8.5421,7.5018,9.7561,11.0929,1.5158,14.6449,0.73054,0.88437,-4.403,-1.0293,-2.351,1.0499,-4.7091,-3.8486,
7.0653,1.7491,6.2787,6.089,0.9429,12.8019,-4.1335,-0.13301,-7.5133,-4.342,-3.6562,-1.4232,-7.8005,4.0951,
6.1594,1.1622,4.9376,2.3492,-2.4881,12.5161,0.93472,-0.60697,-4.17,0.25687,-3.9187,-2.7841,-1.5479,6.7415,
5.067,3.2616,2.9541,3.8955,-0.16968,7.1854,2.0839,-3.704,-2.233,1.9287,-3.4426,-0.92981,-2.6603,-2.0987,
7.655,5.476,1.8126,3.6618,8.5176,10.1288,-0.45169,-1.0717,-1.1347,-0.59716,0.13837,0.089849,-7.8033,-2.4547,
5.0268,2.4962,-1.9114,-3.5476,5.3552,9.2798,-0.66532,1.162,0.62038,-2.2483,1.3351,-1.1206,-4.6838,2.2721,
-2.024,0.41842,-4.2071,-5.2631,-6.5355,3.4206,-3.0358,-0.35373,0.58339,0.7784,-0.19147,0.39266,-2.9568,0.20734,
-6.9637,-5.1503,-2.7493,-3.2601,-10.2407,1.0462,-4.0589,-2.0197,2.2356,3.8652,0.061445,3.5026,-4.9485,-0.528,
0.92543,-4.1184,-2.3434,-2.8235,3.1482,3.1526,-1.1638,-0.21132,4.7526,2.9104,-2.5938,4.0153,-4.8926,1.1904,
8.8239,1.6726,-2.9259,-0.48474,13.3234,4.6505,-0.37086,-0.92177,3.7443,-0.39751,-4.6071,2.0874,-3.8759,-1.5318,
4.4381,-0.35598,1.5879,-0.45566,1.4368,-3.3413,0.61526,-2.3127,4.9659,3.9647,1.4539,2.4441,-1.7151,-1.9223,
2.9667,-2.504,0.76999,-5.4898,-7.5673,-5.3098,0.81954,-0.0045716,2.9809,7.342,3.5356,2.5387,-1.8534,0.84434,
4.4762,1.2614,-3.3738,-6.8478,-3.4981,2.9623,0.047236,-0.24549,-1.2955,0.87614,0.19021,1.1813,-3.4292,-1.3753,
4.2071,7.4522,-4.1357,2.2401,-1.36,6.159,-1.4019,-0.23076,-1.2178,-1.587,-2.2313,3.5205,-4.1878,-1.2932,
2.7499,6.2827,-4.6105,3.7929,-1.5189,4.1022,-3.0045,-0.45789,-2.3495,-0.2865,-1.8565,3.5507,-4.6594,-1.938,
7.1646,4.7004,-1.2003,1.3962,5.0797,9.3997,0.79072,-0.67138,-1.4857,-0.028346,0.90646,1.1681,-2.6926,-3.0271,
7.9394,3.2129,-0.88758,6.3739,5.98,8.5945,0.50208,-0.87229,-1.1558,-1.7136,-2.7636,1.3392,-3.7361,-3.0866,
1.9198,-2.0411,-2.5216,6.2324,1.0415,1.0895,0.23099,-0.57899,0.11885,-1.8518,-1.3925,1.9817,-2.3071,-0.73227,
-2.5341,-3.3649,-0.44206,0.073897,-0.46683,-0.42217,1.6634,-0.061856,1.558,1.1514,3.0294,0.41656,3.6159,3.1681,
-4.3103,-2.6811,-2.8257,-1.8587,-4.2954,-5.6995,-0.36461,-0.54054,-0.94608,2.0466,-1.4907,0.87395,1.9531,0.56784,
-2.8466,-2.279,-2.8969,1.868,-5.2428,-8.9727,3.7549,-2.677,3.2083,4.5751,-0.67811,2.0266,2.0767,-0.18936,
-7.978,-4.5524,-0.31293,0.3101,-5.8923,-4.096,4.0115,-6.3728,3.0158,4.7826,1.2908,0.45873,3.8803,2.2321,
-12.561,-6.4484,-3.9096,-4.7702,-8.672,-2.163,3.0479,-6.2314,3.0758,4.7366,0.97235,0.67217,7.7453,3.7854,
-12.2893,-4.6153,-6.0851,-4.484,-10.0799,-3.4795,5.2752,-4.4113,5.7838,6.863,2.3598,0.63184,9.2087,5.487,
-10.3468,-4.0974,-1.1407,-0.59951,-4.8956,-3.5117,2.3076,-1.4955,3.7495,7.1741,1.0134,0.35296,3.1126,3.9524,
-7.7981,-7.7084,0.85591,-2.0098,-0.26353,-3.7829,-2.6516,-2.3701,3.0426,2.4049,-0.97607,2.26,-1.4129,-1.1054,
-8.5352,-3.6307,-0.40051,-0.20222,-0.0069773,2.9513,-2.7337,-1.9867,4.547,0.57358,3.1801,5.2576,-2.5332,0.16597,
-7.7819,-1.2435,-2.5459,2.9436,0.7168,7.8361,2.9742,-2.1087,4.033,5.6006,4.1943,4.219,-2.14,4.2536,
-1.0485,-4.0609,-3.357,-0.60744,4.0485,3.5096,5.2058,-4.3923,2.3452,6.2289,-1.8419,3.484,1.8448,3.5164,
-0.021501,-1.4074,1.6649,0.87504,7.6617,3.2988,2.0012,-2.6827,1.7224,1.9986,-3.1774,0.38264,1.7338,0.89511,
-3.8766,-0.84052,3.0108,6.1252,6.7196,5.029,0.91679,-3.0037,1.619,-0.53148,-0.57664,-3.0148,-2.2266,-0.60486,
-3.1618,-1.2723,-0.54405,5.2755,9.2087,1.835,-0.58425,-8.6083,-1.3704,-0.98176,-4.8806,-0.42353,-1.1289,-2.0146,
-3.4545,-1.1959,3.345,-2.2719,11.0668,-3.0954,2.3433,-9.538,3.0501,4.8617,-3.1415,1.5301,7.1336,1.4803,
-8.3085,-6.1856,3.3855,-8.6428,8.2334,-5.561,4.8541,-6.7964,5.5185,5.2932,-0.30169,-6.9976,4.0547,2.115,
-2.7487,-1.235,0.53103,-3.0632,13.7652,1.2804,5.2855,-5.1835,2.536,-0.085886,-0.042389,-12.1216,0.67768,0.78262,
0.5499,3.4187,0.25843,-0.22767,10.7699,3.8549,3.2814,-8.4877,1.6612,-2.2501,0.68328,-7.7787,3.7707,-2.3976,
-0.44742,0.80341,0.72486,0.26793,2.8928,0.24916,2.1206,-7.9784,0.59719,0.29501,-0.32204,0.40083,2.0982,-2.7357,
0.30278,-2.8602,-0.041996,1.9391,7.299,1.4395,3.1982,-3.4024,-1.6078,0.51874,-2.4719,3.5103,0.28511,-2.3306,
1.0073,0.92659,4.0581,2.0635,9.9943,7.3785,2.7651,1.3813,0.17567,-1.1998,-0.63657,2.0941,2.9193,-3.3958,
4.3213,6.6556,7.1891,7.2423,3.1282,11.7565,-2.703,1.7803,-0.79874,-2.5741,-1.0803,0.52268,-0.63028,-3.674,
6.9545,7.2201,4.3471,13.5562,0.047952,9.1229,-1.095,0.70965,-0.75128,-1.9377,-3.908,0.97325,-1.0744,-2.9716,
1.9575,4.6177,0.47089,8.1636,0.28604,3.0319,1.6223,1.39,1.4634,-1.0981,-3.4321,0.67389,1.1592,-3.0343,
-3.7035,-0.72055,-2.2085,-3.6544,-2.8641,-0.76544,-0.64424,-1.3445,0.65225,-1.2732,0.38924,0.87442,-1.5614,-1.165,
-2.0351,-2.6055,-3.5222,-1.9889,1.646,4.1007,5.179,-6.5665,2.5413,-0.71486,7.1143,0.82196,-2.914,0.8331,
-2.8768,2.8535,-4.2747,3.915,-1.3453,9.6397,4.8683,-4.2443,-2.4314,-3.564,2.3492,0.77264,-1.7753,-3.0733,
-4.6324,5.0924,-0.16187,2.2338,-7.5311,7.1332,-0.24456,-0.13327,-3.2499,-3.3502,-2.1301,3.1364,1.7057,-2.8889,
-3.8725,-0.99774,2.258,-0.31032,-4.6691,7.669,-0.71182,-3.4997,-0.16235,-0.73905,0.40782,2.4663,2.5677,-1.7517,
-4.3635,-5.0357,-0.5286,-1.9789,-3.6656,14.1988,0.53619,-2.0844,-3.2861,0.028191,0.14238,1.113,1.6902,-2.3695,
-3.6193,-6.6617,-3.8713,-4.7527,-9.7126,14.3107,0.021622,0.93268,-5.0171,-0.45543,3.5078,2.9744,3.0351,-0.78151,
-2.92,-2.4054,-3.1569,-2.5391,-5.7552,13.4523,-2.3896,-1.0512,-1.3419,-0.91027,3.7795,2.7962,2.8532,1.6757,
1.5933,2.0775,2.3349,3.88,5.1952,15.5374,0.16416,-2.4342,-1.2611,-2.3017,-1.7497,-2.1921,0.7536,-1.3171,
8.0056,5.5682,6.7746,7.7445,12.8372,15.3281,6.6618,2.7735,-3.8366,-1.4402,-1.4037,-1.8196,-0.014518,-1.961,
2.946,5.4751,1.7884,1.2543,10.3802,9.8291,4.0929,0.91989,-3.8473,-1.1128,-1.0781,-1.469,-3.1471,-0.63802,
-2.2924,0.56731,-0.4881,-4.8465,0.35696,7.0702,1.1958,-1.3049,1.4447,1.605,-0.77287,-1.1403,2.5853,0.6051,
1.2191,0.05088,1.4694,-3.5918,0.81748,4.2354,-0.32175,0.21964,2.8043,1.5087,-1.2084,-0.10758,5.3223,1.0507,
1.6283,1.9765,-0.54697,-2.412,8.4817,-1.3209,-1.2668,-4.1319,-0.25601,-0.51,-1.1359,-2.9932,2.1109,-1.4224,
0.56632,3.7856,-1.9604,-0.82103,9.4186,0.20416,2.6656,-6.2945,-1.205,1.4488,-2.514,-1.3678,2.9481,-0.37277,
2.9429,0.66643,0.085403,-1.2537,10.7821,8.869,5.8801,-1.0962,-0.16881,0.87993,-2.8451,0.64247,2.7716,3.506,
1.5611,-3.4714,-1.125,-5.2763,8.9294,8.0959,5.2864,1.1388,3.4567,0.10378,7.2075,-0.11898,1.4001,4.0185,
-2.8714,1.0757,-3.9496,-6.406,2.6091,1.3432,-1.7797,-0.85774,0.35727,1.5438,5.8112,-1.0762,-0.13021,-1.5252,
-1.7348,5.8319,-0.82008,-1.2009,1.9706,1.263,-3.6011,0.63998,-1.1104,1.4512,-1.2864,-1.4935,1.8058,-2.3976,
-0.66636,-0.78502,-1.7352,2.7275,3.2986,1.6692,-1.9388,-2.7729,-1.0438,-0.56408,-0.7268,-4.296,-0.23074,-1.2899,
5.1582,0.70834,-5.0055,2.5639,6.4752,7.3536,-0.37622,-3.5708,-3.8737,2.3618,0.7626,-1.6281,-0.69883,-0.24815,
11.3562,7.1733,-4.4642,-1.2054,8.7377,9.5635,1.8155,0.25884,-3.4003,0.53289,-3.8624,0.63875,1.5123,-0.47469,
9.7107,2.4044,-1.786,-0.16895,12.0701,6.0974,-0.22184,3.1356,-3.1961,-3.3552,-2.6666,-0.36367,-0.024967,1.0003,
8.4052,-2.8011,-1.9198,2.0103,11.1049,5.9725,-2.8596,1.7426,-3.7272,-0.98477,1.1088,-0.58282,0.21796,2.1456,
9.3469,0.25924,-2.2864,-2.9303,5.6181,6.5787,2.1324,0.67398,-2.0575,-2.3717,-1.3681,-1.03,2.1333,-0.87546,
8.3039,0.72585,-1.6675,-4.6834,6.2452,5.7014,6.343,1.5976,-2.8982,-5.1217,-0.32189,0.47782,1.0407,-1.3051,
6.3597,-4.1382,-6.3879,-2.4739,7.7984,6.3239,5.9627,3.4302,0.16801,1.4523,5.4822,3.3414,3.3887,2.1474,
1.6395,-5.3359,-10.8251,-7.6279,-5.2028,2.5702,-0.66182,5.1524,1.122,1.8474,3.2249,1.6949,4.6318,1.5369,
-2.074,-0.91864,-2.2216,-4.5189,-15.2547,-2.164,-1.8276,6.5302,2.2598,-0.9148,5.2008,4.2446,5.5585,2.6493,
-1.4677,-2.7917,2.25,-0.87379,-3.2522,-7.8187,2.6208,1.8001,-0.28595,-1.3423,0.068018,1.5798,3.2968,1.5264,
10.9129,-2.3832,-1.5004,-1.5443,11.043,-12.4108,4.6327,-2.4053,-5.3305,0.42546,-9.3361,-2.1305,-0.51595,-2.1806,
21.3454,1.1342,-0.44608,-3.3798,24.4804,-16.4869,4.8367,-2.261,-2.1181,-0.081999,-4.9195,0.88943,0.47887,-3.0136,
24.1615,3.7172,1.2674,-4.8642,35.7855,-17.1849,3.3412,-0.92047,-2.2325,-2.7286,-3.419,0.5951,0.69111,-2.1099,
29.4608,6.3867,-1.2187,-3.1261,42.3155,-11.8155,1.2125,-0.38285,-5.473,-1.1187,-8.0346,-2.3331,-0.79662,-1.9833,
27.6929,6.0033,-0.66344,1.4,33.9922,-7.2499,-0.78819,-5.1808,-5.6263,-0.56937,-6.5884,-2.1929,-1.7129,-3.3108,
23.1392,4.1973,2.7508,3.2442,29.0602,-11.6357,-3.6334,-7.2801,-8.6632,-4.3916,-5.7107,-2.5433,-4.0203,-5.5223,
26.5714,4.4272,4.9957,3.5312,33.1014,-14.7937,3.8157,0.38732,-5.2511,-1.7177,0.41625,-0.94464,2.4877,-1.3343,
17.9874,2.4745,1.5627,2.5967,24.6076,-11.2547,3.3455,-3.2511,-2.7666,-0.40962,-0.33186,-2.093,2.5796,-1.9774,
7.9906,3.5314,-0.70025,2.6819,20.48,-9.3742,-2.3988,-6.671,-1.8777,-1.5899,-7.7833,-4.1366,-3.6007,-5.9561,
15.7056,7.1756,4.1622,2.0388,22.6255,-10.7401,4.0119,2.4061,0.16335,0.91542,-2.0139,0.93208,1.9178,-2.2245,
14.5223,6.5041,5.5997,1.6755,19.5807,-10.8186,0.63811,-0.3898,-5.3901,-2.2725,0.75805,1.1171,2.0437,-3.2959,
10.2768,5.1498,10.0842,3.9853,19.8519,-9.6878,-0.84666,-5.1869,-0.24618,0.27371,-2.6617,-0.39594,-0.0073828,-3.5803,
11.1064,-2.39,6.1047,-3.9666,14.8044,-15.373,1.6143,-2.9475,5.0712,3.1498,-3.4663,-1.8184,1.9213,0.49093,
10.6805,-3.9339,-2.2153,-7.3445,8.8544,-14.6921,1.7584,-3.0116,1.6335,2.2375,-0.60721,-0.022109,3.0113,2.6306,
6.4245,-0.082186,-2.8055,-1.3599,8.0824,-8.2667,1.4121,-8.3748,2.2586,2.3444,0.63474,0.70235,0.17927,-2.1067,
2.4236,-0.80061,-3.3601,-5.3757,9.2847,-6.0835,-0.84175,-6.185,0.91779,0.51652,-2.0549,-1.027,-4.4108,-5.5957,
6.1346,-1.7164,-2.6765,-9.8739,15.958,-4.2722,4.029,1.8993,1.3451,-0.47834,1.9248,0.48086,-2.2179,-0.43928,
8.9,-1.3725,-2.7569,-10.0043,19.0979,-2.8111,5.9564,-1.3486,1.5049,1.2371,0.60401,0.21058,0.083846,0.30998,
5.7149,-0.084849,-2.8325,-7.2349,6.6243,-4.3292,3.4303,-6.3289,-1.7184,0.44,-1.6009,-1.0069,0.80217,-3.324,
7.0592,0.64314,1.4348,-2.2211,-2.6912,-5.7566,6.3575,-2.8157,1.0358,-3.2018,1.6281,0.25882,2.4413,-3.8475,
11.9381,2.0506,3.7591,0.80401,5.6652,-7.3397,5.4939,-1.2007,2.4197,-2.0456,0.56636,1.6893,1.3307,-0.72436,
6.8833,-1.4467,0.64081,-5.0286,3.8788,-14.1304,2.272,-6.4316,0.82847,3.8615,0.53215,-1.7867,3.1788,0.76513,
-2.689,-2.324,1.5669,-9.0654,-6.959,-16.6568,3.0998,-5.5635,3.671,6.5225,1.9467,-0.71542,6.8447,-3.6193,
-6.1428,-1.9433,0.26784,-8.7622,-9.1928,-14.4518,1.2268,-3.5422,4.1739,0.58734,-0.33948,1.9788,3.7827,-5.5716,
-3.6051,-4.4783,-4.328,-7.0317,-8.8822,-12.3799,1.3942,-2.6068,7.057,-0.1708,2.3324,3.0654,6.2073,-0.65752,
-4.1115,-3.9684,-7.2016,-3.9584,-18.7134,-10.4316,0.58738,-0.281,7.8386,2.9727,3.8795,2.6407,6.0756,0.10506,
-5.7932,-2.7662,-1.949,-1.7925,-17.5903,-6.9134,0.55236,-0.7463,5.9223,6.651,3.165,5.8565,4.265,0.098531,
-6.8921,-7.4212,0.095923,-7.9517,-11.7144,-10.3552,-2.8555,-5.0401,-0.21788,2.3953,3.4568,1.6485,2.0807,0.092849,
-6.2374,-7.6986,-0.6325,-5.7876,-23.7862,-12.8671,-5.8174,-4.4965,-1.8918,-0.39976,2.5263,3.2366,0.7508,0.81041,
-8.2733,-8.201,0.36931,-0.1377,-29.5895,-10.6489,-3.0582,-2.7804,2.0781,1.5524,1.4108,5.453,2.152,1.2437,
-5.3665,-8.1911,-0.61694,-2.5398,-13.7141,-8.082,0.98189,-4.0601,1.4712,0.49518,2.2903,-3.5511,2.987,-0.27694,
5.8013,-3.6018,-1.7848,-6.4848,1.2088,-6.8741,1.1639,-3.5751,0.66007,-0.25743,2.3938,-5.5076,2.0849,0.94451,
7.6226,-4.1093,-1.9189,-12.1214,15.2362,-15.8615,2.7811,-4.0841,2.3075,-0.0012469,1.0447,0.36668,2.2005,0.16471,
4.032,-6.5136,-1.5625,-13.0812,25.2883,-25.2739,6.2299,-7.4543,1.4459,-1.2062,1.7056,2.0317,1.3453,-2.496,
8.8513,-4.9179,2.6281,-7.717,34.6173,-24.4808,5.6147,-6.2841,1.1182,0.071431,7.1464,-0.74132,2.4699,-4.9978,
11.4541,-2.4532,5.122,-0.74604,27.961,-19.3963,3.1091,-1.3273,2.7383,1.7544,7.441,-4.7942,2.0808,-7.831,
8.5973,-0.13689,5.0556,1.9498,29.8987,-10.2786,7.9838,1.4039,3.7793,0.44382,0.96898,-2.8193,2.1969,-4.71,
5.4301,-4.2263,0.65516,-1.3004,29.7918,-9.903,10.6385,-1.3317,2.3475,-0.78788,-0.29423,0.4831,3.2701,1.5983,
2.9354,-6.624,-1.0716,-1.4636,15.712,-13.8884,1.5638,-3.9031,-1.409,-1.4637,-0.51777,1.1772,-1.9875,1.7432,
8.0617,2.4508,7.1876,7.3015,18.144,-5.3421,0.023925,-1.741,1.0859,-0.89375,1.9237,0.62445,-2.3504,-0.7713,
6.3729,5.9189,8.4438,10.4786,20.6705,-3.3345,0.26369,-4.2878,-2.5945,-0.59893,-1.8074,-3.5106,-1.9682,-4.3407,
3.5804,3.6356,9.8654,9.8499,11.7175,-4.0983,-0.71646,-4.9944,-5.3313,1.8471,-7.0012,-1.8537,-0.88626,0.74048,
6.4988,2.6943,11.9243,7.5719,5.4706,-4.0936,1.9778,-0.59764,3.4245,3.4233,-1.0377,-0.53742,3.2645,1.4187,
5.1448,-0.84203,1.5681,-2.0416,7.0708,-11.561,2.8233,0.40232,4.1831,-0.15632,2.3988,-9.182,1.6226,-7.3433,
5.3181,-2.7192,-3.8286,-9.1495,14.8413,-10.8671,5.5464,1.3425,3.9321,3.7095,1.7729,-4.7747,2.0072,-3.0463,
7.6503,0.094778,-2.3938,-5.4678,17.0841,-0.33317,3.5262,-0.4255,2.973,3.2457,-3.3949,0.091263,0.68169,4.6085,
9.6016,8.284,-1.768,5.9478,18.9513,3.5434,4.2787,-0.88168,-2.0258,-2.2515,-5.6016,-4.2528,-1.2876,3.3679,
3.9641,5.6181,-2.867,5.8321,19.0197,-1.2487,7.6376,-2.5158,-0.21681,0.53494,-2.1322,-3.7564,-2.4154,-1.4137,
-1.5766,-1.9501,-2.2133,-1.267,14.0219,-2.1379,2.8408,-4.2932,3.6524,4.8414,0.40607,1.2895,-5.1628,-1.3291,
-0.7589,-3.0382,-4.2494,-5.2881,4.7447,0.15934,-1.4272,-3.3125,4.6383,1.4177,1.5868,0.48897,-4.6118,0.43812,
-0.23121,-0.92744,-4.9586,-4.4886,-1.3248,-1.7782,2.997,-0.70342,4.3602,0.3685,2.9376,1.9057,1.4492,2.3398,
-3.351,-3.5231,-5.8666,-1.0865,-5.8248,-5.2871,-1.7624,-1.8667,0.48295,4.4435,1.0743,5.8889,-0.32473,0.51241,
-2.4266,-7.4095,-0.93482,5.4866,-8.6083,-7.1391,-6.2359,-2.4776,-1.7152,0.079547,-3.0875,4.8122,-2.9568,-3.1338,
3.7447,-0.4568,9.4854,10.7013,-1.5841,-8.3977,0.16355,2.7325,-0.40721,-7.3973,-1.2152,3.8008,0.35432,2.1157,
-0.33678,-1.8761,6.5057,1.3821,-2.9353,-9.3404,4.9745,2.0866,-1.829,-4.5428,2.7141,2.1265,2.7432,1.5068,
-3.932,-8.753,-1.8384,-6.1726,-8.7848,-7.0925,4.435,-1.654,-1.9603,0.30902,0.38207,-0.17025,0.40944,-4.1272,
3.0531,-1.961,-1.7279,1.4283,-1.9914,1.528,5.133,2.3014,2.014,0.77264,-3.0151,4.1781,0.86658,0.459,
4.0749,1.7718,0.062783,4.9583,5.6001,5.5335,4.5838,-0.48803,0.68761,-2.407,-3.5573,8.025,1.0558,3.5647,
3.3483,3.5939,2.4694,6.5887,9.6027,7.6118,2.8628,-2.3867,-4.1741,-1.2985,-1.8978,9.4719,-0.4536,1.9048,
2.1835,0.96816,-0.088917,1.8551,-1.0964,2.8168,-1.1654,0.64901,-4.8876,0.22571,-2.7478,2.6371,-3.3184,0.82619,
-1.081,-3.1873,-0.32455,-4.2818,-8.5024,-3.8597,2.038,0.3691,1.4312,1.8994,-0.4138,-1.6185,0.97802,2.4638,
-7.7648,-5.4064,-2.2335,-4.507,-2.2079,-7.0028,1.4336,-2.5453,1.8275,2.2671,-0.3892,-0.075382,4.7755,0.86998,
-10.9146,-7.2514,-5.7151,-3.0315,0.57588,-6.8238,-0.33988,-0.70561,2.9229,2.8542,-0.12465,2.0981,3.7658,2.0228,
-13.6337,-9.2264,-5.8537,-4.7778,-3.3151,-2.5576,-0.31903,0.30105,4.6758,2.201,-1.081,2.9365,0.64782,2.3834,
-15.7082,-7.2266,-2.6104,-2.563,-2.6342,1.9342,1.6283,0.76492,2.467,3.5152,0.42962,3.2423,3.0191,1.2765,
-16.9348,-7.5164,-3.1767,-1.6858,-1.7528,1.5772,2.7354,1.9243,-1.2964,2.5814,0.16288,0.39663,5.0071,5.2973,
-16.4007,-4.6548,0.87029,-0.62081,2.6907,7.2671,3.5356,4.7009,1.6739,2.4265,-2.257,1.3367,3.7428,3.5332,
-13.7297,-1.7246,2.5051,-0.34237,6.1444,8.5181,5.4924,1.7675,6.153,2.5217,-2.3628,4.3898,1.8308,-8.0072,
-4.9519,0.06629,-1.7424,0.4013,6.9808,5.3557,1.5477,-0.98984,0.23995,-1.2448,-1.016,3.4032,0.9978,-7.2856,
4.9862,5.365,5.1106,4.7155,11.3827,8.4088,-0.95529,-0.93045,-7.4872,-4.0626,0.49125,-1.6212,-1.4722,2.3106,
3.9641,9.6223,11.3119,5.6379,11.905,11.5197,0.30686,-4.49,-8.2433,-6.47,-4.5999,0.16329,-4.9993,-0.47914,
-1.3354,6.8758,2.679,1.2018,7.0929,10.5876,-4.7732,-7.3541,-8.4716,-9.6972,-12.7596,6.179,-7.3504,-3.5839,
1.8782,4.2941,-3.0249,3.2993,4.9806,10.1933,-0.87096,-3.7794,-1.4554,-5.018,-5.4861,4.603,-2.3301,2.6567,
5.3809,7.17,-5.0125,9.1269,5.887,10.305,2.3143,-1.383,-0.16274,-0.61957,2.3149,-3.6269,-1.4669,1.2925,
0.96025,11.3191,-4.4708,11.2304,9.6312,10.8916,-1.9219,-0.57713,-3.2865,-3.2335,0.48878,-2.204,-2.5842,-1.4366,
-6.8099,3.8912,-4.2028,7.6643,3.7504,5.8995,-0.84248,-0.060794,3.6594,-4.486,3.8337,1.7844,1.9094,1.0599,
-8.5707,-2.368,-5.6376,5.5174,-5.3925,3.8586,2.3413,1.1484,6.0912,-1.0831,5.2907,-0.0096721,1.5536,1.7195,
-6.8516,-3.4312,-2.6483,3.9811,-3.8641,4.3499,3.8881,-0.12582,1.6279,0.66866,0.87586,-1.2144,0.25512,0.89292,
-6.922,-5.1535,1.8489,0.85016,-0.25777,-1.6956,4.6191,-1.5645,1.0483,0.1466,-0.62295,-0.1772,3.6143,1.3217,
-8.4351,-5.326,0.7739,1.7632,-3.1346,-5.4501,1.4497,-1.9524,-1.425,-0.82629,1.3429,0.79753,3.3976,3.1704,
-6.7237,-1.8734,-0.47737,4.7905,1.6332,2.8307,1.6037,-0.63039,0.83014,-0.053354,3.9134,-2.3838,1.0246,1.293,
-6.8024,2.0956,-1.8952,3.057,5.8733,10.3734,0.060956,-1.5567,1.744,-2.4605,0.78628,-0.79475,-2.8935,-2.1588,
-4.7075,2.6927,-2.9868,0.70444,0.94164,8.5462,1.2626,-2.1866,-2.458,-3.0362,2.9083,8.6529,-2.4789,1.5861,
-3.4608,-1.8071,-4.2534,-3.6766,-1.0431,5.6228,1.1868,-3.0193,-7.1313,-2.3721,2.2518,10.062,-1.3663,3.4191,
-3.0119,-3.3857,-1.3469,-3.6967,5.0453,8.9011,-1.0538,-3.0789,-4.534,-2.9525,-3.9091,8.2532,-3.4533,0.56266,
-3.0724,-4.87,-1.5072,-6.1263,2.5732,7.1619,-1.7132,-2.6534,-0.6463,-0.124,0.42307,5.5891,-2.041,-1.64,
-6.2623,-2.1679,-2.8628,-7.6871,-3.8479,3.8399,-0.64678,2.3263,-0.60775,9.0422,6.664,2.8429,3.3839,2.3145,
-11.9123,0.61348,-1.486,-1.682,-8.1966,-0.48804,0.59709,3.8737,4.0082,10.1867,-0.24312,0.50339,3.422,3.3807,
-9.5101,1.3003,6.0752,6.8548,-9.3918,-5.0383,0.80246,0.50849,4.0089,1.1401,-7.2182,-0.24994,0.083467,1.9728,
-4.36,4.8374,12.2184,13.9151,-10.5153,-4.9767,-3.8252,-0.24515,-2.7393,-3.9903,-7.0263,-1.9219,-1.6085,0.64938,
-3.3755,6.2344,11.7263,13.8035,-12.5354,-0.58076,-7.2107,-0.47141,-1.3697,-2.0632,-7.3276,-3.4939,-1.2711,-1.0768,
2.6114,4.8963,8.6123,12.0108,-11.784,3.7922,-7.2606,-1.8896,-2.252,-3.8682,-7.8525,-4.2483,-6.0157,-2.4587,
8.2395,4.1203,6.1672,14.6648,-2.8816,5.4931,-3.4503,-3.2223,-6.455,-4.5998,-3.5247,-3.5113,-5.1722,-2.3109,
-0.4498,4.3553,4.3511,11.8569,1.6294,0.34301,0.13093,-5.9212,-5.5855,-1.4315,-2.3492,-3.7827,-1.0057,-2.1721,
-0.90497,5.54,1.6797,5.8427,3.4596,-0.64167,-2.2873,-6.0481,-4.7687,-2.7921,-8.9569,-4.5199,-5.7658,-3.9702,
3.7291,2.5565,-3.0004,0.91281,0.11901,7.833,-4.8011,-3.0337,-3.7592,-6.2395,-7.6961,-1.1152,-7.1071,-4.4548,
-1.7975,0.47467,-9.0871,-1.0704,-7.6011,12.6654,-1.6208,-1.888,0.80442,-1.0451,3.8527,4.7361,1.5143,1.1149,
-8.1972,-1.723,-14.0855,-7.5136,-11.7244,5.8799,-2.2464,-3.4615,0.51519,2.633,3.3805,-0.12739,1.6644,1.2889,
-2.1617,-0.4143,-5.2862,-8.75,-5.4773,3.8399,0.53944,1.8079,4.1002,3.1984,0.04421,-0.84264,3.2517,2.8988,
-4.9245,-2.8,-0.63114,-8.7074,-4.1848,5.5377,0.98901,2.6633,2.8894,-0.36799,-1.4047,2.1,3.5386,4.1712,
-8.4855,-3.114,2.2993,-4.8105,-4.4156,5.2054,6.2323,2.0215,2.7165,-0.34591,1.0897,4.866,5.2544,6.8129,
-3.3966,-0.27557,3.3666,-0.90649,-7.7661,-0.6505,5.6174,2.6231,2.7944,1.3621,-0.18051,3.8512,4.6982,6.6456,
-1.7468,-4.1157,-1.174,-3.262,-15.4946,-6.8782,-4.3608,0.055397,0.21642,-0.16569,-6.4364,0.24588,0.077768,0.94399,
1.2508,-1.9403,4.1994,4.1643,-8.7806,2.6937,-1.6884,0.53424,1.6499,1.2903,-4.1218,-1.2149,0.073331,-0.55868,
-0.75268,2.9966,5.393,8.253,-3.9152,4.942,-1.5873,-3.3544,-7.6083,-5.0539,-6.2849,-4.0348,-6.6797,-4.8637,
-1.1897,2.3347,-0.23257,6.7937,-10.429,-1.6208,-2.4562,-4.1168,-7.1516,-4.7504,-2.5331,2.4745,-6.7611,-2.6435,
0.32773,0.26615,-4.5576,4.4577,-16.5524,2.3326,-3.2733,-2.9062,0.025706,0.83703,1.4746,8.1099,-1.053,0.88937,
2.4775,3.8658,-4.5249,2.9852,-12.4255,5.8079,-1.8714,-4.4188,-3.1091,-0.90019,-0.78281,3.5262,-0.74866,-0.85099,
11.0059,4.1158,-2.3252,2.8061,-1.0747,1.1211,4.0254,-3.6713,-4.8503,-3.7387,1.1924,2.3508,-1.1857,-0.79993,
8.6583,0.73538,-0.98087,4.8069,2.6048,1.7767,-1.7597,-0.7999,-3.3544,-4.7197,2.3261,9.1992,-3.7661,-0.51097,
-1.5021,-0.75455,-0.43962,2.5903,-4.7819,4.0807,-5.0286,0.69436,-1.7069,-3.4722,2.6685,9.1296,-1.1295,0.48355,
-3.0992,-2.3965,-2.1005,-6.9652,-9.5567,-0.74391,1.2987,0.41127,-0.88159,0.35159,3.2313,-1.3006,4.9638,2.6237,
-2.1904,-5.3862,-2.2154,-8.2345,-4.404,0.50602,1.4622,0.62802,-0.10534,1.0534,1.3506,-3.8736,3.9426,4.1535,
-3.746,-7.2324,-1.8418,-0.26837,-4.3805,5.0552,-1.2769,1.313,2.0699,-0.21488,0.54645,6.241,0.57278,3.1812,
-3.7624,0.19163,-4.864,7.2198,-3.8765,10.7776,-3.3696,0.51156,-0.70514,-2.3709,-2.6196,11.4103,-0.66665,1.3033,
-3.7776,4.2775,-3.3674,6.5452,-0.51085,11.3358,-6.3009,-2.1707,-6.2069,-6.8084,-8.9704,-0.121,-5.6883,-0.46213,
1.9927,1.3697,8.1629,4.9476,-1.685,2.22,-2.7894,-2.2814,-3.6649,-3.7483,-5.2986,-8.0675,-4.6237,-0.19343,
11.2729,2.4926,9.3601,2.9633,1.0674,-2.0108,0.02929,-1.4214,-2.2399,1.0561,1.045,-4.9321,1.6795,0.05937,
14.2121,5.9583,3.737,0.13418,4.6185,-3.5771,-0.21366,-4.4694,0.063408,-0.21282,0.25921,-3.4311,2.3014,-1.1493,
7.5746,4.1547,6.4051,3.0184,-1.9253,-9.6293,-4.057,-7.5759,1.5061,-3.0923,-3.613,-5.1532,-4.5853,-3.0087,
4.2281,1.0129,6.0208,4.7655,-9.5226,-3.2669,-5.7418,-7.1209,0.4514,-0.49621,-2.4319,-0.5057,-5.2741,-1.3819,
2.046,0.46999,-3.0173,-2.2691,-10.8796,8.498,-5.3975,-4.2837,0.42455,1.4615,0.12396,4.3451,-1.5834,-2.7451,
-0.48692,2.8524,-10.5491,-5.9893,-10.2269,15.7014,-5.0736,-0.65225,1.3629,1.8558,2.5271,1.6743,-0.52408,-0.65216,
-3.5914,2.44,-15.9419,-0.56853,-22.8699,25.1229,-3.5642,1.0739,3.4506,1.5032,4.0625,4.7071,-1.6982,7.3405,
-11.5704,2.7758,-16.4314,5.2504,-35.5977,36.6312,-6.7245,3.9022,4.2076,1.4133,-1.0018,11.1733,-2.5599,8.8285,
-18.107,4.0555,-12.5535,0.59705,-47.5618,38.2897,-6.803,5.5958,4.4371,3.7386,-2.3879,3.2721,-0.47858,7.8168,
-12.6823,3.3302,-13.2461,0.079289,-45.9127,35.0285,-3.0204,5.2605,4.6533,3.0323,3.058,-3.6727,2.9246,8.7941,
-4.6903,4.0941,-14.3797,7.3051,-46.5324,30.5164,-8.624,3.4984,-0.44688,-3.4163,-2.9103,3.7783,-1.5894,2.4816,
-1.9987,5.7771,-3.8755,10.2413,-46.1506,28.6854,-6.6603,3.7709,-0.41961,-2.247,-5.6277,4.0335,-1.4936,-1.0417,
-1.8788,4.9481,1.6592,5.288,-33.7408,27.4462,-3.8505,2.0979,-1.8411,-1.1483,-3.3623,-6.8138,-1.8864,0.46704,
0.88524,6.3386,-1.0917,2.8018,-30.5111,21.2199,-5.3065,4.1414,-1.0075,0.12608,-0.02687,-6.1637,-1.0501,-0.76604,
2.7603,7.8865,-5.3645,1.6694,-36.8753,16.0904,-5.9524,2.9291,1.9454,1.0824,1.9029,-3.3833,0.94112,-4.0945,
1.3894,7.1719,-2.8735,1.8102,-29.6014,15.8478,-6.3186,-2.7903,-2.2691,-2.598,-3.2729,-3.9037,-3.6951,-2.1616,
-1.8272,2.6445,2.3609,0.49651,-28.066,11.7642,-5.6979,-1.8997,-1.8913,-1.719,0.5391,2.8382,-3.2317,-1.7907,
-2.9224,0.79856,-4.7707,-1.7024,-34.8182,8.8887,-5.115,1.8297,3.7658,1.9996,10.8706,5.8014,2.0234,-0.47846,
-2.2654,-0.21345,-14.608,-1.6005,-26.4626,11.2477,-6.7365,-0.20854,3.0572,1.3974,5.3979,3.043,-0.026432,7.2628,
-0.68319,-1.6469,-10.839,-1.0221,-17.644,11.5371,-3.4403,2.2141,4.8024,2.7599,2.6639,10.5732,1.4214,11.1658,
-9.0783,-5.6454,-8.9834,-4.0943,-25.0213,6.2652,-6.3669,4.2504,5.7191,2.3533,7.5653,9.2159,0.61323,7.8443,
-15.7642,-9.1633,-8.4446,-2.4026,-25.4479,5.4075,-9.8415,1.5855,5.8581,1.7299,7.1116,0.468,-0.86959,5.4457,
-10.9622,-3.793,-6.4919,3.044,-18.1367,6.5287,-7.805,-0.43806,4.5425,2.5902,-2.9563,4.2961,-1.3,8.0112,
-3.7966,1.0143,-9.7173,5.5129,-16.8073,7.3422,-6.1314,-0.17081,-0.79168,0.7476,-7.3582,7.1718,-3.3907,8.7358,
-0.19454,-1.4569,-5.7601,5.1819,-16.7632,7.3839,-4.3175,0.3216,1.1842,1.1849,3.6884,-1.4534,1.1508,6.2833,
-0.90576,-2.5744,4.9499,5.5944,-19.3726,1.3972,-4.2994,-0.90253,4.7286,1.3548,8.0468,-7.3918,2.769,-0.11927,
-1.3336,-1.9382,10.4372,7.1867,-19.1743,-1.5789,-5.0055,-4.705,2.9984,0.3094,3.7074,-4.5379,-4.1458,-5.4145,
0.67463,1.5526,5.4727,6.7555,-12.7215,3.3365,-4.7052,-3.9408,-2.0018,0.77277,0.11048,-5.7119,-6.3072,-3.1615,
1.8392,4.1107,-5.7022,0.80674,-10.271,5.3053,-4.6636,1.8395,-2.6048,0.48566,-3.5113,-11.395,-3.2775,-0.80285,
3.1751,2.8998,-8.7341,-0.68792,-7.7265,3.5412,0.91838,3.6574,4.3004,-0.5078,-0.4086,-5.8906,1.7394,-0.75468,
1.2976,-1.3714,-7.4869,3.4509,-6.0576,0.67737,-0.34178,-1.1416,4.2831,-1.6824,1.7853,-0.47568,-0.051923,-2.8783,
0.25543,-2.7353,-7.0381,0.35136,-6.6585,-4.184,-4.1777,-1.0731,2.5799,1.793,0.23193,-1.8934,-1.0131,1.1508,
0.4813,-1.3661,-2.5183,-0.87478,-6.9819,-4.1737,-4.6497,2.1245,3.6306,2.4085,0.45921,-2.5025,-0.22876,8.5533,
0.21146,2.8132,1.7307,6.6495,-7.768,4.0305,-3.1659,1.7561,0.27928,-1.3514,2.6008,-2.1113,-4.7948,6.8353,
0.9219,2.4036,1.8675,7.9375,-10.9174,4.0294,0.15735,-0.036728,-1.4245,-2.4754,-0.20655,-3.1902,-4.7483,0.8813,
6.6509,0.33101,4.1659,1.6769,-7.8522,-1.9967,-0.81619,0.92957,-0.37536,-1.3632,-5.497,-4.9267,-3.0174,-2.0639,
9.6263,3.2037,4.8802,-1.7981,-4.4885,-2.8408,-2.213,3.2844,3.9859,-0.79902,1.0998,-5.595,-1.3896,-3.3858,
7.6025,4.4572,3.1412,-3.1365,-4.2195,-1.2245,-1.1164,1.6411,4.2287,-1.7154,8.7465,-5.2598,-0.82429,-4.147,
10.7618,3.9488,3.1932,-0.77916,3.0236,-2.3564,-1.7727,-4.001,-1.0867,-2.3354,4.1244,-3.7389,-3.9083,-4.6216,
15.1775,3.4712,3.2428,6.7396,6.4574,-4.3839,2.4312,-3.5198,0.66597,-0.025869,2.6719,-4.2377,-1.9868,-4.585,
8.4823,4.7092,-0.32576,9.2278,1.7316,-3.6389,-0.1248,-1.8623,-0.82025,-0.50625,0.58337,-2.5372,-1.3852,-3.828,
3.3936,6.5953,-1.5115,9.8789,-0.54169,1.1587,-5.6609,-1.0281,-2.9402,-0.7173,0.30694,6.0507,-4.4356,4.8374,
4.6365,0.41525,-3.8312,7.3582,0.45513,-0.8388,-6.2854,-3.3763,-3.2459,-2.6022,1.735,4.7241,-8.0256,4.5474,
6.5277,2.0778,-1.4319,9.5681,0.66902,-3.9217,-4.7032,-1.9687,-3.2919,-3.1692,0.42585,1.7893,-5.3751,0.65934,
-1.8177,1.2298,2.2694,12.127,-13.4711,-10.1944,-6.5901,-0.64528,-1.8896,-1.2918,0.64126,-0.48768,-1.4372,1.3427,
-6.7703,-1.4951,1.4099,13.5686,-24.5939,-15.6083,-8.3639,1.5626,2.3212,1.9187,3.2539,-0.69939,-0.62809,7.7696,
3.0356,2.2098,2.0484,9.6212,-9.0183,-15.8768,-4.2469,2.6739,1.9411,-0.84775,-1.0385,-1.8625,-2.7593,5.1345,
12.0123,3.5232,7.2279,1.8128,5.6228,-18.7808,3.7205,-1.3431,-1.55,-1.279,-1.4583,-4.643,-1.1477,-2.8866,
15.3896,1.1429,4.6253,-1.9107,19.3854,-26.0894,1.8107,-2.9496,-4.1079,-0.47872,1.7624,-7.9796,-0.83768,-4.8823,
23.1426,1.556,5.3119,0.13194,32.3223,-29.345,0.25558,-2.7724,-1.4515,-3.8247,1.1745,-8.465,-1.7515,-4.5896,
28.5028,6.2832,15.5983,7.8366,44.483,-24.2101,8.4352,-3.0882,-0.88225,-2.6311,-2.7521,-2.6546,-1.6467,-4.7964,
21.7314,4.2194,16.8315,8.5717,55.914,-20.5879,9.1344,-2.6619,-6.8549,-2.7142,-6.2024,-0.80814,-3.717,-4.7496,
18.7403,0.83274,8.8318,4.4419,56.6565,-20.0759,7.381,0.14889,-0.89995,-5.2029,-1.7329,-2.9293,-1.3248,-3.2593,
13.5183,2.4698,2.2765,2.9704,52.0521,-18.6302,4.7688,-2.029,3.2516,-3.6852,1.5043,-5.8863,-1.0041,-3.3049,
2.3433,-0.3295,-2.9217,0.62299,46.7598,-19.6815,2.3135,-4.5588,-0.076959,2.0795,3.1013,-3.8464,0.74333,-3.8295,
0.27452,0.1722,1.5919,3.9601,43.4723,-18.0187,3.6209,0.53545,-3.9287,2.4367,0.023154,-1.205,0.69873,-3.5998,
2.186,2.0903,8.2451,7.5786,37.9716,-13.081,3.4039,-0.46077,-6.5853,-1.0837,-8.1732,-2.5792,-5.6099,-0.97343,
-1.3191,-3.3378,4.8583,2.7856,31.8369,-15.1882,0.30715,-7.1816,-2.3338,-2.465,-7.6828,-0.97817,-6.2372,1.4951,
-1.7222,-1.2095,5.049,2.1363,31.3728,-14.7595,-1.1573,-6.269,0.69853,-2.3168,-2.8833,-2.3655,-1.5249,-1.4869,
5.3706,2.9604,12.2174,6.5878,32.1415,-9.2942,5.4196,0.61464,3.3077,1.4371,-0.54111,-3.4289,0.25383,-3.0849,
5.0486,-0.59146,12.9308,0.8897,28.285,-13.0751,5.5766,3.9524,2.6271,2.315,-0.99081,-0.33085,-1.2074,-2.4177,
0.16592,-1.7613,8.0572,-4.2254,26.3465,-19.7624,-1.2659,2.9919,-1.146,-1.9213,-2.1366,-0.55197,-0.89401,-2.514,
-0.085005,0.031634,5.4046,-2.2846,23.0789,-16.4075,2.4254,-0.80299,1.0924,-1.565,0.6431,-2.2061,-0.11747,-2.1218,
-1.2852,-2.1394,0.019067,-1.9066,14.2224,-11.8076,3.9671,-3.8878,1.7498,0.21611,1.8093,-0.38649,-4.6897,-1.7535,
-0.96666,-3.2159,-1.1874,0.85938,10.2356,-13.2683,3.4881,-1.4854,1.4038,0.9265,3.388,0.3596,-4.1674,-4.7818,
-2.5959,-1.8181,-0.39277,2.977,12.273,-13.6775,3.0379,0.77287,4.4531,1.5938,0.53364,-4.2413,1.1444,-3.7715,
-9.671,-5.5654,-1.8155,-1.058,10.5723,-16.7132,-0.036908,-0.23737,3.2216,4.3907,-3.3548,-2.5405,2.0396,-0.65314,
-11.5008,-8.124,-1.2246,-5.8153,6.5635,-18.6027,1.4116,-1.6694,2.5463,5.5731,1.6668,1.4683,3.3635,-2.0602,
-8.4007,-2.3335,-2.5974,-4.984,10.0261,-12.1837,2.7731,-0.60535,3.8398,3.3105,3.495,-1.9943,5.0898,-1.9366,
-9.5836,-0.024517,2.6204,-2.5155,11.5939,-9.7657,0.43736,1.1184,0.9581,0.46099,-0.32993,-6.4541,2.6151,-1.0973,
-4.6705,-0.023275,13.0678,1.0092,8.4879,-10.1438,0.41088,0.56916,0.41846,0.4331,2.0998,-3.6565,-0.91607,-0.54927,
-2.7031,-2.191,7.2225,-3.1487,6.2914,-9.2942,-0.8186,-1.6342,1.1162,-0.79818,2.6971,1.1422,-1.1021,-0.75728,
-8.5662,-6.1567,-3.093,-9.4671,6.1551,-8.0135,-0.046356,-2.2592,1.7724,0.93717,3.7404,5.1712,3.5436,0.49322,
-11.1857,-6.5102,-3.1484,-6.2479,4.5805,-8.2556,-0.28454,-0.91839,-1.467,3.0501,2.7931,5.1019,-1.7307,0.22266,
-7.1399,-4.1916,-0.067234,-1.0526,4.7879,-6.3142,-3.1598,-0.38112,0.54901,2.8673,-0.26682,-0.024688,-4.5192,-0.7548,
-5.989,-6.5917,0.6597,-7.015,1.3671,-10.0331,-3.2116,-1.0816,1.239,1.9719,0.95402,-0.74657,2.7414,1.4596,
-9.9676,-9.0882,-0.82568,-11.4148,-3.5352,-16.6615,-1.5722,-0.53478,-4.6199,1.8536,1.8611,3.1551,2.5774,1.3721,
-8.8876,-6.6148,-6.0788,-5.9092,0.051378,-10.8414,-0.031594,2.8718,-2.8965,3.6706,1.7494,2.9658,1.9408,-0.15606,
-7.1495,-5.0126,-7.4013,-1.4573,-0.19313,-5.1294,-4.6094,5.3505,-1.0355,2.7275,-1.489,1.1006,3.9935,0.57621,
-9.3718,-6.3993,-0.4495,-2.093,-3.3148,-6.9911,-5.5384,5.2707,-1.2145,0.39441,-2.1228,2.2396,2.5484,1.7462,
-11.9428,-6.7384,0.78253,-5.1007,2.4279,-6.8123,0.33775,3.2675,1.992,1.0939,2.1021,-0.54608,-0.25539,-1.4913,
-8.5749,-3.2004,-1.9157,-1.6614,5.8974,0.10412,-1.8514,-0.061836,0.18507,2.2333,4.6273,-3.6466,-0.9632,0.28514,
-4.204,-1.5626,-4.6929,2.7766,4.0973,4.9181,-7.043,-0.54052,-3.2005,1.6174,2.9034,-1.9815,0.54039,2.1962,
-1.5416,-0.022584,-1.5192,4.0563,14.9387,8.4794,-6.6204,2.8664,-4.4547,2.0023,-1.1271,1.9938,-1.9022,-0.34567,
-0.48459,2.8711,3.8748,3.8132,21.2735,9.8991,-3.3309,3.1765,-5.1511,-1.0102,-2.9875,-1.0182,-8.0543,1.603,
-0.45575,3.6629,4.124,1.174,8.9096,6.4128,0.7251,1.0575,-2.914,-0.46739,-0.39834,-5.2956,-7.5713,6.3273,
-3.3207,2.479,-1.9082,-1.3068,4.0365,4.0997,-3.657,0.029984,-5.1496,2.4525,1.554,-5.942,-3.7428,0.16288,
-1.4345,0.64329,-1.0701,3.8331,11.7483,5.5411,-1.2681,2.1976,-1.7073,2.5465,5.0759,-2.9341,-0.38496,-2.4978,
1.7849,0.36349,1.6449,7.2187,12.7304,5.9318,4.3513,4.2346,2.0108,0.22481,1.6381,-1.0711,-2.5308,-0.17896,
1.9192,5.8853,0.34139,5.0984,10.2798,6.2988,0.95722,4.7039,-0.27905,0.45229,-6.4139,-1.2478,-2.6199,-0.89112,
-3.2576,5.2912,-1.3663,1.1771,5.5656,4.2341,-2.7156,2.7345,-0.50327,0.66612,-1.9313,-0.44956,1.1527,-3.4887,
-4.2675,2.3226,-1.5253,2.3117,1.1339,3.7386,0.58079,1.8475,-0.23211,-0.57914,6.6203,-0.66401,2.2884,-0.62833,
-1.1189,0.73703,-1.4338,4.1012,-2.7901,3.9967,2.9561,0.77232,-1.6644,-0.54393,5.2587,-0.62371,0.22288,-0.59063,
-1.7751,1.4157,-0.14292,4.0961,-2.8641,0.14101,0.12715,0.96695,-2.2879,1.1755,0.36394,0.13661,-2.924,-1.7605,
-2.1505,1.8127,-1.0982,0.47589,-0.28213,-3.2419,-1.8087,1.3909,-3.5965,-0.82325,0.82403,-0.35398,-5.1587,0.75573,
5.2093,0.74007,1.8602,-1.4809,-3.6392,-1.1187,1.6743,0.34355,-2.4168,0.6724,3.1847,-2.2605,-1.9566,-1.2178,
7.7891,1.6598,6.0867,3.4285,-6.7955,1.8407,-2.7647,-3.5337,-3.7178,1.1142,-1.3449,0.28505,-2.8033,-3.5551,
0.33207,0.83704,3.5525,4.4283,-1.8078,0.52518,-6.6959,-3.5624,-5.1818,-3.0502,-4.397,8.2219,-6.2503,3.1659,
-3.7852,-1.8643,1.1698,-2.3453,1.4337,-0.71163,-2.1968,0.7487,-2.2198,-3.1082,1.41,7.0052,-1.296,8.5196,
-2.1121,-4.6447,3.028,-5.0969,0.38356,-0.18677,-1.5829,1.1859,-2.5687,-0.029387,2.2895,-2.0919,-0.73655,3.1879,
-3.4314,-6.2944,3.8104,-3.3451,1.3246,-3.0679,0.44007,1.1146,-0.48619,1.4184,1.188,-2.9301,-0.69213,-0.85997,
-2.9845,-2.7833,1.4126,-0.9752,2.4505,-3.6071,2.1009,1.771,1.7121,-0.83586,0.39381,2.307,1.5186,-0.56741,
0.087067,0.75816,1.3279,0.52957,6.6418,1.9119,-0.91722,1.1828,-0.80071,-3.6778,-0.59368,-0.24158,1.4274,1.8772,
-3.0519,0.95341,0.52508,-0.22533,7.9302,1.0741,-1.5853,-0.57558,-3.404,-0.80624,2.0928,-6.2529,1.583,2.4873,
-3.3509,1.8603,-0.95292,-2.1402,-1.2224,-3.3289,-3.9006,-2.9514,-8.5026,1.1706,0.5212,-5.8779,-1.8867,1.3739,
7.6966,3.9181,8.0226,0.6395,-0.9079,0.48648,-2.4615,-2.5331,-4.8592,-2.0329,-4.5715,-1.9096,-2.9785,2.0146,
8.922,1.5138,8.7465,5.1809,6.1364,1.6626,-0.62654,0.26996,-0.95178,-5.0444,-5.9845,-2.036,0.8156,-0.27541,
1.3969,-2.6748,-0.21443,4.6286,-0.73968,-6.3914,-0.34798,1.941,-1.618,0.31991,-0.56417,-3.6011,5.346,-0.49986,
1.313,-5.8883,-2.1298,-3.3614,-8.89,-10.3462,0.63722,0.37827,-4.8954,0.78264,-2.9404,-4.8313,3.5794,-0.9518,
5.5724,-2.1608,3.7824,-1.7137,0.32027,-2.9768,0.59876,3.7298,-2.6733,-1.1927,-7.1026,-0.20283,2.4005,1.0333,
1.3816,-2.5131,-1.2648,-3.0572,3.1931,-4.2444,-2.8116,1.5778,0.3792,-0.63878,-3.7839,-1.6369,2.7384,2.8995,
-1.8341,-4.5317,-7.6966,-4.5607,-10.2546,-15.3179,-2.8837,0.27854,2.5258,2.5328,1.0227,-1.7794,2.8153,6.3412,
-3.1705,-2.8138,-3.3782,1.0153,-19.2806,-19.7013,0.18165,4.118,4.7846,3.8269,0.96153,3.6297,2.6462,7.4067,
2.0814,0.006621,3.332,6.498,-5.3493,-4.4192,-1.5165,-0.70838,1.3641,-0.98203,-1.2658,0.76087,0.80018,2.383,
5.0895,5.0674,-0.48339,6.3491,1.4792,9.9459,-6.9691,-2.8355,-6.6715,-5.9848,-7.2154,-6.2747,-2.3813,-0.89344,
-2.6872,8.8612,-3.5874,3.799,-12.7096,23.4492,-3.8999,7.699,-0.7276,-0.082091,-3.649,-1.3189,1.3774,4.2218,
-14.8182,4.232,-6.5054,-1.0084,-26.047,25.5369,-4.8709,7.4782,5.3418,3.5385,2.1133,2.3759,2.0179,9.9938,
-14.6525,1.8089,-10.6948,-0.22504,-38.5842,35.3329,-9.158,7.7524,2.8517,2.6028,2.2275,1.9924,2.1378,10.5995,
-15.9427,0.97721,-18.0071,-3.3448,-49.4048,34.8999,-8.8497,9.4562,3.8861,3.1698,2.3351,3.0779,5.1428,8.2761,
-17.8782,2.3648,-19.8188,-5.5542,-51.7432,25.0932,-8.8006,5.5148,4.6168,3.4615,0.7487,2.8932,3.8699,7.2976,
-12.226,1.4998,-15.4964,-1.6058,-45.9873,19.9724,-7.5495,9.2815,3.6167,1.5668,2.8732,0.55024,3.397,4.6908,
