"AF3","AF4","F3","F4","F7","F8","FC5","FC6","O1","O2","P7","P8","T7","T8",
0.48216,37.1178,-42.9024,-13.9795,-36.1537,28.9231,-12.0513,6.7487,-0.48216,2.8923,10.1231,-9.1588,-0.9641,30.3694,
6.9605,37.0602,-39.1234,-10.9718,-35.19,25.9822,-16.8721,6.1026,-8.8891,-5.7172,6.382,-10.2967,5.6015,33.6082,
10.8816,25.6775,-34.8478,-10.313,-31.1502,22.4956,-17.3058,7.6646,-5.4633,-6.8204,4.5533,-2.4481,3.3372,28.6997,
1.7928,10.8807,-36.8541,-16.202,-32.4145,19.4588,-16.9903,6.4821,-2.0022,-0.38538,-0.29941,9.5092,-9.6373,30.1114,
-1.9302,9.0226,-40.1867,-12.5788,-25.8903,21.9063,-7.5353,6.816,-2.6054,1.325,4.7802,6.7694,-2.0696,33.8479,
-1.5734,14.9892,-47.1753,-9.6544,-25.0596,14.5663,-2.5034,3.274,-7.5103,-4.2981,5.6987,0.81966,6.4907,27.7196,
-2.4431,18.9103,-49.1652,-12.4498,-26.4483,10.8001,-4.7635,3.0774,-6.5776,-5.0044,2.4645,3.6628,1.2808,19.7902,
-1.3322,4.2779,-44.7693,-12.6669,-14.7385,15.4547,-3.5134,6.7491,-3.2908,1.5624,10.5113,-3.3059,1.6858,11.3719,
-1.9754,-7.7887,-45.6985,-11.6657,-10.7207,10.4298,-4.5079,0.80078,-10.083,2.1918,8.6756,-15.3996,2.3078,1.2894,
-0.41058,5.6936,-48.7412,-10.0019,-14.4162,5.4657,-4.2374,-1.1759,-7.5499,0.61404,2.37,-8.6913,2.6513,-0.71617,
-5.2067,3.9062,-53.5295,-11.8119,-14.0332,6.584,-3.5012,2.2691,3.026,1.0596,8.0129,-5.2773,4.4204,-4.0477,
-7.0634,-10.4282,-51.523,-12.3083,-6.6835,9.322,-0.15768,5.2664,5.496,8.4678,17.896,-5.2018,9.2169,4.6313,
-4.9524,-20.2873,-54.9394,-18.5597,-13.7543,5.1473,-6.6559,2.7813,-2.7875,8.2007,11.7605,9.2103,3.6022,18.4535,
-5.6193,-17.6241,-58.8738,-18.4104,-20.642,4.3563,-8.6669,2.1322,-0.69226,6.7441,7.6807,22.7577,1.94,21.8051,
-11.308,-13.9151,-61.367,-13.6901,-13.8599,1.926,-1.6392,-0.16508,2.0006,3.6886,9.3892,7.2922,11.2234,6.3968,
-6.2909,-8.2597,-55.7567,-6.12,-0.012646,4.7027,4.7259,2.2552,4.7728,5.8776,15.0926,-7.2453,19.2273,3.9645,
0.59423,-9.9337,-52.1704,-2.1376,0.22885,7.5538,3.237,8.1452,3.7633,11.5503,15.874,-0.78484,13.4937,-2.2996,
2.9687,-9.3375,-52.8963,-0.080968,-3.641,6.6186,0.6327,10.549,1.1274,13.7498,10.5833,-1.7016,9.792,-10.8383,
2.3084,-4.9206,-56.9534,-1.0402,-4.8688,-1.0095,-1.8156,3.6493,-2.7968,6.1761,3.1991,-4.9742,13.543,-4.4032,
-3.1325,-3.1793,-62.213,-6.2804,-7.9509,-11.0716,-3.6349,-5.2465,-12.27,-1.9074,-7.5979,1.1091,8.8738,-2.211,
-7.5238,-2.2657,-69.3265,-5.6626,-7.7151,-10.1664,-3.6578,-4.2084,-19.0056,-1.552,-9.3112,9.4782,-4.4326,-3.7656,
-0.32373,-2.1295,-69.0233,-0.50218,-1.9495,-1.3615,-4.8843,2.3109,-13.0448,5.7722,1.3706,15.1762,-7.5413,9.476,
2.1058,-11.6427,-70.1843,-4.8104,-4.7246,-5.1362,-10.8578,-4.5767,-13.226,-1.805,0.80647,1.2502,-4.6782,5.533,
11.6207,-4.1955,-60.6709,2.2267,3.7533,-1.4538,3.8937,0.036473,-4.7199,-1.6969,5.0966,-12.3224,9.7024,-7.3322,
7.0668,6.1794,-62.333,2.5755,5.9385,-5.2227,7.8777,0.99838,-5.8825,-4.4874,2.3805,-14.4751,7.5533,-15.5692,
-4.4444,4.8443,-71.1265,-0.95349,-2.1306,-10.6944,-6.695,1.9023,-9.8683,-3.2538,-3.065,0.49343,-0.13071,-0.53503,
-2.2496,-9.5463,-68.7871,1.5136,-7.7873,-5.232,-6.1728,5.6446,-5.9018,0.79779,0.011424,14.5638,5.6617,13.5971,
1.7418,-20.4222,-67.5522,-2.9155,-2.9818,-3.9542,2.8744,2.4139,-6.5117,-3.1065,0.97461,9.5924,3.8762,3.8632,
3.8064,-5.0969,-68.5607,-4.4278,9.0073,-7.3324,7.2817,1.0637,-5.8801,-0.75092,3.5672,-0.38313,-2.3824,-10.4686,
1.6501,2.56,-69.7497,-1.2699,9.9131,-10.2667,4.4345,0.03581,-6.0094,-0.22416,3.8354,-3.2524,-4.6498,-13.3354,
0.58677,-3.8601,-70.385,-1.6756,12.2106,-5.3123,4.6503,1.4799,-5.1667,-2.1384,1.1951,3.2092,-0.99634,0.48012,
-0.41231,0.70981,-72.9106,-6.3955,10.996,-5.9575,2.4431,-2.9472,-9.6772,-6.8309,-1.7691,0.60655,-1.4185,-11.1178,
8.0483,3.3185,-65.4027,0.97783,10.5772,-7.2875,3.984,-0.1195,-4.9992,-1.8415,2.9165,-4.4913,6.6206,-13.1021,
7.5654,-1.7008,-62.9248,3.3293,11.871,-5.404,3.2626,3.7445,-5.6633,-2.6953,-5.9351,0.1165,8.1515,-3.1569,
9.2809,2.9807,-61.8004,3.8527,13.3277,-0.98214,-1.0303,2.7967,-14.2414,-6.1488,-14.4968,6.1353,-0.29152,-2.2444,
9.9291,8.8272,-58.8155,4.8266,10.3591,-5.5027,-4.1018,-2.4325,-16.5202,-1.6823,-7.6017,-3.1507,-2.9254,-6.6892,
3.3074,9.0209,-53.1174,5.2603,10.4605,-8.788,1.2056,-1.5637,-5.647,5.8905,3.2187,-6.577,7.6145,-9.9033,
-1.2292,-1.6434,-52.3407,1.5703,5.4943,-6.8147,1.6154,-0.50577,0.47639,4.5729,8.81,6.3508,5.2292,-14.6115,
0.049637,-14.3193,-53.2976,0.75291,4.9237,-6.1646,-0.65069,1.694,3.5813,6.9499,13.3433,13.4414,-1.1099,-10.1196,
-1.6407,-12.255,-46.9664,1.9129,12.5821,-5.5536,0.11136,5.2076,11.8022,7.7381,13.7479,8.0555,6.9103,-1.0765,
-2.7474,-3.0836,-44.3895,-1.8174,11.1039,-5.4615,0.8277,-0.16639,12.7814,-2.6085,10.2715,21.6721,11.5571,8.3878,
4.8892,-1.6938,-45.8235,-0.021124,7.3047,-7.7849,3.4296,-3.7718,11.7736,-7.9956,-0.22668,27.9645,2.9099,15.3568,
12.5498,-3.2792,-38.9765,7.4522,11.9278,-5.1489,5.3927,2.9622,18.5387,-7.2747,-9.6133,12.1866,-0.87988,13.7123,
5.2891,0.05085,-33.9868,4.8357,10.0071,-4.5988,0.00773,4.4715,21.524,-7.5613,-4.457,-2.6446,4.2344,14.0946,
-4.1872,5.8324,-35.804,-2.2032,0.24763,-10.5893,-1.9209,-3.9915,26.0171,-6.6257,7.3796,6.4317,4.4622,15.659,
-3.6948,0.90292,-32.9328,-0.38397,-0.49035,-11.6414,3.7377,-7.3677,38.5561,2.2077,11.5163,1.4663,3.9533,9.658,
-0.33997,-13.2513,-28.3054,2.2905,5.0828,-10.7019,2.3085,-2.8277,44.799,9.5472,12.5127,-7.5394,11.1885,7.8734,
-5.6221,-14.9868,-33.8378,-1.7032,-3.417,-15.3623,-6.9889,-1.2121,31.024,2.2256,8.3876,7.0129,6.1785,15.5958,
-5.0436,0.012417,-36.3871,2.4966,-4.8992,-9.861,-0.061653,2.9582,27.9575,-2.4875,7.6431,16.8359,-2.1462,25.9885,
-3.7771,2.0603,-40.4704,2.8287,5.0357,-9.7513,4.7623,-1.0757,18.5672,-6.6765,-0.046292,1.7257,-5.3919,22.501,
-0.89892,0.73143,-38.7653,4.3462,10.7591,-9.4072,0.37921,-0.77018,6.125,-5.5531,-11.3717,0.5376,0.95766,25.2483,
1.5651,11.7748,-37.4035,4.5674,7.2215,-2.0943,-0.60787,4.5787,2.865,-5.2199,-18.4022,1.9511,-0.064123,22.769,
0.50713,15.4068,-38.0518,-0.5276,6.788,-1.0046,2.8028,3.8213,0.28273,-7.799,-19.7084,-5.3965,-5.3632,12.726,
-0.48739,3.3954,-33.3583,-4.834,6.8629,-7.211,1.671,0.21783,3.6404,-0.58235,-13.7054,6.0143,1.2258,8.5882,
-1.9044,-6.4493,-31.8387,-7.9182,-3.1899,-9.1885,-4.6958,-4.6155,7.7603,1.8632,-6.1342,-3.9876,3.0805,-6.027,
-1.308,6.471,-32.3388,-1.6585,-2.9985,1.9679,-0.07592,3.3744,11.1513,-0.65897,6.7671,-12.9071,4.8236,-11.8115,
-10.8705,4.1545,-41.9678,-8.3079,-7.6393,-0.56032,-3.4458,-3.095,2.769,-6.4045,3.4686,1.9673,-3.1786,-0.016001,
-1.7821,-1.1564,-33.9059,-8.0502,1.2554,1.1605,0.85874,-5.0785,10.0751,3.3803,8.3226,15.9493,1.5919,10.3493,
1.9398,-1.328,-33.0769,-10.2187,4.7951,-1.5607,0.08386,-4.0509,8.2653,0.52589,11.4382,0.89232,2.7012,-4.3717,
-5.4072,5.0184,-37.359,-8.6415,2.097,-1.4668,-2.8135,2.4589,-3.8,-9.6288,1.5931,-3.1381,-1.3175,1.5547,
-7.7339,4.9583,-35.8404,-6.4358,10.8893,0.79038,0.0068983,2.5528,-7.6693,-6.8815,-4.0461,11.1502,0.44925,15.5614,
-8.9573,-4.7395,-35.8591,-11.1111,18.6718,-1.4264,-1.681,-2.6622,-4.0759,-0.92518,1.2581,9.8783,3.5556,10.6509,
-16.6148,-16.5064,-34.6719,-13.337,9.8387,-6.6435,-2.5444,-2.9844,-3.3494,-0.38773,3.1108,21.8191,7.6805,16.2783,
-20.6794,-25.8799,-29.4583,-10.3676,7.0792,-9.3781,3.6342,-1.1182,-2.4251,1.8047,5.0933,16.8945,19.9942,10.7224,
-15.5822,-36.3784,-25.7624,-11.1916,13.8849,-15.5641,3.8981,-2.4973,-2.2796,4.5889,6.234,1.7809,23.6148,-4.021,
-10.5497,-46.488,-23.9754,-15.0994,11.3648,-25.4763,1.0129,-4.9988,-4.7941,3.1085,-3.5398,-2.3029,14.7263,-6.7927,
-10.3991,-47.0732,-22.5371,-13.7117,6.8263,-24.9121,5.2907,-3.7348,-5.4706,2.4399,-3.81,11.9353,14.3244,7.7148,
-14.3547,-44.0078,-22.3902,-13.13,6.6579,-22.2123,2.8038,-4.7158,-3.9373,3.9805,10.5186,5.5549,17.5625,-1.7868,
-20.965,-47.8748,-24.1801,-16.9214,6.4994,-25.4588,-5.3181,-4.6738,-2.9781,1.5725,23.9874,-3.2141,16.2678,-10.5972,
-22.5994,-50.7872,-23.6933,-16.8703,5.1453,-27.3055,-3.0708,0.42713,-0.87103,-0.44984,20.3795,11.0787,15.292,-2.7308,
-14.9767,-47.2578,-16.9691,-7.6631,0.016357,-22.2927,-0.47624,2.3297,1.5914,4.3974,14.8179,22.827,15.3383,-0.63829,
-8.2936,-48.2786,-11.6125,-1.9008,-0.46667,-17.0989,1.4804,0.74377,4.3885,11.8464,18.2673,7.3574,14.4181,-13.6158,
-11.8933,-48.5153,-16.9413,-6.8484,3.6587,-22.5807,6.453,-2.9163,1.9558,14.7509,10.6636,-7.184,8.0092,-26.8988,
-15.2772,-38.6147,-23.8787,-9.5709,4.6443,-29.1797,5.825,-7.3209,-5.6335,12.6609,-4.0763,-4.5841,-0.42519,-19.8619,
-6.1656,-27.6207,-13.7691,1.6087,7.258,-22.6082,7.8859,-3.0251,-4.3314,10.9371,-16.4853,6.2965,2.0107,-13.8492,
-0.97544,-30.3022,-8.1225,8.2606,6.3403,-17.8777,7.8944,-0.43366,-5.0356,0.15775,-11.1581,-8.1813,5.7462,-24.1059,
1.2527,-25.8325,-11.2503,6.5601,6.2013,-13.6713,2.8415,0.79811,-7.3845,-2.0209,-5.4265,-11.1854,11.4274,-8.5596,
1.6595,-26.6929,-9.1293,3.2742,3.9008,-11.405,0.74278,0.26806,-5.0135,5.331,-2.691,3.5858,19.4187,4.1263,
-4.7068,-39.1914,-11.956,-1.7429,2.2205,-15.5412,1.1801,-2.6405,-0.8563,5.4935,-0.60133,-2.0525,13.9152,-10.2213,
-2.4961,-35.273,-17.0231,2.7003,11.2464,-17.5011,1.1095,-2.0001,5.9441,6.6098,9.0758,-5.7856,5.8496,-17.6826,
-1.3824,-19.1775,-22.2685,-1.8004,5.2689,-23.1999,-3.2958,-6.2185,0.76662,2.3567,11.9056,-0.13642,3.0879,-11.3194,
-5.3969,-29.3549,-20.2092,-9.1641,-3.0011,-20.1208,5.8202,-3.6763,2.8899,5.8309,14.8068,-2.7792,9.4107,-13.7731,
-6.7601,-36.9936,-17.3094,-4.0347,2.7226,-15.78,10.0505,2.0881,11.6348,12.4707,18.9799,-13.4587,17.2819,-23.3108,
-1.293,-25.374,-19.4043,4.1611,3.7643,-18.4486,0.047431,1.7216,11.6596,10.0352,19.0464,-8.5538,16.486,-23.1175,
1.1949,-20.4771,-21.6143,5.8397,-0.31795,-12.5212,3.901,3.0648,7.5858,7.0232,12.1188,3.5285,6.338,-13.5355,
-3.9383,-24.7922,-29.2354,-0.054223,-1.5038,-3.8161,7.7644,-0.73462,-0.82319,-0.3882,-1.3825,-2.2264,-7.2988,-12.4825,
-0.56879,-20.1712,-35.9172,-1.738,1.2375,-4.7922,1.7549,-3.824,-5.3535,-5.9085,-5.8793,1.0406,-8.5481,-9.082,
3.0808,-22.5763,-36.4135,-4.2852,2.3683,-14.8688,0.44455,-3.3534,-2.381,-2.9027,5.8019,9.896,-2.9737,-0.10117,
1.6907,-32.5501,-32.0594,-3.3049,-2.8351,-16.1459,0.17679,-0.01905,8.608,7.6357,19.5538,-0.57977,4.6764,-5.1569,
6.6509,-29.874,-25.0743,10.9934,-1.942,-1.9207,2.8174,9.3822,22.1915,21.2775,32.4806,0.65996,18.4958,-10.391,
5.2876,-23.261,-33.693,6.1157,-2.7897,-1.3236,1.2022,5.4447,17.1241,17.2289,31.2548,7.3689,13.1682,-8.3214,
-0.090997,-20.1782,-41.5535,-4.6152,-2.3812,-7.7518,-0.55704,-0.42547,3.3226,4.3849,17.5692,7.65,2.4961,-6.135,
2.5653,-21.6191,-36.8911,1.687,2.3412,-5.5997,-0.28288,3.6972,-0.9746,0.50637,14.3455,5.9857,5.9613,-8.9001,
4.822,-15.9832,-38.5338,4.9605,4.1289,-5.2635,0.69842,1.0657,-7.1826,-5.3086,9.6288,-8.4734,2.712,-19.4534,
10.5582,-0.92417,-42.7295,7.3142,9.9069,1.56,7.1642,-1.1676,-7.9567,-6.1951,8.3279,-11.9419,0.86183,-9.3679,
6.7912,12.9901,-41.371,9.0443,6.179,3.1534,1.1908,-2.7848,-11.0948,-4.1362,-3.0185,2.8746,-1.359,5.2942,
-1.8109,0.15958,-33.5861,8.9838,1.4697,-0.89192,-0.32672,-0.68931,-8.0187,2.8606,-9.5856,8.1253,-5.6161,9.4354,
-7.2459,-2.0192,-32.776,5.3115,-1.2698,-4.4538,0.41602,-1.8535,-0.54795,5.8223,-7.3234,-6.4622,-10.3405,-2.4592,
-4.1601,-1.1753,-36.3533,5.2335,-0.95239,-2.9818,-2.7427,-1.5011,3.5821,9.5705,-3.7508,-1.1335,-7.5512,1.3036,
-3.4281,-10.2634,-37.0642,0.099278,-3.3056,-1.3564,-3.542,0.99935,2.8854,16.7093,1.2948,13.0345,0.13296,8.4564,
-0.81213,-13.5041,-29.0556,-1.3528,-6.4814,0.17116,-0.91921,3.3496,5.6045,21.009,15.1969,8.7576,6.8735,-4.5843,
0.68263,-17.5143,-30.2048,-1.2717,1.1381,-5.1418,3.4743,3.1484,7.6786,15.4099,24.8902,-5.8679,8.8715,-18.4093,
2.3288,-21.525,-32.0078,-2.8827,12.3979,-8.4486,12.6659,5.611,8.4228,14.7264,26.048,-19.6158,11.9547,-31.4047,
2.1892,-23.1259,-28.6412,-6.0841,5.8696,-8.4237,12.8699,0.93587,2.133,8.5405,19.1823,-15.5466,6.899,-40.1255,
5.6732,-9.4459,-29.5741,-1.6214,0.45594,-4.785,7.0363,-2.7357,-3.5386,0.074361,12.4882,-10.9983,1.4234,-26.3898,
2.1995,5.2209,-39.1279,4.5015,3.5617,-4.739,1.0706,-1.8483,-8.87,-2.0996,4.2668,-3.3489,-6.6161,-10.7064,
-4.1992,9.3666,-43.0468,6.6415,0.45597,-2.5265,-1.8861,-1.2555,-12.1942,0.91889,-4.1839,10.952,-12.0037,4.036,
0.15007,4.7068,-34.4386,10.3404,-2.7051,4.1326,0.39643,4.8452,-7.365,9.7811,-8.0305,24.3949,-5.2577,17.8938,
2.5515,-5.6982,-30.9257,7.7921,-3.9887,2.9209,-1.0735,7.9292,-5.4769,8.2307,-14.7791,8.8312,-6.8701,10.6742,
5.7728,-2.4641,-27.624,7.3245,0.10711,3.7099,-0.52705,6.0071,-5.6304,4.3623,-14.8568,-5.7987,-14.6532,-4.0663,
11.934,0.33492,-24.7616,6.6439,-1.1045,-1.0924,-1.7006,-3.2713,-6.9797,-0.96097,-13.7243,0.33395,-12.5686,0.87747,
12.6641,-1.1313,-25.204,5.2813,-1.5203,-4.8833,-0.15242,-3.557,-5.1147,1.0248,-8.5622,-6.9168,2.2855,-9.2982,
6.3608,0.62367,-25.861,5.6875,5.0785,-2.903,7.3286,1.718,-1.1925,6.9892,0.86947,-18.794,7.0891,-22.8403,
-0.5287,-3.5112,-29.8531,0.28464,7.9072,-3.934,6.1657,-2.4826,-2.8081,3.9186,3.9507,-11.6407,-1.2901,-33.8827,
-5.5583,-6.9159,-35.5336,-2.3836,6.2278,-2.9749,0.73441,-4.0207,-3.8448,-1.3783,3.9545,0.86824,2.885,-17.7497,
-1.8505,-5.5367,-34.8477,3.0619,1.9974,-2.7965,-1.238,-1.3693,-4.0962,0.63248,6.1272,4.6724,1.2656,-11.7438,
6.2143,-2.0712,-26.2492,7.4577,-2.2198,-1.9056,-0.44056,0.88206,1.2111,12.4051,8.8931,13.3097,-8.2104,-2.6032,
-2.8354,-2.9111,-25.1564,1.7076,-2.0866,-0.82719,-2.8245,-1.0991,-1.2717,9.2507,1.1287,7.6908,-10.1279,5.7479,
-8.6909,-0.085068,-26.2981,2.3283,10.3311,0.42773,-0.0036894,-0.30999,-4.8108,0.74167,3.7123,-4.581,-1.5662,-2.5507,
-5.5181,-2.2491,-29.7819,4.3577,9.9522,-4.6596,2.1657,-3.9068,-2.835,0.93814,11.9257,-9.8497,1.1788,-16.1362,
-0.60759,-2.8374,-28.718,5.3014,-2.9373,-1.2467,2.2768,-2.4672,2.8786,7.3894,12.897,-1.7868,3.7593,-6.7323,
0.87489,-0.73898,-29.4053,3.0552,-2.7611,2.6845,-3.1624,0.5731,-0.66854,6.9461,10.6774,12.4204,2.0875,6.6871,
4.679,2.6798,-28.6048,3.354,11.3841,4.4519,-3.4546,1.0209,-4.0027,5.0833,12.4471,13.0009,2.9268,6.2859,
1.5059,6.8575,-27.3706,4.1168,11.1833,1.7745,1.0911,-0.96868,-5.2086,0.92178,6.3975,2.0979,0.34095,1.5703,
-0.27183,9.5794,-25.4875,5.5569,4.9686,0.46264,1.7489,-0.18732,-7.0654,-0.82086,2.8801,7.5155,-6.1876,2.681,
8.1804,13.5841,-19.3787,9.803,4.4295,2.6043,-1.4895,-0.41704,-4.4723,0.91561,9.6971,11.1619,-5.0929,5.6536,
8.1717,18.5537,-16.2878,12.1071,-1.6211,2.9302,-3.3284,-3.2845,1.5811,-4.4415,7.1871,0.85124,-2.3772,5.3144,
1.4148,14.0661,-17.7208,7.5244,-4.8981,1.7902,0.24568,0.28687,9.1989,-6.5853,-0.95701,-1.1281,-6.573,0.65713,
-2.2855,-0.87786,-23.6472,2.0112,-3.8811,-5.3071,-0.49219,-1.4176,10.8161,-6.4316,-7.4071,-4.6759,-15.0967,-10.7105,
-3.5944,-9.1406,-23.6746,7.1932,-2.2022,-5.4706,0.019502,-3.2607,18.3621,-7.9736,-2.6241,-5.8414,-10.3343,-2.3551,
-5.5481,0.80783,-19.6028,7.4848,-5.2033,-4.9014,-0.7048,-2.3419,26.1784,-11.1106,1.1488,3.9091,-7.0632,11.8862,
1.0514,7.9901,-18.4268,4.1433,-2.4809,-4.1253,-3.0728,-2.6835,27.0175,-10.4439,-3.7408,1.746,-7.1216,22.3806,
1.9525,-4.0586,-22.1417,0.52033,-1.85,-6.7702,-2.4063,-3.0045,29.2532,-5.4791,-6.4089,-7.9993,-5.7301,14.7712,
-9.7339,-17.9151,-23.7054,-2.8855,-7.5237,-16.9691,0.14828,-2.3422,32.8003,-2.7401,-3.6142,-4.1453,-6.3505,18.7053,
-13.9704,-7.5608,-20.8371,-0.78391,-9.9646,-16.4329,-0.82471,-1.2376,31.3147,-2.5757,-2.9149,5.2625,-8.3796,31.683,
0.96786,6.9929,-17.8994,8.6631,-7.1973,-1.347,-7.2829,1.9699,30.1589,1.1945,-2.9812,10.9725,-9.0819,42.9183,
15.0098,20.6733,-24.2973,4.528,-13.2733,1.5058,-12.8716,-5.1378,17.0211,-11.1698,-12.6844,-3.7858,-17.9371,26.2432,
17.9655,33.5329,-17.7781,10.2817,-2.1128,0.69231,0.67513,-1.2143,15.7586,-11.7047,-11.6821,-17.6587,-13.2452,14.6657,
18.3338,45.6209,-21.0497,6.7727,1.3884,-1.7594,-9.0063,-6.926,6.1364,-14.8588,-18.694,-23.107,-15.825,4.1452,
31.3338,56.9837,-18.3404,6.3666,2.2692,3.1667,-16.1785,-8.9204,0.94777,-14.9313,-18.0545,-18.8283,-13.9114,6.3064,
43.5537,67.6647,-14.5887,11.0458,5.2666,0.32536,-5.3259,-11.0367,-4.6527,-20.5429,-20.5867,-22.2779,-18.6203,10.5078,
33.228,77.7048,-10.8211,14.2394,14.5915,-0.65826,0.29587,-8.4463,-10.1581,-20.7566,-25.136,-16.6029,-25.2159,8.913,
45.3343,87.1425,-9.4489,12.6619,17.3312,5.8889,-7.6754,-4.8063,-8.3436,-12.0396,-22.9047,-12.4735,-22.4979,5.7269,
56.7142,67.8139,-9.6051,12.6256,17.9786,6.7407,-6.9739,-11.5078,-10.0126,-13.0045,-19.8432,-24.4995,-20.4251,-2.5705,
64.8803,67.4809,-4.9315,13.0729,28.71,-0.17148,7.5445,-13.9503,-12.5449,-14.8753,-20.3399,-27.609,-24.2608,-10.8524,
46.8875,77.532,-0.53798,12.0478,38.3158,2.9721,13.2379,-1.7853,-6.7307,-6.9932,-21.7708,-17.9985,-24.0102,-11.4063,
38.6511,86.9801,-0.023771,14.6989,34.5706,12.4347,3.7665,1.2143,-3.4348,-8.0198,-19.5007,-20.775,-20.1595,-12.6501,
41.8759,95.8613,4.0752,21.7709,31.2913,14.34,2.3355,-0.54602,-7.3258,-9.2256,-11.3405,-20.7336,-10.514,-5.8653,
43.2195,76.7328,3.3486,16.1261,23.629,6.7309,2.6775,-0.031098,-14.5993,-10.1181,-15.481,-5.3896,-10.8473,5.5736,
36.2882,65.8625,3.6298,10.8205,18.8371,6.8092,2.0347,0.45293,-13.2412,-8.065,-16.9621,0.59791,-12.6068,4.2755,
28.8083,62.3927,7.2684,14.0276,19.635,8.3288,1.4307,-0.53857,-8.1084,-4.2067,-4.8571,-13.538,-6.0658,-10.081,
26.3564,47.8029,9.4834,14.3908,14.8415,1.8031,0.62147,-1.7115,-9.3091,-3.7133,-3.8428,-25.8618,-5.9428,-9.5973,
16.0984,38.6682,7.9505,6.7789,10.577,-2.1612,-0.86162,-2.0903,-10.6788,-3.9724,-16.1457,-10.2101,-10.8889,1.5843,
11.5169,48.158,11.0887,0.3464,7.2906,-2.7547,-2.4974,-0.76031,-4.9766,-0.11889,-16.382,2.5745,-6.138,-3.5727,
12.2721,50.0892,10.4236,-1.6026,2.0329,-8.8559,-3.7933,-2.6424,-7.0881,-1.0756,-11.5427,-11.6799,-3.3596,-17.4583,
10.3307,42.9867,10.0391,5.0013,8.9006,-6.1554,1.4957,-2.2431,-10.278,-2.6985,-6.7526,-22.1869,-2.4349,-22.3159,
10.6747,37.997,13.7751,10.4858,12.2229,-0.48368,1.8879,-1.1447,-9.1794,-4.4648,-2.9734,-6.7556,1.5676,-8.4439,
14.8547,41.5019,15.8409,10.8207,5.7052,2.4379,-1.5996,0.85242,-10.0747,-4.1967,-0.86661,1.242,3.402,-0.22428,
15.6509,45.5195,18.988,14.2691,8.0142,6.3889,1.6296,2.4887,-15.9779,-2.7398,-7.3223,-1.9658,-1.864,-1.4159,
13.7475,45.6804,23.6333,13.8949,10.4254,9.3801,2.9781,2.8213,-14.0549,-1.6111,-12.6676,-10.5247,-5.1262,-9.5256,
8.1024,38.6013,22.6973,9.2048,5.4616,5.925,-0.57502,2.6521,-7.9094,-1.9968,-10.9432,-7.0012,-1.4446,-15.703,
5.6876,30.0182,22.2995,12.5089,7.0621,0.74876,4.2797,2.9749,-6.471,-3.3233,-11.7329,2.5777,1.5346,-10.9044,
12.5772,31.5916,27.2283,15.6147,11.941,4.5602,7.3974,2.7964,-7.0466,-2.1596,-12.4751,-7.2177,-1.932,-10.2502,
18.0893,37.4091,31.3792,11.3036,9.7781,7.6611,-0.27705,1.1826,-9.5161,-0.58397,-5.9418,-19.8001,1.0762,-16.8658,
10.9786,33.4776,27.8094,5.564,7.0224,-1.2345,1.4266,-0.093453,-14.0066,-2.2359,-0.041928,-6.8017,8.9656,-15.6129,
3.5708,17.3689,24.2124,1.3735,4.1907,-3.5708,5.6795,-2.4982,-13.1664,-8.8504,-3.4136,-4.4656,3.1253,-20.4607,
8.177,10.6624,32.8828,7.5578,3.9391,10.7435,1.4821,1.9902,-4.1815,-5.9095,-0.79846,-18.2977,-4.2933,-25.0176,
6.4813,24.1227,35.4894,10.7196,2.9801,20.3425,-3.6682,2.594,-3.2075,-0.97543,1.9008,-11.5355,-1.3844,-15.5628,
6.5746,35.3291,32.8781,6.7022,4.7292,12.3732,0.40847,0.50989,-4.461,-0.43475,-0.62363,3.2566,4.9654,-7.8804,
10.0368,28.8712,34.7618,7.7461,3.4814,11.1489,-1.0621,2.8897,-3.2293,-1.3728,-2.9966,3.9048,7.5598,-8.3716,
4.3729,13.039,31.9529,8.0047,-3.235,14.5773,-5.0957,2.4753,-3.2765,-1.0494,-0.64762,-2.355,4.4551,-9.5563,
-1.4331,-1.8434,27.8664,2.9446,-8.1026,10.5692,-3.5851,-2.7349,-2.357,0.21883,1.0785,0.91933,-4.7303,-13.5627,
1.7864,3.5694,30.292,6.8653,-4.4829,6.802,-4.0929,-2.3298,-2.9385,0.44667,-0.19108,14.9642,-6.1337,1.3511,
-8.4439,10.5859,19.7974,3.5611,-6.6243,0.12693,-11.0784,-6.5286,-13.8496,-10.1852,-9.8208,26.2384,-4.3196,15.37,
-14.2041,6.0946,22.4661,-0.50872,-0.44205,8.3145,-2.2188,-2.7622,-10.1259,-8.1281,-3.4467,12.6127,3.1706,3.3608,
-5.1571,-2.9482,31.2411,-2.4068,0.54834,10.7077,3.6989,0.77754,-1.3236,-1.8558,5.9186,-2.244,1.5341,-10.9409,
9.2523,1.0855,35.1514,4.0045,-3.8229,3.3168,1.5488,1.2133,0.68397,-0.78011,4.5996,-16.2094,-1.9324,-24.3844,
12.9155,-0.4261,34.4884,7.6209,-3.5937,4.0819,0.97418,2.5865,0.16077,-0.25115,1.4314,-7.765,-0.3704,-17.8597,
4.6687,-10.2825,31.214,1.1381,-2.6548,4.5601,0.19237,2.6723,-1.5361,0.48682,0.62213,-8.9863,0.37518,-16.5471,
6.3166,-11.112,26.9308,-1.823,-4.9063,3.3221,-0.78327,1.5479,3.3765,-0.024548,2.9952,-14.7139,-3.9859,-20.8572,
7.3838,-11.8911,22.9046,2.1428,-4.1295,6.9792,0.70998,1.455,11.3687,1.4232,11.0102,-7.0824,-6.6392,-24.4262,
0.19214,-11.6598,20.5664,3.4607,-7.256,4.1503,-2.2249,-2.4885,3.9379,-1.0726,11.796,-2.8011,-2.3843,-22.9604,
5.9652,-4.2113,24.6349,9.5196,-7.7849,7.2755,1.765,2.4811,-1.6006,-0.043883,8.1958,8.9364,4.9896,-7.4828,
-2.8289,-16.7331,16.6491,4.3687,-10.4513,4.6696,-1.9563,2.0913,-3.6742,-2.2109,0.23221,10.5694,-3.7459,-11.2519,
-12.3001,-22.9599,16.1323,4.5889,-5.9679,2.9434,-2.8033,1.4838,-0.079278,2.7425,0.70021,3.1863,-9.7876,-17.8076,
-5.0539,-7.8438,17.8157,7.4469,-7.2968,3.9721,-3.3578,1.1536,-7.5461,2.3372,-3.4389,10.4672,-5.5847,-2.6392,
1.7566,1.5447,17.4699,6.7589,-12.4024,9.2774,-1.4693,2.2895,-13.601,0.027587,-5.8839,22.6134,-4.527,9.9324,
-4.1334,-12.648,17.3858,3.4613,-7.8018,8.2386,1.9933,2.1521,-3.144,3.8823,3.6282,7.1565,-9.5576,-4.7635,
-12.3213,-25.9891,15.1373,-2.7722,-0.82601,0.75461,-2.7058,1.2998,1.1422,3.8901,7.0257,-7.3728,-5.8508,-18.5777,
-13.5104,-21.5377,17.1214,-2.1237,-6.5613,0.22717,-9.2924,2.1859,-6.1574,-0.19945,1.7836,-9.8228,-1.6436,-27.1045,
-9.0839,-20.004,22.1199,2.583,-15.5676,4.7931,-8.0117,3.742,-4.1007,1.4997,5.292,-9.9563,-3.2322,-20.4165,
-9.9852,-27.9628,19.8286,-1.9103,-14.6335,-1.2791,-9.9411,1.1074,1.9299,4.3018,4.9745,-9.3589,-6.8947,-22.5658,
-6.9762,-22.9108,23.4594,3.5068,-1.7042,0.24367,-5.4885,2.005,-2.5244,4.0439,1.7837,-0.60268,-2.1425,-15.4275,
-7.5212,-17.1976,26.3903,7.6349,-5.4581,4.0857,-1.3026,-0.52563,-13.46,1.8729,-0.73363,-3.4588,0.39644,-9.1992,
-8.275,-13.9964,30.3505,7.418,-14.0489,7.4559,-0.98322,4.5678,0.12231,11.1607,6.3005,3.2564,-2.2787,-3.5855,
-18.1428,-22.0747,21.5396,-0.98082,-15.3751,3.3932,-6.95,2.6065,6.6225,9.7677,-0.10355,7.6408,-10.0959,-10.3603,
-15.6082,-21.2323,20.7292,-0.9222,-0.47311,7.5279,4.5542,4.3781,-4.8624,9.1819,-6.3641,-1.9769,-7.562,-20.8259,
-10.0922,-6.7018,25.5112,-1.1076,4.6167,8.7635,5.486,6.7667,-18.6706,7.4259,-12.9719,2.7212,-7.3492,-11.1402,
-10.6915,-7.0226,24.2215,-3.2108,-2.1678,6.5504,-8.9431,3.7096,-21.768,-0.0095053,-14.3627,16.6579,-8.1133,3.6282,
-5.9527,-20.7012,25.4195,1.0797,1.5777,10.7369,-7.8039,2.2818,-6.3619,-1.6962,0.59904,11.1994,-1.601,-4.9049,
-7.5237,-21.0261,23.8944,-0.43181,5.8214,8.6464,-2.5154,2.1449,8.1198,3.2263,8.8785,-3.5725,-3.4331,-18.7106,
-8.0366,-16.3901,23.9067,-4.2623,-1.2768,6.1995,-1.8825,4.9082,3.776,4.4785,7.3815,-17.4582,-2.7452,-30.9651,
-9.9648,-26.9761,21.0263,-8.827,-13.7335,4.3815,-5.1438,0.75757,4.0316,-2.0565,8.3851,-8.4567,2.24,-19.9481,
-13.464,-24.1525,20.4876,-2.2716,-9.7762,8.2159,-7.4865,-0.49294,3.5485,6.9848,7.6408,-5.7802,4.275,-24.2949,
-8.7998,-14.0262,21.1868,4.1312,-3.405,14.4719,-6.5552,4.8388,-10.7644,11.3859,-5.3512,3.2435,2.0903,-9.8217,
-4.6568,-14.8719,15.818,-4.5524,-5.3699,10.4701,-3.0286,2.3793,-20.3621,0.33891,-8.1636,10.0388,0.27765,2.5777,
-7.2695,-8.195,16.7973,-4.2792,-4.0834,9.3599,-3.3288,-2.5837,-5.0404,1.7648,6.4262,2.2056,2.1892,-6.7358,
-10.4485,-6.9801,23.2611,1.5209,-6.0078,10.9673,-9.6368,-4.5981,6.4697,9.1305,15.3206,-3.4703,0.37084,-13.3215,
-7.6524,-11.623,27.409,1.6711,-8.2984,11.0326,-5.4432,1.7034,6.8049,10.7519,11.7499,1.7993,-2.303,-8.4246,
-8.8803,-12.1307,27.4517,1.3296,-8.5236,7.7193,-3.4293,2.3243,-1.5574,5.0453,5.9834,13.5017,-3.8518,-3.3396,
-10.5171,-16.9465,27.0097,4.8653,-5.843,8.4615,-5.8749,0.49762,-8.4538,5.9479,5.3834,8.1123,0.95861,-8.2009,
-10.6092,-26.2935,26.1122,3.3683,-2.3592,9.6408,-1.907,2.6372,-4.3312,12.0987,7.7118,-6.4744,5.4806,-17.5908,
-11.4187,-17.9673,25.0277,-0.20804,-4.628,9.5445,-0.82848,2.4792,-2.625,10.8906,2.9105,7.2907,1.2956,-8.3407,
-11.4567,-5.561,23.767,-0.43675,-9.4118,8.2487,-2.9479,0.64295,2.5939,5.6577,1.5308,17.2174,0.49475,-3.7426,
-15.3486,-15.5915,24.0284,-1.6154,-9.088,5.1027,-2.5301,-1.5648,8.4643,4.5953,2.6443,2.0843,2.6342,-17.6181,
-13.9457,-22.8509,25.4788,-0.072656,-3.722,10.0987,-1.8963,-0.024642,-3.131,2.3914,1.0393,-12.1407,6.3326,-30.661,
-11.422,-11.1158,21.2987,-1.2734,-7.5963,12.626,-6.844,-1.2282,-9.4509,-8.5986,-3.6025,-9.7251,3.3013,-17.0112,
-10.9774,-2.0129,21.2261,0.97243,-12.202,10.6634,-6.1924,0.05053,5.2162,-10.7335,0.2288,-10.8286,-0.030053,-13.8211,
-9.8371,-4.7844,25.2549,6.2165,-7.6137,10.0238,-2.4466,4.868,19.0032,-7.6796,2.6254,-11.6251,1.8997,-13.9562,
-3.462,-2.5689,26.15,4.8794,-5.2285,8.4583,-4.2278,5.54,24.6119,-9.1468,-3.7988,-3.6968,0.3397,0.98117,
0.84328,-0.72781,23.3757,4.3455,-7.5661,7.2277,-4.2153,6.8946,32.0531,-5.4647,1.0086,-1.7877,-0.88574,15.0223,
-6.9201,-5.5044,23.4194,5.531,-7.594,9.2041,-1.0699,9.8554,33.9863,2.094,9.1433,0.72966,-1.3145,14.1212,
-12.5307,-1.077,26.1118,1.5839,-5.9333,7.4468,-3.657,9.5052,28.8138,5.584,5.4614,8.1579,-2.9227,10.6226,
-10.5735,-6.0736,20.4475,-3.0908,-7.7465,4.8309,-5.6068,7.2477,30.7004,1.1511,0.55398,10.8015,-2.5063,16.9751,
-7.0468,-14.8685,12.9542,-0.97697,-7.7639,9.3615,-0.44987,7.295,31.2687,-5.6666,1.4848,2.9228,-0.42799,15.9566,
-10.7216,-5.5404,13.8639,-0.67762,-4.1648,10.0049,0.30002,6.1342,24.3307,-10.3881,0.19068,-11.3526,0.32082,0.89921,
-13.6935,-1.5928,13.2731,-3.7702,-4.1561,8.6814,-2.8512,7.4531,24.0759,-9.0416,5.2407,-12.4791,2.471,-5.301,
-14.3181,-11.6204,8.6203,-7.4004,-14.0296,13.4632,-7.9828,7.0059,21.1851,-3.6789,7.3364,-7.8742,4.2504,4.1759,
-15.8694,-10.4408,6.6568,-5.5103,-14.6339,13.6195,-6.5397,5.1395,15.5759,-1.0478,-0.81681,-9.8119,11.7084,8.7458,
-11.543,-4.03,4.3294,-1.805,-7.9715,3.6435,0.11938,5.7953,20.4257,-0.020837,-0.76757,-10.1873,17.2727,-2.384,
-11.0912,-6.9214,-0.99201,-3.3842,-21.5932,3.6657,-12.1801,5.6883,26.6722,1.6674,1.4479,-10.2992,2.1363,-10.1949,
-8.9797,1.6888,0.51354,2.1213,-31.9873,17.5457,-18.6801,11.6137,24.1078,15.5469,-1.0494,2.3701,-6.7892,4.5168,
-10.6101,3.7566,-9.3992,-3.5496,-15.968,12.2751,-8.1593,2.9632,8.5613,9.5524,-14.7252,4.3973,-8.0691,10.633,
-3.9477,8.1107,-13.8967,-7.9157,-0.90994,4.0671,6.4303,-2.2761,-6.0524,-5.1208,-15.5287,-1.8923,-6.8618,-0.85104,
-3.2289,11.9624,-13.0629,-5.0306,13.2447,9.1252,2.7907,-2.6214,-19.7892,-11.6824,-13.1507,9.3084,-11.7528,12.2154,
-9.0609,3.7731,-14.9305,-8.344,-0.20353,2.5524,-11.4767,-6.5617,-13.179,-7.8482,-11.1566,13.3294,-16.1091,12.6876,
-6.3483,0.89539,-10.4194,-9.5308,5.3516,-5.0728,-8.2578,-5.9273,-6.8448,-4.726,-1.5693,-1.5703,-10.0811,-2.1737,
-2.1108,6.1441,-4.4916,-6.0667,19.1305,-2.8405,-1.9775,-4.1252,-6.4339,-8.781,-1.475,-15.5761,-0.79933,-16.1433,
3.0775,6.4983,-5.9094,-5.4617,9.9085,-3.8749,-15.5974,-7.0111,-12.0734,-11.3876,-8.8583,-23.5596,6.2385,-18.7901,
8.9184,5.8679,-0.97504,-7.3031,0.39634,-10.1499,-11.5281,-11.6522,-5.8054,-3.7145,-7.6039,-10.8178,1.7668,-16.4574,
4.2862,4.3108,2.2167,-5.6599,14.4726,-18.9411,3.2636,-14.0863,2.0145,1.5703,0.80633,-20.0507,-2.9187,-23.4239,
-1.0329,0.43649,-6.8344,-5.5615,27.7042,-24.3123,8.25,-11.0717,-7.0242,-0.69333,-0.44711,-18.6067,0.38969,-21.2956,
11.8035,1.6156,-2.3267,-3.5406,40.142,-21.1664,5.5858,-5.8281,-16.4847,-0.41076,-5.9639,-3.3903,5.428,-12.0639,
16.3977,2.9647,6.0076,1.4923,42.9151,-19.8964,12.4813,-6.9245,-15.4959,0.57798,-3.1957,2.7182,7.5122,-4.5914,
6.496,-4.2033,3.9599,1.644,41.5453,-20.872,16.3119,-7.2321,-10.4685,-1.1442,5.9139,-11.5449,14.0511,-16.1262,
10.2041,-13.8328,2.0353,-0.14141,41.2222,-24.6809,17.0204,-3.1828,-8.1532,-3.7266,5.3181,-24.9522,16.8239,-29.2587,
17.5456,-16.1363,0.70791,-0.37436,44.7744,-27.7798,19.1322,-1.3046,-9.3512,-4.7083,1.8655,-15.2601,14.6092,-33.167,
9.021,-19.7474,-1.5037,-2.0391,38.4725,-28.2822,17.7433,-4.3598,-10.9593,-0.32799,-1.8618,-5.4265,13.4917,-20.8129,
-3.8127,-32.6626,-4.0648,-6.0141,22.0642,-35.5031,8.2431,-13.0158,-3.3123,6.6811,-6.8118,-18.8394,8.5848,-33.6641,
-0.20976,-44.8028,-3.339,-4.6892,22.0656,-38.1936,6.7844,-10.7888,8.4558,8.2087,1.3099,-14.3348,14.336,-37.0676,
3.9006,-39.9455,-5.7898,-4.1669,26.7677,-36.6249,9.9927,-4.116,-6.1515,-2.6482,1.4723,0.62525,18.0556,-22.0689,
0.53311,-33.4514,-8.0937,-3.6759,31.1872,-27.4377,14.9368,-2.6637,-19.8825,-0.80206,-2.2315,0.94942,14.8031,-11.8269,
-1.6683,-32.1675,-7.8493,-0.32208,26.6646,-19.7659,13.3174,-4.6733,-10.4946,3.3436,5.374,3.5435,14.1557,-2.6816,
5.1807,-24.4526,-3.0395,2.1078,14.9419,-13.7593,10.1083,-1.5004,-3.5984,-7.4623,10.3546,14.4182,17.6451,3.2643,
7.28,-21.0575,0.51707,-3.8037,11.6348,-10.5236,10.4656,1.4817,-6.2745,-12.7991,9.7329,-0.54693,22.371,-11.0316,
2.023,-27.0246,0.9682,-5.9856,10.9371,-11.8204,5.0175,1.8748,6.153,-6.2466,17.3441,-14.6141,28.2596,-24.4697,
-0.026835,-22.0287,-0.53592,-1.7698,-0.80655,-9.6649,-2.0325,1.7625,8.6766,-3.4614,13.8931,-27.8373,32.8307,-23.7246,
1.662,-8.4149,1.6652,0.023127,-1.9634,2.7251,2.669,2.3796,-5.5828,-1.5665,-0.67881,-12.067,40.2604,-8.2011,
-1.33,-8.392,1.5653,-4.7983,8.7599,10.2744,7.8112,0.3089,-6.2119,-1.9547,3.2181,-2.184,40.2552,2.5343,
-5.1068,-14.6371,-1.9029,-7.4027,9.6803,9.6582,3.9683,0.77253,8.2608,-0.87332,17.125,-3.499,34.9476,1.4184,
-5.0414,-16.4102,-2.0297,-7.6819,-5.0005,7.8734,-5.1878,0.96715,11.742,5.2046,14.7722,-2.084,29.7177,-1.318,
-8.1134,-16.3897,-2.8722,-6.2566,-14.4622,11.7395,-2.9484,-0.055207,0.9146,11.1593,3.7625,-2.923,21.6676,-1.2392,
-13.8931,-13.4781,-2.6999,-2.0249,-2.0253,15.8554,4.4594,1.3944,6.6443,12.418,5.4649,0.62658,16.0293,1.7275,
-14.5055,-11.7053,-0.12754,1.4709,-7.2062,16.3506,-2.0749,2.7567,10.1018,3.9599,8.5113,-2.3033,19.4056,-4.1608,
-10.7431,-12.4491,-2.0481,-2.4738,-19.3068,13.4414,-7.2528,-0.30073,-4.6043,0.34783,6.0728,-5.5393,19.688,-10.1776,
-6.965,-4.2303,1.2081,-1.6024,-6.3383,18.1785,4.0284,0.92215,-10.2329,7.3168,11.2521,8.893,11.9988,-0.64914,
-13.778,-6.3868,-0.79261,-1.9882,-5.958,16.1234,-1.0336,1.8311,-0.94226,2.0576,12.0228,9.444,1.6379,-0.61019,
-10.3,-11.0651,-0.98602,-1.6277,-19.7005,7.6845,-11.3359,1.4801,5.622,-2.1635,7.2043,-5.2226,3.2266,-12.3837,
-4.6203,-4.8578,-1.1681,-1.2891,-24.1826,8.4282,-7.5225,-0.29595,-3.6334,2.0637,0.74601,0.03171,9.5409,-14.7742,
-7.7175,-0.22777,1.7945,0.23449,-9.7162,16.5996,-2.7324,1.65,-11.6101,6.2782,3.5938,14.1298,9.4504,-4.2465,
-7.4955,-3.3474,9.1587,4.3178,-5.0359,11.5063,-0.8812,2.7563,-5.3699,6.1429,9.4042,10.0283,3.8222,-4.2327,
-6.0816,-4.1104,3.7889,-2.2076,-14.3745,5.5135,-7.577,-1.7476,-3.1193,-0.97432,0.16303,-3.1067,0.21816,-11.6915,
-4.7526,2.4025,2.1151,-4.4859,-21.225,19.2827,-10.979,3.1777,-5.8244,-2.3624,-6.5959,-10.1511,9.3639,-5.2057,
-5.6728,4.4278,7.0499,3.2555,-19.7105,26.4409,-9.5971,9.9769,-8.6084,3.323,0.78974,-9.783,13.8637,-1.2777,
-10.876,-0.89936,5.9037,2.3368,-16.3587,14.0082,-6.8521,6.2448,-5.9228,6.739,8.2142,1.65,8.9345,-8.1909,
-8.7772,-3.2558,5.5495,-3.588,-18.7517,12.6858,-4.5131,4.9063,-2.1929,5.8528,4.8288,3.4792,7.4341,-8.1816,
-0.055627,3.2063,9.0729,-1.9267,-22.929,14.8169,-4.242,6.0579,-6.8818,3.5732,2.6111,-3.4782,3.6139,-1.9059,
-1.2574,4.7012,11.1799,0.35831,-18.42,11.2766,-0.37187,4.0074,-5.2639,-1.7027,7.5159,-1.5823,0.74572,-6.8532,
-12.5099,-9.6809,5.9298,-3.7608,-9.8428,9.3949,-3.4828,-0.81252,1.5597,-6.18,10.6806,-4.1385,0.46024,-15.3599,
-16.8212,-20.0668,6.2969,-5.2221,-12.3859,9.5544,-12.6743,-1.005,-1.6672,-1.7116,9.3162,-4.1314,-6.0751,-6.9665,
-5.6888,-4.7628,19.4167,8.5888,-11.1606,20.5505,-2.2726,9.6609,-3.9775,8.9961,14.542,10.2165,-5.2284,7.5515,
-7.9988,9.1408,17.5283,10.2424,-7.8396,21.0045,4.3712,7.3937,-6.3902,3.3949,13.9102,4.4214,-2.7458,-1.4582,
-13.7856,1.8437,12.6202,5.2893,-6.8871,13.4775,0.25276,3.0935,-6.4889,-0.6654,10.1833,1.2638,-4.9914,2.4857,
-8.8611,3.4201,17.8886,8.1054,-9.6073,13.8736,-1.932,3.1489,-7.3049,1.5437,8.3675,15.288,-5.4148,16.4365,
-0.37548,10.6869,23.3232,15.5731,-10.236,21.9595,4.2101,4.6474,-3.7329,2.1746,12.9269,17.6247,5.7561,14.366,
2.2984,6.9122,20.7185,14.3975,-14.2013,19.9188,-1.1044,0.27096,-4.232,-2.5358,10.4643,2.4672,0.34929,1.2115,
4.8116,11.077,22.1267,16.6671,-15.5184,18.4827,-3.6892,6.2802,-5.6653,-1.1784,5.2567,-8.6476,-10.5179,10.5388,
-0.056414,14.9921,22.9683,18.8001,-8.5618,18.5786,4.0039,10.0008,-7.4946,1.5434,2.7721,5.6096,-7.7177,13.5219,
-3.1863,12.4051,17.975,13.0931,-4.9148,12.8848,-0.81581,2.4111,-8.25,1.692,3.8108,0.21156,0.69934,8.6133,
2.7897,13.5893,16.4146,9.8971,-9.4404,6.3269,-8.4799,-3.036,-5.8265,-2.7481,7.4388,-0.76523,-2.2349,19.1837,
8.8888,19.5223,23.6244,17.498,-7.9096,8.8398,-4.1147,1.0026,-5.4774,-4.0294,8.4387,10.3679,-5.9572,29.6018,
8.5965,21.9664,26.7864,20.5455,-6.2302,12.8887,-0.25238,5.0398,-13.1025,-4.9925,9.6196,10.9511,-3.9125,29.5129,
10.7318,20.4075,22.5279,14.2515,-4.6511,15.7308,1.45,6.9065,-11.593,-7.8264,12.1755,9.5707,-3.4368,31.8395,
12.9802,21.5934,23.5864,14.3601,-6.7824,13.3405,3.291,4.0818,-1.2567,-6.3927,11.4452,8.9967,-4.6766,32.8214,
6.8992,16.4414,17.8329,15.4271,-13.6058,2.4176,1.1658,-1.4653,-2.6271,-2.1528,8.3484,-1.6662,-3.4317,26.5138,
0.21824,10.6342,4.2296,10.6451,-7.4873,-2.0662,1.5777,-1.3774,-7.7721,0.38696,13.632,-5.9048,-4.6721,18.6563,
-7.7486,9.7552,-1.568,7.3548,0.43374,1.6727,0.27779,-1.5362,-7.5472,-0.35962,15.4647,1.4389,-11.864,17.2957,
-6.8017,9.6518,-0.99173,8.3598,0.88965,3.501,0.74306,-2.8898,-6.612,0.62628,9.2347,4.7275,-7.2953,25.8991,
1.8015,4.2524,-8.1631,3.5199,1.8006,-5.8681,0.69847,-6.0909,-8.6258,-2.3038,2.896,-8.0897,-11.6783,21.9348,
6.2727,7.6123,-4.54,7.4056,10.1282,-7.2032,5.2359,-4.0382,-2.0827,0.96744,8.2659,-5.9173,-23.7521,18.9315,
2.5219,13.9049,1.5172,13.7102,5.6642,-5.3248,2.512,-0.42144,1.4167,4.7662,15.4827,4.5609,-24.2551,25.9906,
6.2267,9.6959,-4.8408,12.4054,0.021885,-9.3438,-1.4953,0.085546,-4.9351,0.14172,11.179,1.8769,-17.0155,27.8054,
9.7098,3.3298,-7.9244,7.323,0.98467,-10.2292,1.9686,1.5269,-0.30042,0.61538,6.6521,10.4416,-11.6555,29.9936,
11.2966,4.817,-3.3515,7.6067,-8.4746,-10.8206,1.1274,-0.25217,9.1178,-0.62661,10.3506,13.4303,-14.0899,31.8092,
14.234,16.3383,-7.248,12.2118,-9.6532,-8.4843,-2.0735,-2.406,5.9194,-6.1329,11.8985,-1.4755,-15.8959,26.2855,
6.6312,23.5525,-16.4541,10.9969,5.026,-3.6367,-1.4669,-2.7438,1.7077,-5.7647,3.954,-10.6665,-18.3163,32.4209,
-3.6483,12.7396,-21.0103,4.3113,10.6298,-8.9619,-0.65579,-7.1587,7.149,-8.552,0.10154,0.33779,-26.6171,43.2503,
1.6318,6.9135,-19.0267,8.1505,2.0382,-8.1832,3.9628,-6.4882,20.8201,-10.2085,11.9056,6.825,-15.1382,47.6452,
2.257,5.2937,-18.1261,10.7947,-4.1098,-6.0052,4.9306,-4.8938,30.5376,-7.9086,4.6835,-4.4305,-0.49132,44.0633,
-7.2784,1.3606,-22.1,3.1571,-3.1403,-12.6348,-0.90885,-3.3949,31.8389,-12.0138,-4.9975,-11.1546,-13.7182,43.1068,
-1.2981,6.8226,-21.0152,0.79854,2.1098,-11.6357,1.3148,-1.504,37.3999,-7.6775,9.4024,1.3248,-20.3669,49.438,
2.1542,8.3414,-20.2364,2.1964,-6.212,-10.4557,0.27162,-8.6446,34.192,-0.46799,14.2611,4.6198,-13.3603,45.9898,
3.2301,9.528,-12.9965,4.716,-10.4188,-7.177,-3.8423,-9.8134,30.453,-0.6811,5.452,-0.23691,-13.2819,42.9892,
7.3748,14.2592,-3.5398,7.8077,-2.5626,0.4847,-2.6476,-3.4398,38.749,-4.9788,15.2475,4.1159,-13.9314,45.7122,
2.1118,9.0651,-9.112,3.0007,-6.2655,-4.3649,-6.3449,-4.6794,42.2089,-7.0904,13.8509,1.9405,-3.4543,39.5953,
5.3596,7.0749,-7.6012,3.3026,-9.7459,-9.8876,-1.6259,-2.9524,34.3737,-1.8443,1.9327,-2.5143,-1.8008,34.3275,
6.966,9.0608,1.5318,6.961,-4.8226,-7.3663,4.7384,0.59899,21.7062,-5.5902,-0.59365,1.0108,-13.7441,37.5703,
0.28149,3.2145,5.2962,5.0971,2.2152,-4.5142,5.418,-2.8114,20.8858,-12.0033,-2.0043,-7.2445,-9.545,33.3879,
-2.3867,-3.4857,5.7018,-1.7164,6.1803,-7.3762,5.3341,-7.7042,20.8377,-12.4881,-6.4631,-20.9099,-0.054466,17.2846,
5.4695,2.5078,10.6621,-1.1313,0.50663,-7.4158,1.1579,-8.206,13.8031,-8.3646,-1.2548,-23.15,5.2517,8.8964,
9.9613,9.106,20.1453,2.7928,-6.2724,-3.5966,-1.8044,-5.7857,17.313,-1.596,9.4251,-7.661,9.2747,20.8959,
4.7846,3.4982,23.5163,-0.50806,-0.83465,-2.1757,2.4015,-5.6793,14.5872,-2.7053,5.2444,-1.2965,0.76468,18.919,
0.88188,-6.1119,19.454,-5.539,6.2051,-1.804,6.8369,-7.5079,1.4197,-7.6044,-3.0243,-5.7982,-7.2352,9.348,
2.7576,-5.7447,20.6971,-3.7604,4.8689,-4.1059,4.499,-3.683,3.2627,-2.3275,-2.8423,-8.3424,5.2505,4.9307,
3.556,-2.508,26.204,-0.16035,-3.136,-5.3058,-3.4842,0.87631,9.8158,3.5963,-9.9026,-10.7341,8.7914,-0.1854,
1.6554,1.7399,28.7291,3.9466,-4.6351,2.002,-1.106,0.58277,10.4317,2.6576,-7.1393,-1.6544,0.31016,7.2971,
0.35105,4.7687,26.7644,3.9506,-1.7056,2.123,1.6117,-3.5498,9.5651,-4.4915,7.389,4.9528,6.7993,11.9212,
0.81192,3.5187,23.7125,-0.1424,0.80682,-5.2352,-1.859,-1.4081,8.9912,-5.6682,13.3327,-3.0571,12.1759,1.0825,
7.0299,0.41531,25.1818,1.3122,0.27625,-5.8852,-3.194,0.60431,-0.22517,-0.025733,5.3021,-9.6224,2.2865,-0.42845,
13.3568,4.2466,31.8658,5.0896,-1.6683,-3.6036,-1.5558,-3.2881,-14.3117,1.4223,0.16351,-7.599,-1.2249,6.8283,
5.0832,9.0534,38.8717,1.1688,5.4212,-3.6288,0.70623,-3.8142,-27.553,-1.797,-5.3904,-1.5999,8.7301,6.1772,
0.44007,6.0999,43.7705,1.0989,6.0605,-3.4109,3.5566,-2.1388,-23.4897,-2.1709,-8.4407,4.2813,4.8325,1.9504,
12.465,2.8416,52.2313,8.2636,-1.0518,-0.79587,3.8254,1.8456,-11.4752,2.2979,1.7065,4.9886,-0.76031,-3.9514,
15.3325,0.98387,57.0511,4.1524,-3.1583,-2.9177,0.4619,2.9397,-16.8122,3.8473,-1.047,-8.0854,5.3109,-15.5245,
7.1817,-0.52096,58.9307,0.046822,1.37,-3.2246,4.773,2.2814,-19.6599,8.4367,-10.6252,-14.349,4.5103,-18.9313,
-1.2029,-3.1413,54.1898,2.2132,-0.88185,-2.3078,4.7276,-0.98849,-15.3473,7.6895,-8.7828,-6.9803,1.1062,-13.6981,
1.2794,4.2781,54.7948,8.3474,-0.34655,3.6153,1.5518,2.4448,-17.8004,1.4436,-5.8453,2.1153,8.7526,0.13922,
6.505,4.5035,60.184,5.4362,-2.2542,4.3625,-0.46969,3.2622,-15.2864,-1.0534,-11.7613,-4.7602,4.8532,1.095,
11.6586,-0.82813,69.8296,1.4948,-5.2522,-0.96074,-1.1646,3.3077,-0.26919,9.8563,-2.1378,-9.5361,2.3931,-9.3348,
5.1743,-3.1888,66.1217,-1.9696,-6.3831,-4.7597,-2.5408,4.5553,1.7959,8.3008,4.7392,-6.5538,4.6594,-5.8825,
2.2127,0.61795,61.9134,-0.64611,0.025448,1.5519,4.1196,6.4516,-12.4119,-0.63336,0.35746,-1.581,2.6931,8.2088,
5.213,-0.14248,66.6343,2.5257,0.74682,4.1099,4.5953,3.8948,-19.7416,-2.2826,0.095049,-7.0298,1.3262,4.5828,
2.2491,-3.7494,66.2517,0.68692,-2.431,1.2117,-2.6703,0.045736,-10.1215,-0.4584,2.7404,-8.2952,10.1642,5.0312,
-0.054781,-6.1757,62.0356,-5.8615,-1.0801,-1.5123,-1.305,-0.19775,-15.0576,0.77417,3.2991,-0.32572,13.6519,12.6828,
4.0459,-9.9025,64.3392,-6.2332,-0.29239,-4.5546,-1.9496,-1.8731,-9.0924,-2.4053,4.3065,0.41696,3.9152,10.717,
7.9005,-7.6211,70.8428,3.0588,-1.9621,-3.5584,-4.0022,-0.073495,5.1914,-0.091831,8.1455,6.4175,-0.89944,14.1714,
-2.2148,-7.1641,69.0025,1.4288,-9.5573,-5.2733,-4.2438,-0.55125,1.5053,1.3597,2.3538,-0.71624,-2.7739,7.5363,
-4.0103,-5.2882,76.4313,-0.58487,-4.1634,-3.9928,0.83085,0.44592,-0.9954,2.7242,-0.19774,-12.2427,3.1773,-2.0747,
0.086934,-12.6835,83.4151,-1.9958,2.3536,-8.0914,-2.1108,-0.062995,-3.8275,-0.81352,-4.524,-14.4002,2.0226,-1.4681,
-0.88238,-15.7786,85.1586,-0.91196,0.28395,-12.4264,1.872,2.3511,-7.4545,-4.1394,-10.0373,-13.5364,0.93716,-1.8621,
-2.9986,-11.217,84.1464,-2.5445,0.025943,-11.9222,8.7495,1.9691,-6.2843,-5.0959,-13.5324,-21.642,2.5682,-10.6685,
2.2428,-5.0001,85.6056,-4.0793,7.9779,-5.663,8.4658,-0.31843,-7.1123,-0.69252,-5.2485,-16.2462,0.72661,-0.62814,
3.0723,-5.1822,85.2897,-3.3523,7.4995,-4.8411,5.0655,-1.2634,-10.5417,2.2413,4.7072,-1.1714,2.6114,13.5095,
-1.6916,-7.5226,82.3413,-5.3206,-5.2428,-6.72,1.6279,-0.46449,-6.294,1.3837,5.1479,11.5529,1.7316,17.6399,
-7.1337,-12.1325,81.0167,-11.0264,-11.9181,-9.9322,-7.8693,-0.67758,0.59155,1.5417,1.706,-3.2403,-12.4723,2.4815,
-13.4543,-16.7074,81.4581,-12.7757,-7.3464,-10.7826,-7.3974,0.32717,4.4122,6.2696,3.0496,-15.2177,-15.7008,-11.7674,
-16.5035,-16.1869,85.2473,-11.0448,-5.4598,-6.7612,3.6513,1.7538,-0.19084,6.3754,1.4204,-3.6996,-4.6359,-7.6871,
-7.8005,-15.2157,84.9531,-9.4182,-8.5062,-5.3914,0.54013,-1.2439,-8.8565,1.1726,3.7453,-2.9954,-2.4295,5.7896,
0.62175,-10.2049,83.9538,-5.7192,-3.4161,-4.8265,-3.5896,-1.8922,-4.7097,1.8252,8.1003,-14.1439,-1.0785,-3.9578,
-2.0669,-3.5673,84.9419,0.16733,0.40405,-3.3318,4.0973,-0.091683,-5.1502,0.028652,-6.1242,-20.7671,-3.1831,-13.6025,
-2.1838,0.26213,79.1224,-0.083678,2.549,-1.9271,6.0211,-2.2553,-17.1333,-4.5524,-14.6748,-9.6389,-12.3917,1.3136,
6.1417,6.0312,77.7493,2.8136,9.6266,5.4196,1.3213,-3.5661,-17.5513,-2.8332,-2.225,5.0394,-11.1665,15.3348,
1.917,5.6691,75.4947,6.019,1.3365,6.5405,-6.471,-1.4241,-8.7857,-1.2172,-5.4657,15.7038,-11.9425,15.861,
-8.0802,-3.5889,73.134,0.11451,-12.8437,-1.8059,-5.8415,0.83071,-3.1971,0.060932,-13.0917,0.66159,-14.8412,1.6532,
-5.426,-7.9531,73.8078,-7.3644,-11.9528,-4.3489,-2.3578,-0.42419,-2.2821,1.2623,-5.3166,-13.2371,-9.3712,-3.0255,
-1.726,-3.1376,71.3076,-6.4401,-4.4867,-1.1954,-1.7344,0.083191,-3.591,2.1509,-7.4077,-12.9251,-11.7014,-5.2546,
-3.0689,-0.53895,67.9932,-0.75131,-1.8072,-0.15962,1.7444,6.3449,-0.48372,4.4318,-8.4093,-11.6674,-20.6405,-5.9034,
-4.5718,0.21652,64.1548,-0.46504,0.47018,2.9832,0.91657,5.7235,-0.2135,1.9969,5.3514,-18.9211,-15.7865,-6.7543,
-5.2618,-0.2784,60.7875,-3.3297,2.3702,6.6606,-4.923,-2.8151,-6.4672,-0.051078,6.4766,-21.1603,-5.6802,2.81,
1.5619,2.8713,62.2014,-0.96072,0.54119,4.5737,-1.9765,-4.8153,-3.91,0.67489,-1.8657,-5.7907,-6.0628,16.7414,
9.4221,10.653,62.5669,-2.1081,0.26752,1.1661,3.6859,0.53505,-4.3985,1.3575,-4.887,8.6568,-12.2063,17.0627,
5.7231,12.1832,50.377,-5.5973,2.4204,-0.5909,-1.5972,-2.6303,-18.2346,1.0349,-15.9222,5.2448,-18.9459,9.5312,
8.7544,10.0057,45.9084,1.9696,4.2036,2.8188,-4.3936,-7.293,-21.5996,2.4193,-20.2693,11.1969,-16.8451,23.0594,
12.8084,6.7543,55.9278,4.9845,-0.14597,8.1933,1.8955,0.61641,-6.2036,1.5508,-5.3148,24.6251,-5.4705,35.7758,
-1.9396,-0.88156,53.5363,-7.3659,-9.2965,2.8812,0.33578,3.4717,-3.7827,-3.3628,-1.1398,9.0476,-0.80372,24.4702,
-6.1618,-6.6135,44.5397,-8.8519,-2.4719,-2.1122,3.2079,0.37112,-8.8582,-0.26872,-4.9276,-5.5953,0.2086,8.902,
-1.4535,-15.8576,37.5288,-14.5876,4.9074,-7.7702,4.9439,-6.8818,-9.7727,-1.6986,-10.4163,-19.3596,-2.6962,6.0785,
2.2493,-12.737,43.2311,-15.3993,3.4075,-5.1346,2.9598,-3.818,-4.1249,-1.3555,-8.5867,-22.7775,-0.84744,4.0263,
5.2474,-1.6089,47.6266,-6.0397,1.0339,-0.72921,0.61303,0.99084,0.70188,-0.55128,-3.4917,-20.6877,0.89064,2.0975,
5.4149,0.41626,41.8769,-1.8205,2.9005,-2.1317,2.5044,1.4133,-3.6785,-1.964,-13.4051,-9.8053,-5.4293,11.6126,
1.2334,-1.0552,37.9183,-1.7115,5.1364,0.88848,8.6209,0.36442,-12.1347,0.081802,-17.4213,-2.9504,-10.406,21.039,
-1.4921,0.69533,37.33,-0.88586,1.2128,5.8968,4.9702,-0.86273,-9.2375,1.2817,-9.8685,-3.4965,-3.7561,17.6075,
-3.5718,-3.9257,33.4034,-0.59175,-2.4754,-0.48297,-2.3179,-0.08761,-4.1039,0.96386,-16.7482,7.5593,7.3151,17.2739,
-6.0085,-8.7518,29.712,-1.7611,-3.0498,-7.4434,-0.0092094,0.64055,-4.0987,0.18313,-13.0918,19.8802,9.0458,22.7454,
0.13678,-0.99564,28.4114,0.27255,0.5074,-1.212,4.8118,1.0843,-5.7807,-0.79196,1.7937,13.8669,7.057,22.3448,
2.7794,1.233,27.9118,0.4974,1.2001,0.54772,3.8,-1.6321,-9.5314,0.46062,2.7702,2.1886,16.5153,14.014,
0.68471,-5.5896,26.7193,-3.871,-1.7642,-7.6801,1.644,-2.9802,-3.6567,3.3253,-11.496,-5.1733,25.6475,6.425,
8.3564,-1.8798,27.5262,-0.74622,0.75177,-5.2911,0.58106,-0.8732,1.383,0.71563,-0.080463,-6.3092,24.1087,5.0751,
8.096,4.2585,24.6694,-0.94287,5.7683,1.5339,-0.6591,-3.9543,-12.8,-8.7273,-3.2091,-8.0998,20.493,-1.7373,
0.86154,8.3416,23.6714,0.56019,8.3145,2.4064,-0.61932,-7.0913,-18.9014,-9.1678,-17.1166,0.098977,14.9249,2.2235,
1.2918,13.1437,23.6973,4.383,5.4055,4.1902,-1.0641,-4.2557,-7.162,-7.1714,-27.5383,14.0728,14.0294,16.1901,
0.97377,9.2216,18.1781,0.9865,1.9477,6.5899,-0.27735,-0.3849,1.7038,-10.3566,-19.378,8.6491,25.4801,11.965,
-8.9673,-5.4317,19.2564,-6.0623,-8.0513,-4.6515,-2.912,-3.977,14.3758,-9.012,-4.1153,-5.9698,26.1203,-1.0452,
-10.5984,-4.9853,32.201,-2.5656,-12.1475,-5.5777,-6.8347,-1.5692,27.6133,-0.99998,10.2316,-1.1531,25.2764,13.1175,
-9.2394,-0.10666,40.2714,-3.1343,-10.6955,-0.66356,-10.5222,-2.1982,20.5334,-6.9653,4.797,5.4241,37.016,25.2254,
-6.0337,-3.234,44.8447,-5.1156,-6.9205,-6.6495,-3.8651,-4.7176,17.6139,-8.7168,-9.5908,-3.3377,44.1952,9.6119,
-4.9485,-8.5833,56.254,-4.0856,-6.2641,-14.2041,0.94636,-6.1216,26.9216,-3.6142,-3.592,1.4423,37.9279,-2.8957,
-3.6875,-2.2835,66.9788,0.49766,-7.8167,-10.9419,-2.4851,-5.7545,28.1982,-7.7359,-0.96662,13.4068,34.6881,11.3781,
-4.9123,1.7097,77.0601,-0.97823,-5.4197,-6.9112,-2.8177,-3.9632,31.3267,-7.2716,-8.6212,1.5152,34.0533,21.6619,
-6.787,-4.4187,86.5365,-7.4272,-1.9613,-9.1478,0.0022224,-3.4842,31.1346,0.15438,-2.5605,-1.227,45.2663,13.3721,
-2.7643,-2.9483,95.4443,-6.7402,-5.9405,-10.2857,-2.1666,-4.9624,21.7947,-4.9166,8.4394,12.5851,55.3247,20.042,
-1.3934,-1.5659,95.3822,-8.0232,-5.8253,-9.4279,-5.1703,-7.7979,17.3538,-8.2368,10.5843,3.8765,48.872,26.3111,
-9.7457,-9.4259,94.7207,-15.0134,2.9601,-7.6571,-2.2088,-7.5712,14.1432,-2.1992,7.298,-10.4561,50.0368,12.4401,
-9.161,-9.3427,96.2678,-11.2205,2.7825,-5.2695,0.33387,-4.7068,9.9201,-2.0672,7.8239,-5.1289,60.05,1.5708,
-4.0318,-1.7921,92.6616,-4.0396,-1.9639,-7.1223,-1.8551,-5.629,10.048,-5.5584,6.6318,5.5429,54.76,4.6098,
-6.6822,-0.72044,88.0656,-4.7613,1.0462,-10.0691,-4.1541,-8.666,10.4093,2.4877,6.2337,2.318,47.1359,1.9229,
-7.2453,-8.8726,80.8532,-11.7067,1.9475,-12.8397,-5.3514,-10.0744,3.518,3.3025,6.3414,-6.9803,52.9846,-3.9773,
-2.713,-9.5449,71.9049,-13.1732,2.5538,-8.9356,-2.3785,-7.7825,-5.611,-2.439,-0.54635,-4.874,59.2057,-2.0512,
-6.1659,-5.357,65.9036,-13.106,4.57,-6.2305,-2.477,-8.0387,-10.8177,-0.60569,-10.3957,9.5184,64.5712,-1.205,
-7.7241,1.7134,65.3238,-13.2835,6.7059,-2.9642,-0.40019,-4.6638,-3.9021,4.2514,-6.8795,12.9242,74.1948,1.7598,
-6.5373,2.3335,61.6454,-10.7993,1.7238,0.34671,-2.5453,-5.1074,-1.9808,1.3447,-4.7795,-1.9513,71.9118,-0.033465,
-4.94,3.3985,59.1517,-2.6797,-0.066633,5.3878,-2.1514,-5.5241,-4.0313,3.4334,-7.626,4.0709,72.1766,6.9586,
-8.7412,3.9177,63.0742,1.0967,-3.6778,4.8234,-0.81728,-1.577,0.79009,7.325,-9.3378,17.5652,74.8361,10.1563,
-7.2524,3.6827,73.3897,3.923,-6.3497,5.0159,-1.7326,2.374,6.5273,5.9212,1.8278,2.4112,73.7199,-2.5042,
-3.9252,4.426,83.0863,-0.16879,-5.0048,0.37661,-5.485,-2.5891,-4.4692,2.6739,9.9128,-6.772,67.8505,-16.4539,
-1.7615,5.6063,92.2012,-3.0512,3.0087,0.35401,-1.2995,-4.8439,-12.3962,5.4055,5.9436,7.7343,76.3129,-13.4182,
-3.8247,1.1728,100.7691,-4.0732,7.4077,1.5378,0.46591,-4.3121,-10.4474,-1.4266,-0.92074,4.4985,85.8342,-8.5155,
-2.8724,2.3077,108.823,-3.5874,5.7579,-3.1337,-2.2136,-4.7767,-10.5434,-11.7048,-3.5166,-6.6175,84.42,-20.7791,
3.8075,7.7124,116.3936,-0.23909,6.1354,-2.7047,2.9809,-2.8029,-10.6337,-3.0488,-10.7774,0.28729,82.9702,-22.6654,
2.8559,6.0446,123.51,-7.2144,9.8648,-1.3374,5.9353,-6.2499,-12.1651,1.7136,-14.2283,2.4394,79.6795,-12.87,
3.1667,11.4667,130.1994,-7.2637,10.237,-1.7393,5.579,-10.2134,-13.8455,-5.6202,0.72536,1.8109,78.2729,-8.2412,
4.423,12.225,136.4874,-1.0433,2.8739,1.2576,2.3522,-7.1905,-10.6047,-5.765,6.3459,4.1124,87.0739,-10.6392,
1.7472,2.8146,142.3982,-1.4624,1.7374,3.5925,-0.19933,-1.4562,-5.6299,5.1865,-3.6756,6.276,86.67,-8.5544,
-6.5525,-3.1391,147.9543,-4.7493,4.0435,-3.8541,-0.66907,-0.88713,-13.4865,5.8394,-7.3116,3.4891,71.829,-6.1132,
-7.6054,-1.0223,153.177,-3.4998,3.8011,-8.4434,0.33517,-1.7975,-16.0516,6.935,-5.4269,1.8337,72.8217,-6.71,
-4.739,0.48483,158.0864,-0.88016,-0.28335,-5.0447,-4.0237,-2.1721,-12.6788,7.4828,-6.0652,2.2056,75.6832,-7.7541,
2.2943,7.2046,162.7012,3.9934,4.5539,0.078683,1.5204,2.7785,-8.0617,0.28539,1.0472,7.3759,74.9986,-5.8426,
3.1207,1.4699,167.0391,-2.5125,4.7628,-5.7104,6.2496,-3.6545,-9.506,-11.3007,-4.8,3.5591,68.5707,-4.0456,
4.8617,0.41742,161.476,-6.2186,13.1542,-6.3321,7.3209,-5.3634,-8.9356,-6.2848,-14.1534,-0.51079,60.1177,-0.91077,
3.6059,7.1411,156.608,-3.9171,13.329,-4.0237,4.9532,1.2247,-8.3997,-2.533,-13.7859,-11.0852,50.7258,-6.6405,
2.4254,9.6049,154.4421,-1.7536,0.95988,-2.3363,-0.64639,1.1514,-4.0391,-6.2372,-7.174,-14.7586,49.1288,-2.8678,
0.5929,10.2337,145.8987,-0.92574,-0.30278,3.8297,-5.1871,-3.0152,-2.5917,-2.2478,-5.0565,0.22688,53.1707,11.4042,
-5.9504,10.8247,138.3498,0.33487,5.2588,7.2151,-2.7065,2.2271,-3.1593,4.3944,-1.6199,14.3133,49.2573,10.5993,
-7.2806,6.0779,137.0387,-0.89006,2.7741,1.2386,2.9995,7.6376,2.5739,2.4439,2.5747,-0.64553,36.9019,-4.1367,
-5.3977,-0.55355,127.8518,-8.0677,-2.2128,-0.76418,1.373,1.3945,3.3835,-6.38,-0.47209,-9.1634,32.7594,-3.527,
-1.4587,2.6129,115.6017,-5.4143,1.5351,4.8255,0.085592,-0.85856,-1.8809,-10.5763,5.0996,5.4864,37.7834,6.0848,
-3.2991,8.241,105.7733,0.213,2.4071,3.09,2.0089,1.1214,-1.2859,-3.6754,8.6503,1.4215,21.4164,-4.8853,
-4.0653,6.3005,99.9091,1.1643,-4.0036,-2.8803,2.8524,1.0539,3.1298,6.1863,-4.402,5.1924,6.0314,0.22827,
5.5787,1.3427,97.0475,1.3354,-1.5942,-1.0202,6.2963,-1.1785,0.29044,6.0561,-4.8613,18.9809,16.7568,12.9886,
3.5565,-3.7993,85.1989,-3.8062,6.9369,-2.6465,4.7134,-8.5799,-3.3422,-5.1533,9.5304,3.742,26.5974,-1.8907,
-2.4413,-0.67907,76.7128,-4.5419,11.3416,1.3689,6.359,-1.7983,5.0533,-0.023629,15.3458,-10.5825,20.6635,-15.8773,
-3.0179,-1.361,68.0129,-7.4026,3.1891,6.3483,4.7724,4.8177,0.65251,5.5216,2.1328,4.1524,15.8085,-12.2729,
1.7429,-0.074505,59.8347,-3.343,2.2748,7.6546,2.7989,2.3595,-5.4122,2.5388,8.5128,17.4009,16.0648,2.5635,
-0.53106,4.9914,51.6647,3.8472,2.8615,3.0977,0.94393,1.0124,-10.6313,-4.1213,6.7969,2.2568,9.0751,-0.12138,
2.1517,7.3433,47.8417,4.8214,-1.8897,3.635,-1.2821,6.977,-14.091,-6.0434,-3.9754,-2.5786,2.5049,-3.2474,
7.3254,7.3848,47.3815,0.19358,-2.2585,6.7911,-3.1336,3.1842,-14.6916,-4.2347,-7.1111,7.2169,-7.2862,-3.5347,
3.5117,4.0494,43.575,-3.1923,1.2517,1.0817,-3.4273,-7.6115,-16.22,-9.765,-14.879,-3.8208,-20.949,-7.6607,
4.0239,3.5655,45.0574,-2.7598,3.8277,-0.1885,3.7678,-4.0218,-10.1856,-8.4562,-14.2276,-2.3867,-23.6689,-7.9244,
4.2649,-2.9149,43.3183,-3.0761,1.1879,0.78714,4.506,-5.7087,-11.0202,-3.1281,-10.4815,-4.6536,-28.9972,-10.8229,
-0.57056,-5.3914,40.4784,-1.6865,1.3573,-2.3938,3.5125,-7.0531,-18.313,1.1572,-16.3603,-5.5794,-39.0678,-10.4148,
-3.4286,-2.6575,44.3165,0.82507,2.7224,-1.768,5.7121,3.9751,-17.214,3.98,-17.789,8.8553,-39.1341,-7.3795,
-2.0181,-8.0417,41.8985,2.9447,0.38989,0.50723,3.2003,7.834,-3.4071,3.5002,-2.6217,8.4445,-25.9398,-11.5165,
0.75434,-13.585,32.8764,1.563,0.1253,2.1638,-0.12502,3.2663,1.8587,4.0134,7.5385,-2.4265,-18.3581,-12.9949,
3.3602,-5.7804,32.591,0.26391,1.805,4.2036,1.5692,4.2756,-4.7603,-1.2891,2.5064,6.155,-23.2821,-4.7434,
-1.1795,-1.0951,31.5997,-0.23363,1.2145,5.3974,2.4392,2.5731,-2.5467,-8.9248,1.392,3.8577,-28.6339,-7.3511,
-0.38562,3.0682,28.9805,3.8775,2.3467,8.6887,3.016,4.5876,0.25744,-3.3274,3.4778,-8.6663,-24.2645,-11.0071,
5.1807,6.9815,29.4113,8.2246,-1.8914,5.9983,0.18392,7.9278,-13.858,-2.8868,-10.8308,-4.5306,-32.6906,-2.393,
7.5214,11.1419,34.1541,12.3104,4.2476,4.9155,4.7522,8.1755,-23.0292,-5.3651,-24.281,7.5513,-44.4679,4.2581,
6.5879,9.0273,34.0329,10.1258,8.8132,3.174,6.3955,-1.4743,-17.7908,-7.4536,-24.9935,-1.5791,-49.9948,-9.495,
9.0849,3.1828,36.3294,6.1435,3.9459,2.0195,5.5296,-1.3861,-12.8672,-3.1497,-15.299,-1.4841,-53.7438,-10.8532,
-1.3423,-11.1082,33.4265,-3.6248,-3.2805,-6.0552,3.9927,-0.097396,-9.9258,3.065,-4.9813,0.29216,-62.8114,-10.4432,
-9.9386,-24.059,29.493,-5.3353,1.2549,-8.1022,8.0917,4.7289,2.7211,15.8963,5.9231,-4.0637,-59.0425,-23.3138,
-7.6551,-23.3386,22.1798,-1.8817,-0.50764,-2.5544,7.8472,8.5425,5.6913,8.917,3.8805,-0.68638,-57.6691,-23.1198,
-3.3394,-18.0822,20.3671,1.1232,-7.708,0.49092,4.4838,8.9943,0.047186,-2.2233,-2.1374,8.9958,-68.309,-7.6326,
-1.2106,-3.9818,26.3757,-2.3188,-1.9431,3.8357,4.215,8.4544,-1.4017,1.2843,1.3656,2.6712,-78.3104,-10.67,
7.5387,8.3082,28.6495,0.23043,11.1889,12.2826,6.3723,5.537,-1.8,-1.2029,3.6938,-11.5891,-86.8684,-24.1298,
8.0507,5.3996,22.5922,7.9298,8.1074,12.0276,6.4719,4.7229,-4.584,-9.3254,-3.7587,-20.4142,-95.7563,-24.0076,
-0.62731,2.1838,15.9343,6.4899,0.39037,6.0035,2.2274,8.2957,-9.6114,-5.3912,-7.8713,-5.0893,-104.1109,-9.0696,
-4.2053,2.2935,7.9881,-0.40716,0.60768,5.4021,-4.414,5.1466,-17.4711,-3.3812,-11.979,8.8339,-111.8436,2.3207,
3.0366,4.8072,12.0883,6.6069,6.1151,13.9958,2.3586,7.4891,-6.5407,5.2576,-9.5728,3.7243,-109.7125,11.0992,
-5.0988,-7.2914,10.6401,3.077,-3.1699,5.6847,3.9043,4.3887,1.3236,9.5219,-14.0601,-3.4888,-117.2297,-3.6667,
-5.7572,-11.1927,11.448,1.4466,0.39474,1.9692,7.5264,4.6073,6.0649,9.4325,-11.7702,2.9873,-114.655,-17.5467,
5.4345,-7.8698,12.9303,6.9034,4.4684,7.8766,9.7259,8.4282,7.8702,4.2873,-3.1103,7.3876,-98.3757,-10.9503,
4.8672,-7.6388,8.5388,7.6938,-4.7175,7.1628,4.0809,8.6457,2.8184,-1.0319,-1.7186,-2.4559,-104.2835,-5.7138,
-5.0656,-11.5188,3.6884,4.3403,-7.3268,1.9126,3.3539,7.1628,5.0597,-0.48782,-7.3998,-5.6828,-112.1265,-1.0324,
-8.1363,-15.1662,1.0567,-0.25862,-0.62088,-1.5764,7.9732,6.7328,13.9149,3.88,-11.7763,2.8529,-113.9553,0.47559,
-6.684,-11.8459,-0.45317,-3.6178,2.7911,1.4105,4.6025,1.9908,13.0802,1.2368,-5.7673,0.75351,-102.7794,-1.9633,
-4.5955,-2.6992,0.29715,-0.267,4.793,8.7979,-0.25319,0.18386,15.4287,-1.9706,5.9071,-0.9787,-98.7818,9.001,
-6.4892,-3.2599,-0.92529,0.47215,-2.0023,2.2442,-0.96067,4.2704,28.603,-3.0574,5.7939,3.6595,-98.3985,14.0048,
-2.4844,-5.7159,-0.14687,-2.6897,-11.2826,-1.9878,0.78374,3.2913,34.961,-5.5251,0.38413,0.78865,-89.3613,9.5486,
-1.1301,-1.7575,0.58484,-3.2512,-4.0977,3.6751,0.013815,-1.9679,25.3915,-2.0601,1.5664,3.3929,-86.1688,19.822,
-9.2574,-2.6164,-0.8965,1.2822,8.6816,0.56207,2.4231,-0.40354,22.4218,6.2582,3.4006,10.9016,-87.2654,24.4172,
-14.0044,-8.2438,-1.8068,0.72311,3.8222,-8.6305,5.17,-1.3434,20.5948,-1.3484,1.2686,2.5348,-81.0654,12.8291,
-5.6926,-1.7238,6.7375,-2.4535,-3.3968,-2.0873,3.1728,-1.0221,17.1897,-6.3289,4.3257,0.21351,-68.2475,15.675,
-2.9407,0.78997,7.7797,-4.2343,-0.3007,0.93067,0.090158,-0.96053,11.3378,-0.16436,3.584,12.252,-66.0809,13.2884,
-10.2358,-4.8008,0.80525,-7.5959,4.7788,-3.7047,6.1105,-0.17976,12.827,4.907,-0.24621,14.1682,-62.8391,1.1627,
-14.9245,-5.9593,0.7567,-8.5862,-0.81081,-2.0364,4.2974,1.759,14.4672,1.7202,-1.6779,2.2309,-53.7664,1.5751,
-11.6187,-6.5653,2.1573,-6.625,1.1663,0.013773,-1.2629,4.0638,11.1893,0.171,-2.5413,-6.5798,-48.13,2.4447,
-7.3059,-6.8945,0.34089,-7.4325,7.604,0.73608,3.3924,1.1687,6.9023,1.3658,-9.3785,-14.6209,-46.4473,-6.6203,
-1.8063,5.8112,2.4896,-3.3716,6.9068,9.1276,11.1426,2.7858,1.4265,2.4887,-10.985,-3.3798,-43.4197,-0.67945,
-1.2158,9.3187,1.8581,0.6873,2.6358,10.9903,6.6175,5.0285,-4.9259,-2.4811,-9.3618,10.923,-44.1888,7.0743,
0.78534,4.4217,3.6752,4.021,3.4419,5.993,6.2209,4.2453,-3.1836,-0.88553,-10.7283,6.291,-42.9835,3.2759,
-0.46684,2.4689,6.1056,2.0918,5.8867,5.8742,8.0165,0.37496,-0.82364,2.7823,-6.4694,-8.1865,-36.3071,-1.0187,
-2.849,3.2847,4.293,-2.854,7.4617,8.4138,11.8743,3.7269,-2.7024,0.20527,-2.2248,6.4047,-28.826,4.8274,
-7.2575,-0.52761,-1.508,-3.4059,1.4702,4.7757,9.4744,3.2621,-5.1916,-6.3148,-10.0448,20.1204,-24.4451,9.1173,
-8.2686,-0.97811,-3.3459,-0.30921,0.41788,5.4532,4.5674,2.1023,-1.0235,2.741,-3.1759,4.8132,-8.8784,0.37487,
-9.9414,-4.0527,-6.2784,-2.4596,0.15207,4.8849,-1.25,2.6993,-1.6852,9.0842,7.3792,-9.5756,5.7543,-13.7476,
-13.6835,-6.7018,-9.2759,-6.1686,-0.82115,5.5563,-3.5854,3.9838,0.82627,6.6112,-0.29458,-0.44468,0.10659,-21.2377,
-11.6572,1.1721,-8.4784,-4.5932,2.8435,8.8384,2.1734,0.12936,-0.4286,6.4555,-7.7483,12.3567,-2.5514,-5.8635,
-5.6553,5.9223,-8.9338,-2.3897,5.5652,7.8259,7.8278,2.5315,-11.9723,3.1759,-5.8373,8.2406,5.3147,2.8035,
-5.5572,0.50548,-11.0491,-1.5232,4.5082,7.1151,5.6706,9.8516,-16.3154,0.81596,-5.7283,8.9512,3.3084,-0.97987,
-6.1876,0.95708,-14.2425,2.4246,2.3095,8.6164,-4.7925,6.368,-15.3365,2.2133,-6.8308,6.486,-5.5668,1.0071,
-1.4778,12.951,-12.4239,6.1358,3.135,6.6534,-3.0589,4.5399,-16.8262,1.1164,-3.5287,0.79438,-5.7149,5.7672,
0.29808,15.3074,-7.0987,4.0804,6.0804,4.567,9.4171,8.3649,-15.0937,-2.566,-5.0042,-1.9046,-0.79273,-0.12247,
3.4132,4.507,-4.9856,6.9691,4.5103,9.8366,10.5393,7.622,-8.1625,2.1677,-5.4269,-2.0313,1.4245,-10.9614,
2.7265,-4.4405,-12.3992,7.0328,-4.4374,9.2464,1.2299,3.7902,-3.3345,4.4477,-4.6193,4.3571,4.713,-17.5345,
-3.4626,-1.0406,-12.3786,5.406,-5.376,7.0044,2.3614,7.6606,1.9273,4.4218,-1.6906,10.1214,10.4562,-16.241,
-9.2807,1.1908,-10.4308,4.3581,0.97186,5.861,5.8349,10.8162,-2.2859,4.8797,-1.3484,9.273,3.3211,-8.2769,
-9.2062,-1.2908,-11.7332,0.72215,-1.0146,3.5811,-1.2641,4.3822,-10.3435,3.1406,-2.2318,6.7884,-10.8579,-5.3702,
-6.9664,0.47366,-11.2704,2.3663,-5.5333,3.6075,-4.8035,1.9503,-9.4821,5.1216,-5.7131,15.2989,-9.4833,-3.8429,
-9.4409,1.4096,-12.5224,0.29611,-8.0933,4.3549,-2.5871,4.7254,-6.985,3.85,-6.3342,27.3964,0.24474,8.4388,
-7.428,2.771,-11.2888,-3.5783,-7.608,4.0938,-0.98581,2.5139,-5.1194,-5.5398,5.6148,17.0758,-7.0006,10.3428,
-6.2594,1.8814,-11.3344,-2.6407,-7.8744,4.5711,-0.68569,3.0859,-1.6792,-2.5564,6.9651,17.7384,-10.6783,10.4451,
-5.8836,0.32249,-12.1004,-2.0001,-7.8841,4.779,-0.64432,3.8649,0.83188,0.48931,8.4756,18.6026,-13.894,10.783,
-5.5306,-1.1427,-12.8206,-1.8801,-8.3749,4.4922,-1.0876,4.1154,2.7102,2.3881,8.931,18.4503,-17.8809,10.136,
-5.9219,-3.7254,-14.7027,-2.4904,-9.5599,3.4996,-2.2279,3.6273,3.7526,3.9323,9.1182,18.0664,-21.8695,8.8047,
-6.7716,-6.1532,-16.4719,-3.546,-11.6376,2.0845,-3.7812,2.2046,4.733,4.4195,8.3304,16.7412,-26.5828,7.0714,
-8.0528,-9.3992,-18.6168,-5.0203,-13.5907,0.27247,-5.2413,1.8311,5.6541,5.3594,8.0713,16.4599,-31.0136,6.4059,
-3.9542,-2.3278,-12.9205,-3.5138,-13.4981,1.461,-1.7938,5.8186,-1.1931,1.4224,9.2743,16.6776,-24.0914,5.7806,
-5.8859,-6.2857,-11.9041,-5.4723,-11.9651,-6.5807,0.0012788,3.7825,-11.0032,2.5421,-0.68196,14.9538,-29.1534,7.1207,
-7.4612,-12.1751,-11.1898,-3.6977,-10.2829,-4.7396,2.8937,5.4837,-2.1483,6.246,-6.908,11.6464,-32.2247,9.1041,
-1.7108,-3.2499,-12.9288,-1.5479,-11.5943,7.1142,-1.6185,9.0113,1.8367,-3.77,1.2195,9.5011,-36.5579,3.7369,
1.5251,10.2015,-13.8405,0.23197,-11.1399,8.3743,-5.6189,6.7832,-4.2993,-10.0515,14.8844,13.0287,-40.8724,6.6459,
-3.3871,3.8048,-16.3841,-1.7097,-10.9534,2.5692,-3.3536,4.448,-4.5232,-4.6277,13.0275,11.2831,-37.4557,9.6216,
-4.8707,-4.3772,-17.0883,-2.8124,-9.5733,6.5129,-2.4295,10.2067,-1.1184,2.1575,5.7383,8.9189,-24.3623,7.8395,
-2.8914,0.46496,-16.7861,0.0076744,-7.7938,9.7373,-3.4888,10.3174,-4.1845,2.7511,8.0454,9.5888,-23.1416,14.3588,
-3.2001,2.365,-17.225,-0.95688,-8.2903,3.8507,-0.38716,4.8779,-2.9693,1.14,11.9007,7.085,-35.8531,17.3534,
1.0895,-2.8383,-15.9507,-1.1407,-5.6235,1.4502,2.7693,5.3083,4.1985,3.723,9.9816,2.5628,-38.1609,7.8767,
4.6395,-0.9808,-18.6091,0.615,-0.22441,3.5324,-0.52986,5.2308,-3.0433,-0.59776,7.6955,-2.6526,-31.7737,0.41427,
6.2891,6.7911,-19.4205,2.5065,-0.21118,5.7308,-1.4622,7.8092,-6.7169,-2.4903,1.9313,-2.9756,-26.493,-4.9135,
4.9479,4.4554,-21.6298,3.32,-12.7315,2.0125,-2.8207,7.3407,3.809,5.8538,-0.59466,-0.8689,-26.8316,-16.6697,
7.3021,1.5365,-22.0192,6.2543,-12.2091,-0.27742,-0.48229,5.213,5.2677,4.2977,7.3948,4.7268,-21.1244,-11.0903,
9.5155,9.3985,-23.8311,4.1918,0.816,0.46212,5.5722,2.2491,-9.1483,-10.0601,3.3357,5.1666,-18.1695,1.3857,
8.2215,13.8961,-26.4988,0.80704,3.4184,0.67559,6.4429,2.3554,-12.8173,-4.9977,-7.2286,5.0973,-25.5152,1.5438,
2.9075,5.3491,-30.6934,1.2405,-10.7665,-3.2213,-4.0666,1.7317,-7.7099,5.4255,-12.5794,10.0941,-33.1436,0.48682,
5.1434,4.0645,-31.2622,4.5408,-12.0485,2.2744,-5.7505,4.0381,-3.8726,2.2077,-4.5941,15.2733,-29.2265,4.3142,
2.1832,2.1329,-31.5556,0.65247,-5.7819,-0.51319,-0.82621,0.18042,1.4209,4.7263,-0.70301,0.61812,-21.4474,-10.0446,
7.3551,4.8977,-21.4673,7.8444,1.796,0.96363,7.9002,5.4725,7.6024,15.5302,5.6059,-5.6855,-7.6271,-17.2752,
2.3341,0.98842,-29.0974,2.312,-4.8197,0.66485,-0.045583,3.9388,-3.7,2.3059,4.5462,4.0554,-6.9287,-9.2493,
-5.5185,-0.034979,-36.5103,-3.611,-6.4584,-0.33914,-2.9351,-4.01,-7.3341,-2.1706,5.238,9.115,-12.7793,-7.2478,
3.2485,3.5823,-25.8838,6.4873,1.8826,0.40434,5.1949,0.80961,2.9881,9.2876,2.7543,1.096,-10.3255,-11.8749,
10.7664,1.4392,-25.777,7.062,-1.6048,-2.9944,4.4009,2.6892,-0.083734,5.3559,-7.5343,-3.308,-9.7062,-18.8752,
11.5666,2.7991,-31.9432,2.7823,0.90204,-1.8504,6.0655,-0.36419,-4.417,1.6601,2.0772,6.0495,-12.98,-14.8501,
3.4008,-1.4662,-37.4984,-1.4824,2.5347,-3.4266,3.5319,-4.9221,-6.3216,-0.12673,7.0138,7.3737,-15.3347,-6.9697,
1.5095,-1.6192,-37.8996,1.2581,-4.1249,-2.98,-0.77736,1.3993,-4.737,-0.36009,-2.3246,9.5824,-9.8349,-7.2744,
3.5881,1.611,-34.4208,3.8337,-7.0109,-3.0427,0.47457,6.3765,-2.2837,3.2769,-3.3904,9.2484,-4.6655,-20.938,
6.2651,2.4784,-32.8377,5.0497,-2.7341,-4.3061,2.3741,5.0298,-1.1825,4.0444,7.4181,3.3911,0.43471,-14.5,
5.648,2.5709,-35.9289,4.9879,-1.8464,0.049827,1.9909,1.5948,-5.2087,-1.7416,0.94721,3.4288,-0.79621,-3.7478,
6.2735,7.2369,-28.9524,4.2067,5.9771,1.975,8.6199,0.052835,-3.4504,0.29106,-10.1969,3.2231,-4.1229,-17.6229,
3.9689,3.4287,-26.2514,-0.38403,8.0286,-7.3025,3.2824,-0.9142,-2.761,1.2375,-10.5489,-11.0703,-10.142,-30.6656,
6.623,6.1153,-28.5325,1.567,5.1366,-3.9721,-1.2531,2.0329,-3.5594,1.1634,0.20716,-15.1063,-6.1593,-20.8717,
7.1897,9.6045,-26.8208,0.50886,2.4185,4.9431,4.6065,-0.49939,-4.3099,-4.6912,11.2817,-2.1486,-5.3076,-12.3888,
5.3121,7.582,-19.427,-1.4499,2.7553,5.6109,4.3301,0.49444,4.1434,-7.3022,22.174,-3.9479,-3.5431,-19.8401,
3.5473,5.1991,-16.8148,2.0118,0.66155,3.3463,-0.26782,5.7676,10.6434,-2.5255,15.0592,2.0738,10.1671,-13.8292,
1.8885,-0.41527,-18.2163,2.3733,-1.788,1.699,2.6405,1.5654,10.487,-1.4095,0.055641,11.5906,8.593,-14.9275,
4.9082,-5.452,-18.8106,-1.385,-5.2962,-6.3567,1.2768,-2.6263,15.4014,-4.9408,-3.9246,2.459,-6.0226,-23.914,
5.3371,-3.4377,-16.959,2.3135,-1.8454,-5.7343,0.95924,3.5568,24.3592,-1.0289,10.4109,-1.7859,-11.3254,-8.3791,
-6.5523,-12.3905,-15.4591,4.1029,-4.1448,-6.3541,-1.0265,-1.4768,20.4876,-1.931,-4.3137,-0.71487,1.4055,6.2236,
-6.6413,-18.8776,-14.5318,0.96443,-9.6804,-11.2758,-4.3391,-5.2448,23.1145,-3.7436,-9.5988,2.7023,-3.0174,8.2603,
-0.45828,-6.6578,-12.696,-1.5036,-9.1001,-12.0455,-5.5251,-0.59184,33.2968,1.3017,5.0772,3.9864,-12.4773,11.6211,
-3.0819,2.6598,-11.6928,0.75627,-12.651,-12.5276,-6.8808,-2.2431,33.9505,3.3928,9.2316,2.0604,-11.9696,14.0573,
-6.0309,-2.0796,-14.1247,3.3615,-15.5078,-9.1248,-6.227,-2.8319,28.2981,-3.8006,3.616,5.0698,-9.0825,16.8293,
-3.7404,-1.4728,-16.6517,3.1603,-11.6848,-7.613,-4.889,2.1588,19.8513,-7.9109,-3.8318,3.8013,-12.8759,11.9632,
1.3045,10.6668,-19.0268,4.8986,-5.6813,-4.2639,-1.7034,3.9577,14.804,-0.6876,-11.7964,-8.4776,-9.693,1.6042,
3.6364,10.9907,-22.7059,3.6404,-11.125,4.1866,-0.63732,3.2378,14.8797,0.79992,-14.463,-13.2721,-2.363,3.4361,
2.4543,4.5467,-27.1282,4.8682,-18.6524,6.3455,-3.9735,3.0435,14.4693,-5.0327,-15.5235,-4.2806,-9.4518,15.7634,
1.5839,6.4433,-31.5258,7.7099,-10.0615,2.8315,-3.4939,3.5841,11.4317,-1.5974,-8.0843,4.4121,-13.9461,16.987,
-5.742,1.2364,-43.7342,-4.8043,-8.0115,-4.5687,-3.7662,-3.3794,-1.7877,-1.9835,-4.7068,4.6294,-5.3966,1.988,
-4.9155,0.67984,-48.2208,-8.8548,-8.0132,1.4895,2.7263,-4.141,-6.0187,-3.7932,-1.0504,5.7979,6.0142,10.0635,
-3.4155,2.3265,-47.4965,-6.1541,-5.3631,1.1594,2.3215,0.20504,-1.0781,-4.2882,1.182,0.87047,-1.8182,14.0392,
1.3692,1.4636,-46.8163,-3.6153,2.4305,-3.4899,0.49544,6.2183,3.5659,-2.3437,-1.058,2.0235,-2.9142,-0.90317,
6.5892,-1.9987,-50.7558,-1.9525,5.1772,2.0221,6.7322,7.7729,0.9418,1.1709,-9.6717,2.3841,7.3836,-9.1644,
6.1943,2.46,-56.8694,1.5391,3.9023,5.7572,10.1847,2.4863,-5.8632,3.5112,-12.4658,-3.5436,5.4945,-1.8656,
3.6533,11.2302,-56.1086,4.5804,7.7657,2.7609,5.9584,-0.79614,-10.5728,-0.31464,-1.8357,-1.1616,1.0675,2.8258,
2.4697,11.5207,-53.224,5.7514,10.1923,2.5948,7.0467,1.6618,-6.0825,0.6681,5.5053,2.7645,2.9316,1.21,
-0.8117,4.8037,-59.4308,3.7193,4.5188,4.6085,8.3114,1.3213,-3.5482,3.2793,-2.2971,-2.4633,-3.27,-3.4421,
-0.5218,4.2743,-59.4801,5.1832,0.15059,5.0551,5.1614,5.3396,-4.0584,2.8414,-6.7383,3.2284,-2.3507,0.86201,
-1.9368,4.0178,-54.4651,5.3541,-2.269,0.89542,0.51289,5.5012,-8.1532,0.26077,-6.8164,10.2655,3.0927,4.6667,
-8.8104,-1.7668,-54.8126,0.45357,-3.3377,-1.8099,-1.2046,2.0376,-11.7614,0.96803,-7.1303,9.4086,0.25609,4.1457,
-9.0047,-5.7582,-56.5855,-5.1173,-1.4502,-2.9061,1.0368,-0.2538,-8.4046,2.1152,-3.569,5.2287,-6.7489,-3.0929,
4.0688,0.37212,-48.3699,0.49266,6.8317,2.0887,8.6876,4.5819,-1.6336,6.3269,7.2502,-2.3157,-0.077242,-6.7635,
4.0659,3.0011,-48.601,-0.74243,10.5189,3.1685,7.9251,8.8865,-7.5614,11.0087,4.1639,-0.48972,10.7734,-8.5271,
-2.927,0.89285,-57.2541,-6.0001,7.9596,1.0502,2.6289,8.8353,-12.4099,13.7226,-7.1732,11.5908,9.1629,-7.0511,
-3.9564,-0.36578,-58.8803,-1.061,4.8307,1.7103,2.7124,4.69,-11.9065,4.9453,-6.0197,4.3876,-0.30492,-5.9054,
-2.2728,3.5121,-53.9017,3.8234,5.0228,4.9817,5.9236,4.8905,-10.2282,1.2741,1.5719,-3.5884,-2.2148,-2.6585,
-5.7518,1.1322,-61.9957,-3.8778,-0.33979,-1.3428,-3.8313,0.98164,-14.6757,2.403,-6.9581,2.1705,-2.8051,-2.2581,
-5.4067,2.0286,-69.3632,-5.5734,-3.2119,3.5585,-5.0477,2.8509,-7.0467,0.81255,-16.1816,8.3068,-2.1546,-0.19439,
-8.6977,0.21966,-70.7446,-2.1055,-4.224,9.8529,-2.0938,4.849,-3.0085,-2.8516,-11.5953,7.0855,-9.0152,1.5045,
-9.8629,-3.4087,-72.5257,-4.6305,-4.2118,-1.1028,-4.6195,1.9068,-9.3357,0.45273,-6.32,11.7218,-11.6075,2.6193,
-1.7995,0.89293,-65.5228,-1.7013,3.0306,-0.79543,2.6478,9.2644,-0.82161,10.7897,-3.2895,7.4033,3.1889,-5.4918,
-8.1992,-1.3298,-64.7249,0.56992,-1.2486,5.2778,1.2837,8.4676,3.325,1.7066,-6.2256,-7.1409,7.2156,-19.2623,
-6.0201,4.2938,-63.4928,8.4892,0.031351,9.0588,-0.96275,5.7901,1.4385,1.8449,4.512,-10.9303,1.721,-4.9707,
-5.9001,-2.4715,-64.2627,0.02637,-5.032,-0.88454,-7.8946,-3.9571,-8.5299,1.9754,2.0719,1.0535,-2.4796,0.87141,
-5.3049,-4.4926,-57.2732,-1.1803,-1.5968,2.7837,-2.8414,-0.58637,0.8997,2.5801,-2.6315,0.26715,3.6947,-1.8322,
-10.2894,-0.3669,-62.5142,-0.62775,-1.5012,2.6165,-3.635,-3.4439,2.7737,0.014893,-4.8844,-3.6055,-3.2759,-0.75817,
-7.0208,8.091,-58.0402,1.5793,-3.5801,0.29055,-6.5502,-5.8882,-6.7925,-0.70913,-3.8682,6.0111,-4.7663,3.3844,
-3.466,9.2928,-49.978,1.7255,-1.6781,2.9242,-4.47,-0.95559,-11.9286,-1.8714,-6.2872,9.2658,1.5452,-0.43359,
-6.3915,2.2277,-55.8974,-0.065248,-0.37253,3.4717,-3.4789,-1.1392,-8.5618,-2.4825,-6.1509,1.2381,-0.23472,2.2435,
-2.1512,0.16588,-59.2925,0.90299,-4.2061,0.85323,-3.7521,-4.9273,-4.1912,-3.7793,-4.3356,0.68185,-2.1486,8.3754,
3.7624,2.5661,-54.2887,-0.11551,-1.5436,1.7664,-3.045,-2.7034,-6.8323,-4.035,-5.0398,5.9436,2.3186,4.9808,
3.0543,4.8222,-54.4058,-1.5548,1.923,4.0705,-1.8984,0.83323,-4.9761,-1.3827,-4.7374,4.1407,1.2154,-1.1026,
0.70189,6.702,-58.6133,4.0821,-3.2536,1.6571,0.86702,-1.8683,-2.0264,-1.0588,3.5006,1.2407,-4.4011,-2.2417,
-0.54506,4.6132,-58.7119,6.0068,-3.7813,-0.12954,-1.8361,-2.961,-6.0022,-2.2001,3.0496,3.3359,-2.9318,-0.42,
-1.2355,6.5053,-53.5017,5.4052,1.507,3.0115,-3.8953,4.2063,-6.3652,2.0295,-11.2334,1.9302,4.7157,-3.5281,
-1.6435,8.0434,-53.6663,8.937,-1.4757,4.2768,5.4972,6.3642,-1.1628,4.3176,-10.6797,-1.5598,3.9509,-7.6549,
-5.8835,2.2584,-62.0153,6.9548,-3.3156,1.6103,9.9883,0.19757,-3.9853,2.1306,-3.2902,-0.50213,0.33958,-4.3033,
-8.4225,-5.5899,-66.0071,-1.1753,3.6323,0.54938,2.1582,-0.29621,-9.5308,0.074549,-9.8417,3.3844,0.80114,5.1139,
-4.5429,-4.7728,-67.8315,-4.4795,7.7524,2.9268,-0.38213,2.1315,-4.6204,-3.3046,-4.9126,7.5199,-1.1754,5.2888,
0.30893,-3.7635,-72.6797,-3.4873,2.2261,2.9921,2.7743,0.3168,-0.72773,-1.901,9.4821,1.0431,-4.72,-6.3568,
5.3518,-2.3327,-73.8623,-0.14485,-3.9333,1.6075,4.7772,0.056598,-6.7098,2.3106,10.2385,-6.4915,2.0707,-2.3597,
8.6464,6.7256,-74.0101,3.4795,4.7386,5.6087,11.4802,3.6689,-10.4044,-4.8177,-2.1857,-2.0044,12.7929,7.664,
3.5479,8.4912,-80.4157,-0.82709,11.9261,6.477,9.1042,2.2434,-9.5391,-10.0722,-7.5982,-6.9458,9.8559,-2.1958,
2.6121,4.8483,-82.5806,-1.5004,9.5233,5.3655,-1.324,3.3141,-1.495,1.8603,-1.5987,-12.0727,10.9518,-3.2693,
1.9732,1.1831,-83.8921,1,1.7213,0.70499,-3.6549,1.1868,-4.78,-0.66167,1.3895,-4.5992,7.8846,2.7116,
4.0242,1.8353,-81.5099,2.627,2.3412,2.8321,2.1082,-0.57136,-6.1802,-4.7196,4.4394,3.6303,1.8677,-3.9588,
1.3726,-5.9876,-78.0656,-0.42267,-0.69137,-0.7123,-1.3927,0.90918,1.9034,3.2769,1.281,-0.44394,-0.17236,-12.8803,
-1.6023,-9.4847,-80.1305,2.0128,-2.5785,-5.0079,-3.7193,5.1929,-0.13899,4.0441,1.6861,4.4034,-0.16225,-2.4665,
-3.6751,-1.926,-87.1326,-1.7231,1.6738,-1.5742,-1.3272,0.30185,-14.2306,-9.4552,-1.0664,10.6469,-5.214,0.81475,
6.9095,6.1435,-83.5921,2.4778,10.9736,6.4743,7.1888,0.042547,-16.1486,-13.4669,-8.9559,0.12593,3.0528,-0.4392,
8.4232,0.47227,-86.7713,6.1851,9.8328,1.2651,8.6852,1.0043,-12.7696,-13.6232,-16.1318,-13.9816,15.4029,0.069084,
6.4713,1.408,-89.278,1.4759,7.7968,-1.2212,6.7181,-0.98436,-16.3417,-5.0933,-1.0639,-10.1302,16.4069,0.5471,
7.0473,0.84161,-92.598,-5.3616,7.329,-1.1479,2.9405,-6.2279,-17.2894,3.4075,11.4129,1.5649,7.7098,-2.8602,
1.804,-8.3677,-97.6471,-5.522,7.8533,-2.0431,2.2824,-4.8897,-12.3957,1.2751,1.087,1.9531,3.8729,-2.6883,
0.49047,-3.7683,-91.0654,0.83483,6.1768,4.105,0.94015,3.3574,-3.6982,2.8853,-1.6294,-0.81515,6.7738,5.4267,
0.46105,-4.5065,-91.3861,-4.0355,-3.3528,1.9305,-8.2753,3.6379,-3.9582,2.7122,1.3605,-7.0332,7.3313,0.76278,
5.736,-4.7185,-94.0981,-2.8295,-1.2235,-0.59544,0.41593,7.7579,0.61759,1.5852,7.0634,4.9579,10.2656,2.6447,
3.4634,-2.025,-94.7189,4.5713,-0.18595,0.88632,10.0322,6.3284,1.0627,0.52641,5.6755,18.158,0.49087,13.0916,
3.2556,-2.8674,-93.8561,6.7072,-0.65673,1.3155,5.0919,1.6103,-3.8213,-0.4695,0.51473,8.3919,-4.3591,8.9316,
12.4605,0.92029,-87.5016,9.9204,5.4085,3.4055,2.1351,4.647,0.50509,3.6563,4.099,-1.5118,10.0025,-5.7043,
5.4462,-1.0634,-92.3748,0.64784,-1.6652,-1.1373,0.56049,-0.45232,-0.48931,2.9547,2.4071,-0.93895,2.7741,-14.6418,
1.263,-4.374,-95.9909,-2.2831,-3.9749,-0.10478,8.2401,-0.42518,-2.3881,5.188,0.81638,2.4918,-5.587,-1.7117,
7.2132,-2.9063,-93.8469,3.8794,3.253,0.62486,8.4686,1.7695,-3.9319,4.1534,0.52643,-2.7194,8.0046,-9.5627,
13.2879,7.632,-90.8676,10.1542,10.5296,-1.5822,3.8631,0.45803,1.3655,-0.67511,8.9305,-0.86896,17.4062,-10.6762,
5.0188,7.4155,-92.8871,7.3757,5.8005,-2.6921,0.015912,-1.7386,1.5245,-8.1064,3.3335,-0.57586,2.2619,3.2208,
2.7893,8.4166,-80.0833,11.7537,1.1139,7.1101,2.9072,7.525,9.1461,-3.2819,-9.3998,5.7254,-4.2611,7.3661,
1.1759,8.8757,-67.5653,9.1205,-3.291,4.7555,-4.0159,7.0732,14.3817,-5.4949,-11.2462,13.5768,-4.9693,7.4063,
2.0694,7.379,-56.2808,6.1629,1.7264,-2.7609,-5.7033,-0.58177,14.4829,-14.3245,0.033668,12.762,-4.1892,20.459,
1.9453,2.1156,-41.3348,2.4187,0.17706,-2.5952,-2.9505,-5.3676,21.3267,-17.8033,3.4061,-1.983,-1.5275,17.7857,
-4.9206,-3.7962,-28.2496,-2.065,-9.4748,-0.029133,-7.1125,-4.0814,29.6883,-13.3609,-0.17295,-4.2744,-0.47196,15.272,
-11.856,-11.2809,-16.9134,-9.6536,-9.8704,-3.884,-9.0957,-4.8006,23.0865,-16.8978,-4.0187,2.7308,-1.8897,25.4427,
-9.4571,-13.7373,-1.7986,-12.6896,-2.288,-6.7838,-1.5603,-6.1996,21.4606,-16.1247,-2.5725,-2.4945,4.7314,22.2292,
-3.1049,-0.37983,12.4093,-5.1796,-4.0792,-6.377,-2.9127,-3.8997,22.5828,-9.3728,2.4023,-16.4449,7.822,17.0393,
-1.4728,8.802,25.7647,-1.0128,-6.245,-1.656,-9.9688,-2.7013,15.9252,-11.7025,-1.1163,-12.9276,-0.84227,25.1755,
1.9902,2.0071,38.3188,-3.362,-0.56744,1.8176,-1.1757,-3.5034,18.8263,-8.59,-8.7619,-2.9926,2.5825,25.1114,
4.2807,-1.0056,50.1197,-2.6781,-0.051693,-0.70139,6.1254,1.0454,24.9273,3.4943,-6.7901,-1.849,10.6225,25.0508,
-4.653,-3.8375,56.392,-4.4458,-9.2074,-4.5159,-4.8472,0.5005,17.165,2.8029,-5.9005,3.5644,4.2006,27.8863,
-6.543,-10.1152,58.5521,-7.3126,-14.6805,-6.8961,-10.0999,-5.0731,13.9659,-4.8375,-0.0029036,7.4479,-0.14907,13.4386,
-4.4634,-8.3033,56.726,-7.1146,-10.6664,-4.7953,-7.3246,-5.0099,17.7075,-3.3417,14.0973,-1.4349,4.4394,2.2682,
-8.7747,-2.2608,52.5998,-4.5183,-4.0006,0.071933,-7.6082,-0.12938,11.1016,0.47443,16.5052,-4.4821,2.0041,8.6403,
-10.8997,-0.92028,54.9874,-6.4168,-4.4835,0.30858,-9.3209,-2.2912,-0.41073,-4.6157,1.4149,2.2948,-5.5882,6.4342,
0.11859,5.1605,55.7855,-4.3441,-3.9735,0.049102,-6.1101,-6.2511,2.2655,-4.0978,-3.37,-0.97639,-1.6372,0.505,
6.8601,8.2251,51.9562,-1.1916,1.0854,-0.43601,-3.3336,-4.43,1.165,-1.442,-4.1319,-13.4511,3.2812,2.4027,
4.7613,7.9725,53.9001,2.0133,9.9378,5.6157,5.3021,8.1283,-0.10975,6.5987,-8.4633,-1.7982,12.0022,9.7303,
-3.9605,1.9506,44.6405,-4.6154,-0.058423,2.1457,1.851,5.471,-2.7547,5.9613,-9.6427,3.8533,5.2565,1.6747,
3.2672,4.9673,37.865,-3.1329,-7.0446,-0.1524,0.53484,-0.88259,-0.42005,5.8448,-2.0745,1.9351,1.3259,-3.4872,
5.2404,-0.87485,36.316,-2.7045,-3.9708,0.097708,3.1538,-0.10673,3.2206,8.6276,-3.6373,-1.7964,7.2717,-2.0732,
-9.1741,-11.427,29.3165,-8.8085,-5.6605,-1.3542,-3.7841,-1.0644,0.61699,6.664,0.91951,-1.6884,8.7638,-2.9129,
-14.5287,-2.7876,22.0139,-6.5927,-7.972,-0.55003,-9.1006,-1.2415,-0.14293,5.5408,13.6388,2.9922,8.479,-0.086559,
-8.8367,3.6462,14.4266,-1.3769,-6.5298,-0.99896,-5.6621,0.76116,-0.13436,7.6184,8.9636,-0.079859,1.7035,-1.0457,
-7.8243,-0.91115,1.9916,1.116,-2.2814,0.507,-2.9125,0.71572,-5.9111,0.89505,-1.6969,-0.55677,-7.0756,-3.8752,
-11.6934,2.0358,-11.1436,-4.2533,-1.1804,1.4407,-6.5939,-3.6658,-12.3051,-10.2461,-1.5953,2.3689,-6.6511,-1.2324,
-2.074,13.2421,-14.5721,-7.1318,1.0593,2.5593,-5.4751,-3.687,-14.7001,-8.9082,-4.1509,0.53933,-4.0828,3.903,
7.6916,9.5553,-18.0363,-4.2936,1.478,0.95971,-3.7006,-4.4299,-19.6029,-4.9995,-14.5069,-4.3135,-12.5147,6.0792,
6.2661,6.5716,-26.1134,-3.0719,1.389,-0.5439,-2.5144,-5.6106,-23.2472,-7.1099,-13.1548,0.76578,-15.1383,6.1962,
7.5773,11.239,-31.0541,-2.1642,1.0647,-0.75223,-3.5689,-4.0687,-22.0933,-9.8163,-9.7139,0.47887,-4.83,-4.0576,
9.5328,6.7083,-35.9393,-2.0343,-1.8912,1.2211,-4.3186,-2.8602,-19.3215,-7.7811,-12.9875,-13.6499,1.7265,-15.3833,
4.1404,7.7518,-41.4959,0.49807,2.5608,7.4146,-0.68526,2.6143,-11.4135,-1.0475,-7.8697,-9.8179,2.5873,-9.6393,
-3.3389,5.8404,-53.1062,-3.3887,1.9248,-0.26114,-3.5362,-2.3633,-14.1031,-7.2516,-8.8438,1.376,-2.3887,-9.5434,
5.0566,5.0081,-51.2453,1.1534,6.63,-1.6917,1.9786,-2.7034,-8.9186,0.41434,-5.4206,4.6679,2.0932,-10.417,
5.7171,-1.5594,-47.2067,3.4944,3.3397,1.3018,1.8594,0.83276,-1.1527,11.4767,-4.6135,-1.3967,-2.3709,-10.2739,
5.8562,-4.8401,-52.5693,2.8025,0.24701,4.5984,1.2662,6.0857,0.84491,10.3059,-1.4444,3.9895,-6.0851,-7.7295,
6.4689,-4.0675,-63.5151,2.1527,0.23242,3.8403,1.19,5.2384,-0.16988,5.8314,1.5346,7.1248,3.4391,-8.2294,
2.7063,-1.8952,-73.8042,5.8799,-1.2278,5.5381,-3.2197,4.4421,-1.6059,8.3736,2.8888,2.3585,12.8737,-6.7718,
3.5081,0.14689,-78.2936,6.9731,1.2562,10.5087,-0.61621,4.6578,-1.0274,4.015,11.3923,2.2173,12.5834,-5.8833,
9.5643,6.4044,-78.4167,5.5907,7.9295,11.3242,10.5078,2.9318,1.4446,-2.0107,19.3857,-1.29,9.4181,-12.7614,
6.5801,8.4305,-83.8346,2.8449,7.9359,4.378,5.5392,0.82794,0.87574,0.52031,8.0994,-3.623,3.5506,-17.2981,
5.2212,0.69402,-85.0712,3.1563,6.9776,-0.22322,0.38591,2.7062,-3.0334,-1.9213,-1.0634,5.7532,2.8554,-8.0653,
6.1132,-5.3732,-86.9566,-0.16654,3.4259,-4.3072,4.4606,-1.0711,-1.6461,-7.8315,0.68758,4.2032,10.1558,-6.3761,
5.5052,-0.95366,-90.1751,-5.218,-3.2873,0.048835,1.5416,-1.248,8.8167,3.0025,3.2977,0.33535,15.0901,-11.5373,
0.59563,-0.17308,-96.0928,-6.1102,-4.7773,7.0358,-3.6126,1.9599,5.6366,7.4016,2.8588,6.3408,5.7488,-5.7834,
0.077727,-4.5012,-103.8248,-7.1896,1.2937,3.7209,-0.98545,1.8425,-5.789,-2.6832,2.2051,3.5504,-0.38071,0.83032,
8.0268,2.7582,-96.8724,-3.6252,8.6879,0.36414,2.2067,5.3469,1.5477,1.5747,1.3495,-1.2423,12.4164,-6.2094,
6.0992,2.593,-94.9162,-1.4793,3.3461,-1.5857,-1.7819,1.6523,8.6859,8.2293,0.78679,-2.6138,8.7791,-19.9368,
4.7691,1.4733,-99.8266,1.5018,4.1094,3.8119,4.1094,2.5168,1.4161,4.3609,7.9702,2.8454,1.5034,-9.9432,
3.2777,0.66201,-97.9341,0.20682,5.0682,1.414,2.658,5.4993,-7.5869,-7.2285,-0.46176,-0.94073,4.0648,-4.285,
7.6605,4.2375,-84.1043,6.2202,6.4511,3.9805,1.2935,12.6414,6.1249,2.605,-2.603,-0.64309,12.2568,-4.2691,
1.1754,-0.59606,-85.5658,5.1236,1.9666,2.5368,0.010561,5.8569,4.0702,9.9205,-0.76003,-3.2556,3.0855,-4.2539,
0.6229,1.8498,-87.6626,5.7801,5.2231,0.93836,3.3844,1.1672,-7.7432,5.9508,0.24989,0.79567,2.4182,-3.5167,
2.2725,1.0157,-86.5002,3.7463,6.1148,-0.80539,4.3864,3.7485,-4.6273,1.9786,1.9219,3.3993,11.1912,-7.8852,
-1.479,-7.9631,-84.4437,2.7984,1.1684,-3.4084,0.98948,7.1387,2.64,9.3314,3.4936,-0.90183,13.1708,-2.8326,
-5.7288,-8.9318,-84.1976,5.0408,-2.7583,-3.6856,-3.8904,6.7106,-4.2671,11.1819,-2.0185,1.5622,10.4524,0.71157,
-2.4926,4.1376,-80.1098,6.1846,-2.1105,7.1404,-3.6565,7.7543,-7.8674,6.1727,-3.8255,15.4482,6.9332,4.0433,
-0.17409,13.2896,-75.5442,6.5367,-1.7431,19.0042,-3.6783,7.0478,-8.1185,1.7047,-2.8729,18.6189,-0.95487,16.5754,
-0.16365,14.4204,-70.5294,6.6264,-2.1204,22.6847,-3.4576,5.6611,-6.1851,1.1205,-5.5926,3.4018,2.4771,15.5809,
4.4257,18.6166,-63.6465,7.4339,-5.1265,24.9388,-1.5631,10.3824,-2.1988,3.7046,-4.0519,-10.9024,9.8001,0.54604,
6.3293,19.6688,-63.4432,4.8187,-7.9524,24.6478,-2.6742,10.0009,-5.6823,1.3132,2.2167,-6.1511,3.6684,-7.5614,
-3.4505,9.5706,-64.698,0.43222,-8.6801,22.446,-4.201,8.1955,-3.6542,1.4753,-1.0498,0.72592,4.6536,4.2205,
-8.3046,5.8633,-58.1648,4.0217,-8.4004,22.7865,-1.7797,13.2474,3.555,9.3406,-7.0123,-4.3793,17.1486,1.7981,
-4.4324,6.4754,-56.1212,6.6725,-11.753,19.973,-3.1192,10.5244,-1.4791,6.8519,-2.2533,-1.7064,12.2633,-5.0583,
-4.1662,2.7127,-59.9845,3.8622,-15.8679,13.9542,-7.7526,0.73412,-9.1029,-0.7898,3.6667,11.4116,-1.4877,3.9221,
-11.3883,-0.10142,-53.2522,3.3893,-11.783,12.8757,-7.0462,1.4127,-4.4596,2.8728,2.7236,15.3064,1.7346,11.6403,
-13.3563,-2.7467,-45.4778,2.9447,-5.5322,8.9699,-1.08,5.4256,0.38753,5.3517,-2.9837,0.28804,4.7638,-3.1581,
1.5451,1.5157,-35.2771,8.3114,-2.067,12.0469,7.9026,12.0897,3.9799,9.6101,-1.5991,-7.3218,11.9498,-14.4171,
5.1883,-0.26245,-36.7759,3.2335,-9.4148,13.4937,0.43902,8.7132,-3.2487,8.7926,-2.7085,-3.749,12.4381,-5.5983,
-9.223,-0.96983,-42.5231,-2.5039,-5.7162,11.479,-7.0589,0.71883,-9.0791,2.2392,5.8899,3.948,3.7381,8.8376,
-18.672,1.2575,-47.4435,-4.5229,0.16994,9.585,-5.4305,-0.52959,-8.7758,-4.885,13.0084,2.5058,1.8266,7.7049,
-21.1671,-1.4693,-50.1405,-4.9746,-4.9017,8.7687,-5.3459,5.0456,-4.6336,2.8801,8.6127,0.66803,8.7066,-0.22942,
-18.9328,-9.0939,-45.2039,-3.2299,-7.0177,5.8324,-7.4353,5.7072,-1.9455,11.8664,3.2752,3.5205,6.256,1.713,
-9.1202,-8.5485,-36.2253,-1.5905,2.0797,2.5898,-2.1687,3.9182,-5.6854,8.2616,-1.7418,3.309,-2.3145,-0.31866,
0.58606,0.1596,-28.7489,-1.9766,5.3299,-1.4216,0.37158,1.7554,-14.503,1.0175,-13.2065,-3.156,-4.5855,-1.2634,
8.2639,2.078,-21.7216,-3.3045,-3.6672,-3.7466,-2.543,0.2036,-9.2945,8.1871,-14.8244,-6.8233,-1.4181,5.5611,
6.0806,-9.3747,-15.3566,-6.7214,-8.9906,-2.7987,-3.1136,0.91451,2.5916,15.1679,0.16504,3.4683,2.7643,2.5761,
-4.1659,-13.8736,-11.302,-4.6311,-8.2102,0.020549,-5.0957,3.9929,3.6411,9.1963,14.2551,14.5886,7.6601,-2.6399,
-7.5316,-4.1234,-5.0802,1.6725,-9.4048,1.7063,-9.3694,5.4408,3.6634,4.547,19.1846,7.2056,7.4415,0.65172,
-6.3564,3.1139,-0.67784,1.8132,-9.5634,-0.56523,-10.9764,1.9808,2.2388,0.65874,9.5974,-5.5193,1.9336,-3.9667,
3.9067,11.3625,9.2448,5.3196,-1.0361,4.5301,-3.3282,3.0671,-2.9575,-0.58584,4.4421,-1.5729,10.2532,-6.38,
13.0725,13.8145,18.5722,5.724,3.1241,5.4639,-0.4772,-0.73216,-6.8772,-8.0223,2.0066,-3.6475,12.2896,-5.2741,
16.6263,15.396,28.063,6.8261,6.7928,9.956,2.4437,0.27587,7.0326,-12.3619,3.3322,-7.7672,2.3929,-7.368,
5.747,12.3028,27.5843,6.6577,1.3238,9.5999,2.0559,1.4644,14.0827,-12.3433,-6.2679,-6.578,-1.848,-4.2746,
0.82266,7.4671,27.1345,7.4633,-4.7814,2.9981,0.24556,-0.31048,13.4789,-5.0945,-16.2559,-3.0501,4.7706,10.0819,
6.076,2.1988,34.6652,5.5697,3.7002,-3.9302,-1.2154,0.19008,21.8292,-0.45054,-2.2652,-2.8671,2.5562,23.577,
2.3369,-3.7177,35.9595,-1.9953,13.1191,-9.4794,0.30375,-1.2676,30.6424,0.058431,11.9707,-2.6951,2.4028,12.5212,
-7.4445,-12.1715,27.0535,-10.5524,9.4402,-19.9977,-0.67857,-9.3865,29.7679,0.53709,4.8655,2.2871,9.0073,4.0574,
-3.3822,-15.0569,30.9737,-9.6786,8.6326,-25.3055,1.0491,-6.172,37.3816,-0.21827,3.8504,14.4422,9.19,14.178,
2.6051,-15.5995,38.2745,-8.6157,5.2223,-27.1614,2.9146,-0.49876,44.298,-6.4719,17.7194,8.2732,4.7822,16.7016,
3.1719,-10.5659,39.5935,-5.4474,6.114,-21.4342,4.9091,3.1464,38.0249,-5.8424,19.1871,-1.141,13.4133,15.4587,
-1.5979,-12.1014,31.1921,-12.1102,10.3267,-18.943,1.4809,-3.0682,21.6434,-6.6974,3.9359,-0.34941,10.4392,14.7719,
-2.948,-15.2319,31.2485,-13.794,11.1531,-18.2886,3.32,-6.2583,18.7778,-0.028795,-0.75932,1.1176,1.1357,12.4396,
-9.7606,-19.3792,28.1688,-11.761,3.0121,-21.2887,1.9159,-4.1956,24.1591,1.1782,-4.3292,-1.6006,0.82683,3.7395,
-10.3802,-14.601,24.3093,-7.9223,5.9649,-13.0215,-0.36817,-0.32845,27.2888,1.3485,-1.4183,9.3413,11.6232,8.5763,
-17.4704,-10.8327,21.8866,-7.4468,-1.6241,-12.2404,-9.023,-7.5398,16.4927,3.6779,-1.8149,9.7449,3.2131,12.8822,
-17.3863,-4.3984,27.3221,-2.1795,-7.311,-13.9163,-13.7845,-5.159,11.1646,12.1341,-0.74195,15.9089,-4.2105,19.8223,
-10.5583,-4.1342,29.0572,-5.4234,-5.4263,-11.1529,-12.4752,0.45296,5.1923,3.2112,-2.6259,24.1136,2.3088,23.9354,
-1.7303,-4.3684,35.9907,-4.1339,0.20171,-8.5558,1.2889,-1.9846,4.8805,-2.7659,-1.0223,10.6155,11.8113,15.7506,
0.78385,-10.8549,43.4722,-1.9574,1.6361,-18.6475,4.5858,-6.686,9.4082,4.6307,0.0031622,-4.1215,6.2821,0.70555,
7.0036,-14.5422,45.6846,-2.8041,5.8765,-21.8668,4.7928,-2.9101,11.736,9.1733,0.96753,-7.6103,3.0129,-13.4368,
2.245,-20.9003,35.2307,-13.2411,2.1494,-18.6266,2.5771,-6.11,5.7292,2.3564,-1.5011,-0.40478,0.42199,-11.9072,
-5.1205,-18.2002,31.6706,-9.5541,-1.354,-12.2068,-0.47007,-2.8513,10.2061,5.1071,1.4815,1.5477,4.2528,-7.8188,
-7.2236,-16.1441,28.8063,0.17791,-4.165,-12.4385,-6.7086,2.1407,13.9323,6.7291,3.3206,0.49074,5.9261,-7.3494,
-8.9594,-14.9345,22.0162,0.89013,-1.746,-13.8613,-4.6189,-2.0856,8.0347,6.5663,0.47023,-1.7079,5.3293,-5.2212,
-11.3139,-9.2177,23.1056,-0.60908,-0.67688,-14.4759,-0.48535,-6.7807,-2.5703,3.7622,-3.4144,-3.5336,1.1532,-9.7287,
-5.5738,-4.0854,24.8525,1.5966,-0.8777,-14.8126,0.74907,-2.7589,-10.8522,-0.079401,-2.0047,-1.6348,-0.12131,-12.2784,
4.1606,1.2214,23.1204,6.0806,3.7547,-10.308,5.2834,1.5045,-11.8883,2.5769,-3.0892,0.6329,5.4298,-6.4801,
2.9469,2.1122,21.2513,5.7155,6.4217,-7.2796,3.5204,0.93204,-4.4263,6.7609,-7.2424,0.5947,6.0681,-8.9835,
2.2881,6.3238,26.2429,9.229,8.4465,0.388,0.89903,5.6968,7.8908,9.2477,1.8692,-0.40485,5.2221,-12.7829,
1.9099,10.5241,28.2835,14.2188,-0.97786,2.5339,-4.2166,6.5599,11.9967,9.4158,7.7826,-3.0321,0.32926,-15.1494,
3.7235,9.4103,29.4788,14.33,-6.2221,0.93604,0.37472,6.6487,9.3487,13.1891,4.4231,5.8269,-1.1368,-20.9889,
7.5974,-2.9644,26.505,-0.62976,2.5872,-9.0025,4.932,-1.2221,-4.4686,5.4079,-1.8678,0.89801,-4.2018,-33.8295,
12.444,-6.6427,23.4685,-10.8358,16.5319,-15.211,3.672,-8.3798,-9.5029,-1.6652,-6.0943,-9.7609,1.8349,-41.5614,
9.7692,-7.6904,20.1322,-5.8474,26.5068,-18.6367,3.9336,-8.8409,-10.861,-0.601,-15.8515,1.9115,8.9554,-34.7294,
10.6293,-6.7473,27.6011,1.2524,31.1829,-17.0366,13.3385,2.2944,-12.6199,8.5936,-5.2595,15.8968,11.3104,-20.1124,
1.7966,-8.7526,23.0527,-4.6076,18.7068,-21.7989,5.3076,-3.6276,-21.5034,2.7756,4.2149,0.84323,-1.9015,-21.3156,
5.7864,1.6547,26.7313,5.0691,17.8256,-13.9833,7.6405,1.6515,-8.4029,1.8864,5.1675,-6.6794,0.8639,-25.0983,
10.0187,2.2786,36.9377,12.2366,20.3713,-12.9031,14.1717,5.65,-5.7298,0.085753,-5.5066,-8.4476,2.9812,-37.6924,
11.5867,-0.50946,48.8215,8.3693,19.8724,-10.4419,14.0443,5.5519,-9.0014,5.1423,-1.0789,-12.5205,2.5614,-37.2386,
4.8658,-1.202,54.4483,1.3595,11.6904,-10.0564,4.7662,1.6036,-4.8457,5.5569,4.5293,-8.6355,4.0949,-32.3529,
-7.2363,-6.1913,43.2277,-7.6402,2.0709,-18.3708,-3.9559,-7.4106,-5.7602,-4.6585,-2.25,-4.02,3.1261,-34.5091,
-10.6583,-8.7122,48.347,-12.0022,3.8746,-16.3045,-1.3082,-6.0019,-6.3787,-1.9691,-2.5971,-2.8147,4.8667,-28.5822,
-5.4395,-7.4665,59.5462,-8.631,8.2214,-11.2291,2.3853,-3.955,-8.1651,1.7645,-5.5748,-2.4049,3.8516,-23.734,
4.0457,-2.1976,70.0732,-4.7385,6.7645,-13.9293,2.7248,-6.1276,-9.6032,-1.7156,-7.1683,1.1136,4.5848,-20.8637,
8.3827,-2.3072,68.5204,-9.0339,3.2251,-15.7449,-1.5365,-8.8935,-13.6067,-5.2281,-4.0871,-4.4968,1.1763,-16.4786,
10.0486,-2.4099,70.9164,-8.2507,11.4675,-4.9183,-0.23928,-7.1548,-11.1033,-7.0838,1.7015,-7.3602,-0.099617,-11.8747,
4.8664,0.38622,68.8306,-6.5508,11.5024,-2.454,0.49797,-7.4484,-4.4116,-8.346,-0.56973,-2.8213,3.0396,-11.4032,
0.71806,3.7375,64.7012,-6.1578,-0.75693,-6.6451,-2.9059,-6.0376,-2.2183,-3.9888,-2.9457,0.72245,7.196,-7.8267,
3.3263,-0.10194,64.9167,-5.0647,-1.9166,-6.0052,-3.9366,-1.5778,-2.3264,-0.61579,2.7749,-1.0079,10.3799,-3.2595,
0.47517,-8.532,72.3494,-7.8943,1.8138,-5.8863,-2.4956,-4.6166,-2.9097,-3.7123,2.8494,-3.599,7.5875,-4.7512,
-2.6868,-7.7793,82.1085,-10.0722,1.946,-4.8098,1.2696,-4.0986,-0.56593,-0.83849,-2.8652,-3.1421,3.9988,-2.2969,
-2.0432,-2.4918,91.282,-5.6115,3.7574,-3.0752,6.0141,2.8962,0.43189,5.9607,-5.5858,-5.8456,1.8309,-1.677,
2.6587,1.755,99.9051,4.6071,8.5936,1.6886,6.3762,4.4096,-1.7632,6.8079,-7.4198,-3.3257,7.2644,-5.1918,
3.9454,6.9526,108.0108,6.7413,2.7754,4.4801,-0.27291,1.253,-8.8878,-2.2772,-5.5284,1.2126,6.3468,-3.9159,
4.6728,14.248,115.6301,6.3366,-1.7297,4.693,-0.7387,2.6234,-13.6574,-5.5153,-0.37618,3.5498,0.18098,4.9957,
4.6336,11.7061,122.7923,4.2694,0.54348,1.7601,0.99262,0.29706,-12.5972,-3.0149,-7.8256,3.0956,-0.070843,8.3111,
2.9093,5.7011,129.5248,1.1212,2.921,1.6549,-0.51274,-2.1309,-2.6819,-1.3878,-8.32,3.3922,3.79,4.4385,
0.32418,2.4665,135.8533,-1.3567,-4.967,0.10891,-1.9282,-2.003,-2.5214,-0.34066,4.7123,-0.66815,-0.77593,-4.023,
2.4741,0.1496,141.8021,-4.4085,-3.464,1.7898,2.285,0.28607,-7.9135,2.3311,8.0452,-2.797,0.95786,-5.4686,
3.7719,-6.1261,147.394,-9.4467,10.7236,4.0926,3.5942,2.6795,-4.0643,4.6018,-0.15032,-1.1829,10.0594,-1.2841,
-0.55151,-10.82,152.6503,-9.603,12.2491,-2.6605,2.1735,1.3137,1.241,3.6026,-0.86443,-0.38881,7.2867,-1.4481,
-7.7495,-13.0631,157.5913,-6.6165,3.3197,-9.7317,2.0428,-2.1398,-3.6539,1.4585,-1.7767,-2.2939,1.5468,-5.6995,
-2.705,-3.8436,162.2358,2.6984,7.2177,-6.0145,4.5716,3.5324,-2.2296,7.3963,-4.3214,0.49506,8.4437,-1.2604,
4.9291,1.4487,166.6017,3.7418,6.0617,-6.3765,-0.28199,0.66936,-6.6751,0.44502,-5.2669,-3.1501,3.8397,-0.46141,
12.1052,7.3873,170.7056,6.1683,6.9028,-3.8248,7.2063,1.834,-5.0698,-9.946,0.1103,-3.202,3.3684,-1.1569,
14.5121,9.5954,174.5632,11.3421,11.0682,0.019883,14.2459,6.3035,-0.668,-5.2517,1.3087,-4.6974,6.2995,-2.7747,
5.9286,3.717,178.1894,7.769,2.6913,1.4649,3.2678,1.5865,-10.2689,-0.59825,-4.5544,-5.3794,2.0649,-5.0185,
-2.1401,5.9043,181.5981,6.3388,0.11948,5.2337,-0.7844,1.0096,-13.9913,-0.080187,-3.317,4.5846,3.8694,-2.7892,
-6.3496,5.0681,184.8022,5.4765,1.559,1.0633,0.70892,2.3953,-5.4386,-1.5216,-1.6717,5.2738,8.4582,-2.1395,
-0.42543,2.1125,187.8141,3.4607,-0.2222,-1.1697,-2.4671,0.082423,-3.9074,-1.6713,-1.3304,1.8239,9.1556,2.5682,
2.7333,2.227,190.6452,-0.84451,0.03233,4.9258,-0.63208,-1.61,-12.5913,-2.7761,-0.52749,3.8834,8.847,3.6191,
-4.1791,-4.1734,193.3065,-5.6141,7.2612,4.6303,7.1186,0.41481,-12.7997,1.2469,-2.424,-0.20599,8.7983,-0.93656,
-1.277,-7.5384,195.8081,2.1943,8.9945,1.2192,10.3072,5.4514,1.2249,7.1974,0.85466,-3.3269,3.6909,1.289,
-1.4416,-11.1835,198.1596,1.34,-5.6452,-5.3617,0.28895,1.991,-1.018,-1.6699,-0.40168,-1.4403,-4.0021,-3.8498,
-3.7652,-10.5125,200.37,-5.4893,-7.3551,-6.4862,-2.6209,-2.4667,-9.1516,-2.534,1.0687,3.4669,2.0223,-8.9214,
-4.5039,-6.0253,202.4478,-2.2677,-0.6471,-3.6867,-2.9458,-1.837,-11.0129,2.4385,0.040463,-2.526,-0.50935,-4.53,
-0.61777,8.0745,204.401,9.1966,4.9353,8.3446,2.2926,10.0838,-3.3622,5.4257,-0.20293,-2.1334,-0.23759,5.624,
2.5526,13.1339,206.2369,7.4397,1.9879,10.9777,3.3601,8.2737,-6.7761,3.8951,-4.2883,-1.2823,8.2128,1.1892,
5.5327,8.7302,207.9627,3.3777,-0.30077,4.2928,0.024799,-3.0692,-16.7339,1.492,-5.7185,-4.3386,6.9964,-2.4978,
5.6826,8.2064,209.5849,6.5495,1.6459,4.9995,2.4339,0.0074436,-10.9091,0.43857,-1.5185,-4.5602,-1.1359,2.9549,
2.4496,8.1964,211.1098,9.531,3.9573,11.4485,9.5187,8.2017,3.8454,3.7863,1.9466,-3.3228,2.3067,2.7776,
-2.0361,2.8839,212.5433,8.9591,6.13,13.1717,11.3577,8.192,7.3506,6.9335,0.38397,-2.1591,9.3989,2.611,
-2.3959,0.30051,213.8907,5.0471,3.3521,9.9713,7.3018,7.2181,-2.7314,2.1792,0.84287,-1.5476,6.9068,4.8644,
-2.011,1.4878,215.1572,1.611,-1.4286,11.06,6.6229,7.5081,-7.629,-0.12094,1.5154,-2.6598,6.2514,3.8497,
-5.7469,-1.9759,216.3478,-1.8601,-6.1636,11.3607,5.7432,6.0938,1.0235,2.7784,-2.4319,-2.0183,7.3224,4.5826,
-9.2585,-6.1959,217.4669,-2.7128,-5.7938,6.8227,2.5065,5.2458,7.711,-0.28039,-2.7684,0.51295,5.9189,5.2717,
-7.0157,-2.2085,218.5189,-0.38041,-2.3126,7.1362,4.5253,6.1363,7.9712,-4.3609,2.4594,-4.0971,7.2512,2.7865,
-4.6666,-0.62999,219.5078,-0.83952,-3.1378,7.1904,7.1463,4.3223,13.7599,-6.0275,2.3119,-3.3689,6.334,12.2605,
-10.6531,-4.9305,220.0761,-6.574,-10.1806,2.9024,-3.4056,-0.7575,18.2367,-13.8607,-0.71915,0.68939,-2.2407,24.0581,
-6.3985,2.8371,211.9327,-3.046,-7.8825,8.2719,-9.7092,0.97472,23.1681,-13.752,2.9394,-3.9317,-1.3834,25.7476,
-0.95339,8.2101,209.5811,-3.5866,-3.7941,6.5703,-5.5112,-3.6631,23.9471,-11.722,-6.155,-17.4341,1.3507,20.5874,
-0.17306,6.9948,211.1062,-6.0228,3.9051,0.63266,8.9194,-4.1664,29.5,-8.8493,-10.3652,-9.3984,6.8135,25.8598,
-2.0909,-0.17381,212.5399,-6.6253,0.2968,-1.8159,10.9149,-4.3983,27.73,-10.2466,-7.8151,-3.5319,8.8148,22.862,
8.6399,2.2472,213.8875,0.038768,-7.9162,5.042,5.4397,3.5783,31.8512,-4.8111,-2.0436,-4.7658,13.1066,21.9727,
3.7832,5.4868,212.9853,-1.4094,-9.3689,6.6676,1.7394,8.1843,37.6529,0.29786,1.4535,-2.0697,7.5,29.3314,
-10.5438,2.2651,195.385,-2.7715,-6.3971,5.3033,2.5989,5.2827,29.1268,-1.1663,2.8125,0.46461,1.7469,32.3918,
-18.2268,-3.8968,179.5645,-6.2202,-12.0389,6.1904,-5.0289,-1.0598,13.6408,-5.6756,2.8848,0.19576,2.8474,29.7249,
-7.9742,0.67554,172.1654,-12.5957,-13.2445,7.265,-10.03,-2.4427,11.3764,-2.4428,2.2295,1.1481,2.1944,31.3161,
-7.9779,2.081,170.5123,-13.2864,-9.5575,-1.8478,-5.5716,-8.0805,12.1398,1.56,1.6136,1.5614,-0.34766,33.2933,
-10.1503,-7.9258,170.6454,-10.3196,-12.1176,-13.0651,-2.5862,-14.1036,7.3141,-1.1847,2.7221,3.1549,2.8067,31.5367,
-3.0338,-1.4247,165.4684,-2.711,-11.6315,0.97517,-3.6363,-2.8931,6.6338,-1.3546,2.7997,-1.6141,5.2894,26.9934,
-5.5029,12.7608,151.4429,0.1032,-11.1746,15.0167,-10.4076,3.7885,4.549,-3.9244,-4.3577,-12.8455,-0.57114,20.3121,
-12.1626,15.7313,143.0797,-2.0721,-16.5296,18.8161,-13.3985,-0.53667,0.1787,-4.8943,-10.6042,-6.5311,0.18603,24.6374,
-13.6022,13.1,139.074,-5.5635,-29.6379,16.4816,-15.7279,-5.084,-7.3041,-7.7339,-16.4756,0.36846,-7.2972,24.8462,
-10.3755,16.1704,137.9604,-2.8195,-32.3188,21.7592,-14.7842,1.0056,-0.5993,-5.824,-14.0408,-2.0638,-16.5003,17.0884,
-12.4045,13.031,127.9955,-1.927,-27.7284,17.8026,-14.6201,1.6687,-0.80431,-3.305,-8.6191,-3.1452,-11.8949,8.1094,
-5.1523,11.0443,121.0387,-0.60655,-21.0032,18.4217,-8.6816,1.8095,-8.7098,1.4726,-1.594,1.6228,0.14702,9.792,
-0.50463,7.4893,120.0431,-3.4624,-19.7428,21.6549,-5.2684,7.4853,-4.813,0.42017,3.3221,-2.3308,-0.8259,4.8659,
-11.5618,-1.6369,111.8764,-6.6289,-22.8968,14.0889,-4.4702,8.0003,1.7425,-4.9075,7.9433,-6.5295,-5.5968,-7.9593,
-15.2064,-3.4671,100.3438,-6.7133,-23.9331,11.3156,-0.82728,4.146,-1.2543,-5.0952,6.9845,-6.6194,-3.3326,-9.4097,
-4.1709,1.5614,99.1437,-5.3465,-17.6766,15.9391,1.6323,5.8257,-3.107,1.4773,-0.18324,-5.7405,-3.1326,-2.0964,
-4.4026,-2.3884,92.7129,-2.6153,-13.2418,12.5724,-3.7681,4.994,-7.2591,1.3884,-8.8491,-2.9857,-8.7295,-1.4885,
-2.9336,-2.0042,90.7651,4.5315,-10.2782,5.3101,-2.8191,1.0789,-8.0289,1.5461,-9.0415,4.1833,-8.9288,-3.5688,
4.4733,-2.8482,92.55,1.3671,-14,-0.7931,-0.23984,-2.8422,-5.137,0.48944,-10.9092,-2.3347,-13.2136,-7.693,
4.2049,-5.5699,84.1045,-4.9815,-14.606,1.6646,1.7027,0.22039,-3.3825,0.94201,-5.9163,-5.5691,-10.4926,-2.8931,
-4.9653,-9.8147,72.0686,-4.9238,-10.5964,3.7341,-0.56835,-1.4798,-7.2772,2.0906,5.2852,1.7552,-3.3551,-2.9602,
-5.6312,-12.1179,69.1912,-5.1103,-11.8886,-2.7564,-3.9087,-7.1756,-5.3938,4.8576,10.2707,0.20361,-4.1179,-15.3161,
-1.6782,-10.6682,65.7624,-5.0449,-16.7189,-4.278,-1.9867,-7.9501,-0.97307,9.1457,7.0031,-2.4599,-4.5939,-20.9049,
-3.7469,-7.8587,58.6834,-0.64458,-17.403,0.075759,-3.555,-4.3399,-5.4942,5.4637,-4.2635,5.1597,-4.0773,-17.4812,
2.2628,4.6642,59.9829,6.6247,-6.7178,3.4459,0.51494,5.5617,-8.5388,3.6894,-4.0075,7.26,-2.8686,-14.022,
8.3935,12.0971,54.4557,5.7453,-2.4584,2.7567,5.3043,3.7817,-10.437,4.4323,2.4995,-7.2756,-4.6247,-14.145,
7.1668,11.1301,47.5732,8.0519,-1.5878,3.7964,6.1911,1.3855,-10.0515,7.7816,2.5907,-8.8877,2.1603,-8.2348,
6.496,9.2572,47.852,8.7743,2.1232,4.7741,7.5071,6.3642,-7.761,8.5202,0.74826,3.4559,7.0928,-6.5352,
10.4444,9.1839,47.3913,5.3551,1.9955,7.38,7.5384,10.8024,-7.778,2.2242,-1.707,2.7664,4.2564,-9.9997,
12.2281,8.1507,39.7269,4.5516,2.8397,8.3832,7.0863,8.7082,-8.2754,0.16233,-5.9431,-3.1844,7.8576,-5.5436,
6.9151,3.0824,32.282,2.5918,5.3208,7.1573,6.9021,3.1245,-3.681,1.8398,-2.453,5.4428,9.5554,-2.5594,
1.1975,-0.95893,25.5248,-0.45627,-2.229,4.7997,3.5959,-2.8475,-2.4963,-0.6807,1.5505,11.3832,-0.17678,-11.0825,
1.8486,0.78537,23.27,1.2583,-2.8186,7.6447,7.9594,-0.025588,-1.1412,1.0474,3.1443,2.746,1.5208,-15.4794,
0.29164,-4.082,17.5355,0.21851,2.6531,1.8834,10.8563,0.94027,1.8193,0.98453,2.4737,-7.5417,8.6604,-16.9608,
-0.44899,-4.56,10.9397,-0.99943,5.1453,-0.3983,7.0715,-0.80337,3.8798,-2.69,5.9407,-3.4737,2.1152,-16.1841,
-1.3864,1.016,8.3549,-1.4216,2.4262,4.4456,2.7906,-0.7554,0.27229,-3.0107,6.0664,-5.1937,-10.5452,-15.2133,
-1.062,6.9806,6.1664,1.3148,2.5216,5.8661,8.6491,2.4234,-1.9132,-0.17899,0.15879,-13.8,0.45165,-12.1313,
-1.2392,7.2851,3.6273,3.8874,4.5399,3.8274,10.7813,5.4115,-2.0394,-0.89115,-3.9481,-4.5361,14.5246,-3.9314,
-3.3343,5.1606,1.2402,3.8949,-2.2406,2.8741,1.6985,5.3275,-4.0864,-0.11456,-2.5061,7.0641,6.7837,1.3659,
0.96336,5.5741,-2.9313,-1.4002,-1.865,6.3173,1.8378,4.2848,-4.5644,-0.34888,4.6339,-3.7234,2.7615,-2.8136,
4.7619,8.6141,-5.6475,-2.2801,12.3469,10.2766,12.3328,5.9559,-5.2544,-5.1482,2.4276,-9.2848,16.6958,-2.6443,
1.8251,8.8201,-8.4426,3.4003,16.547,9.901,11.8333,7.2857,-9.0365,-1.7063,-11.818,3.5646,17.2606,4.0218,
-4.5513,-1.35,-16.1307,1.2681,1.4542,1.5942,-0.44582,1.546,-8.0123,2.2525,-15.568,7.689,2.1249,1.8523,
-2.1086,-4.4021,-15.8858,-0.49519,-7.4302,-4.527,1.2686,-4.09,-0.059787,4.7689,-0.53389,4.5766,1.8772,-3.3205,
-2.4643,-0.28178,-21.1994,-2.8758,-2.1641,-2.8094,0.22794,-7.7012,-9.215,-0.33773,12.6341,3.8198,-4.0203,-7.4598,
-6.655,8.8939,-28.6043,-3.6674,-1.5521,7.9647,-6.5344,-4.3468,-17.339,-4.656,0.78901,8.4111,-17.8791,-2.1918,
-2.6403,14.8682,-23.7545,-0.31385,-3.146,14.4767,-3.4908,1.4576,-5.4524,-2.6894,0.01877,5.7373,-11.142,0.59129,
4.0256,12.7708,-21.6064,-0.054513,-2.2345,10.9561,2.2618,-0.79947,-1.0283,-0.3589,4.5969,-2.0788,1.8186,-10.7726,
6.1947,17.3072,-23.6844,2.8413,1.7562,13.1912,5.9829,-1.2334,-4.823,-0.33737,4.3211,-0.9897,-5.0392,-15.4287,
2.2076,17.956,-20.5762,2.9118,-0.5186,14.5689,2.4905,4.8661,-6.2209,1.852,-0.5179,1.2388,-7.3882,-9.4415,
0.38813,9.889,-23.9211,-2.8063,-4.5846,4.7769,-2.7204,4.3334,-8.0165,4.3927,-4.5839,-1.0049,5.3476,-3.3314,
7.8364,10.5007,-22.727,1.4596,3.644,5.6954,4.4325,-0.024176,-9.223,1.4774,1.2345,1.2248,7.6781,0.48368,
10.4993,17.8244,-18.2299,10.7721,9.9333,13.3074,9.7101,2.6288,-8.4284,0.18388,3.3296,2.3561,0.70948,-4.1246,
9.1464,22.2986,-17.859,15.187,5.7219,15.1605,3.102,10.9068,-5.7536,0.89574,-5.3059,-2.3645,2.3541,-5.0822,
12.213,18.7911,-19.439,12.5885,-0.16529,10.1535,0.74624,8.0832,-2.757,-2.7734,-6.1928,-6.8024,3.9001,0.28417,
14.6135,15.4947,-21.406,8.6999,2.0142,5.4467,11.066,1.0905,-1.3865,-8.1504,0.20452,-3.2605,-0.43124,1.9546,
9.8803,17.4575,-23.978,7.696,2.8573,4.1561,10.884,3.9176,-9.98,-7.1794,2.6024,3.2016,-4.2618,5.2113,
-0.35347,9.1792,-33.6265,2.8959,-3.0988,1.4961,-3.2664,-2.5844,-17.0942,-5.7848,5.8207,-0.84686,-8.8268,6.3449,
-3.4657,-5.4715,-40.5265,-3.7858,-1.7078,0.20152,-3.7938,-9.4188,-6.1864,-0.37604,15.8358,0.89117,-8.056,-6.3279,
-7.114,-12.9765,-47.7361,-10.3073,-2.5694,-6.0773,-4.0478,-11.7459,-1.4766,1.5749,10.5471,3.73,-9.5008,-17.9998,
-3.5539,-7.1369,-45.1132,-8.4838,-3.1384,-3.5437,-4.5286,-5.4978,-0.66538,7.5058,1.9603,4.7113,-6.7618,-6.5559,
4.8541,-2.3699,-41.4421,-2.6721,-1.0216,1.9715,2.4921,-2.7578,-3.5175,13.3224,-7.7983,0.57219,-6.3559,-6.6443,
5.286,5.7262,-45.4632,3.0316,2.6548,3.5402,6.922,-3.7974,-12.2245,2.6409,-18.1767,-5.9698,-12.0003,-9.3791,
7.6201,17.675,-38.6383,12.2499,9.4852,11.7642,7.7118,5.8302,-9.3219,-0.16889,-11.0605,-4.8885,-3.3263,5.2837,
2.3424,3.1169,-43.5506,8.1402,5.0597,6.7193,-0.94586,-0.78635,-9.7267,4.6617,-2.6839,-6.5236,2.1757,2.6768,
1.4788,-3.5779,-47.9272,5.4829,5.4795,4.6292,0.79835,-3.39,-7.4559,7.5153,2.0567,-0.10644,6.1425,3.7212,
-1.743,-0.71163,-51.0772,0.092709,-7.6237,0.25452,-3.8288,-2.9457,-14.9622,-6.192,-7.9487,-0.82296,-5.0719,13.3803,
-1.6389,1.7412,-53.3152,-0.87718,-12.469,-6.5097,-6.0097,-2.7689,-18.885,-8.7126,-5.5436,2.1185,-12.4805,10.6493,
5.6903,7.4213,-57.829,5.442,2.2589,-5.6371,0.61786,-3.5671,-16.3059,-1.9233,5.3939,3.9196,-5.9471,8.0822,
5.1079,11.0734,-66.1699,2.4644,0.4357,-4.0941,-6.4091,-7.9324,-20.389,-12.1722,-2.8835,-5.2337,-8.7238,9.7664,
2.1501,10.6502,-63.4048,-0.33483,-4.1695,-1.1967,-5.3014,-3.8412,-14.5861,-9.2725,-2.4693,0.14226,-10.3693,10.8674,
-4.7273,3.2623,-64.9027,-3.6892,-0.062944,-4.0174,0.31932,-9.8773,-11.7827,-1.9672,6.3555,3.9901,-11.1934,0.57441,
-8.0593,-2.4769,-64.1418,-7.083,6.4485,-5.9457,4.3973,-12.8998,-10.3527,-0.64415,6.6973,-1.3108,-3.5319,-3.5572,
-1.791,-8.1131,-57.401,-10.0323,6.5438,-4.6244,7.0257,-3.9309,-3.4648,4.215,2.9213,4.0703,5.3569,-2.8616,
5.3061,-12.6877,-56.1263,-7.2614,4.9459,-2.66,8.7736,0.88401,-0.12361,10.4698,2.0229,15.1545,10.0969,3.3354,
2.5774,-13.8549,-62.3999,-9.718,4.1672,-3.9469,8.7289,-2.0613,-3.0087,6.9493,4.7938,7.978,5.6347,4.0994,
4.8331,-9.167,-60.1019,-6.2426,9.7015,-3.2279,11.5798,-0.009222,4.8846,6.0502,13.6649,-3.5876,-0.97012,-1.9314,
5.7482,-8.8582,-63.4859,1.6035,5.0218,-9.5419,5.3412,-4.1063,4.3508,0.62573,8.7479,-9.8801,-8.3837,-3.9844,
7.5725,-5.6751,-62.8098,6.087,3.0338,-8.7284,6.226,-6.511,3.3664,-2.0634,6.5358,-3.7437,-3.7831,0.83393,
5.1901,-3.4066,-60.9692,3.7938,10.0823,-2.9019,10.6729,-1.2998,8.9492,-6.2777,8.554,-3.0369,7.5311,2.2304,
0.058025,-5.1304,-66.4701,-0.77257,8.0311,2.0925,6.6586,3.5989,13.7149,-11.6856,2.7381,-7.6749,11.4178,10.2913,
-4.7662,-5.7865,-74.0515,-5.0645,-6.43,1.0031,-0.97225,-7.2224,15.7841,-15.3232,-5.1394,-7.6968,3.5019,23.1711,
-12.9156,-10.9831,-80.4544,-8.3763,-13.0339,-2.1903,-5.9754,-13.2967,18.4527,-18.9833,1.6772,-3.1374,-0.80582,32.6269,
-23.9511,-18.76,-88.4014,-15.3453,-8.6366,-5.1922,-15.0166,-6.9555,23.3713,-22.9058,12.9045,4.5224,1.4119,43.9259,
-29.5039,-22.214,-89.605,-19.0041,-8.3596,-7.05,-18.2132,-7.7433,27.9943,-19.3621,8.0326,8.3486,2.0499,51.1721,
-27.7334,-26.6655,-85.6747,-18.828,-13.6424,-7.1092,-9.8893,-14.9912,26.7968,-10.4873,-0.16187,5.4374,2.8914,39.4253,
-15.7053,-25.7887,-76.9191,-15.047,-10.6547,-6.9234,-1.3425,-8.0664,30.7329,-3.3504,2.9811,1.9779,9.2257,26.6957,
-7.7733,-20.1438,-71.0986,-7.6362,-4.4718,-8.1952,-1.0205,1.3356,36.3607,-0.016328,0.63308,4.0283,1.6822,26.2988,
-15.2609,-21.1048,-73.3406,-4.5269,-11.1934,-11.3194,-5.539,-5.2524,24.7786,1.6719,-7.3591,4.0276,-7.8189,24.4799,
-18.4428,-18.6334,-70.1455,-1.6042,-19.9218,-8.4711,-9.7864,-6.1421,12.9275,0.36627,-3.7841,1.1349,4.9425,21.3239,
-12.5158,-16.5513,-67.865,-3.9181,-18.7265,-6.5165,-11.6094,-3.8454,16.9726,-3.994,-0.18258,3.4769,9.4667,19.5621,
-10.5595,-18.2093,-70.7827,-12.6013,-13.0234,-8.2945,-3.9232,-5.7841,19.5699,-1.5855,-0.89475,6.8835,-1.9476,18.6295,
-10.1672,-19.2862,-67.2586,-14.0144,-6.2164,-9.0021,3.784,-6.1599,13.816,4.5357,-0.11817,5.2656,3.7126,14.3783,
-5.2184,-18.1288,-62.7412,-10.7629,1.3876,-8.462,3.557,-7.7185,15.3976,4.2635,-1.0749,3.5034,8.793,6.2852,
-2.4951,-18.0051,-59.9408,-11.5637,5.1605,-7.4721,4.3077,-7.2556,18.3299,4.4899,-1.4926,2.8111,-5.8346,1.0876,
-4.0324,-16.2019,-65.2622,-14.0031,-0.21054,-9.1932,3.8085,-6.0972,10.2405,5.9075,2.2126,-4.3472,-8.9797,-0.18272,
-4.5136,-11.1325,-69.7824,-10.5116,-3.8136,-7.9184,-1,-5.0082,2.154,7.24,1.3567,-6.7377,5.6591,0.55091,
-5.2071,-12.3925,-66.5595,-5.5423,-2.1385,-1.6585,-2.868,0.11276,3.9532,8.7341,-4.9914,-1.9949,3.0297,0.036155,
-9.7152,-19.8439,-67.3864,-9.5483,-2.9743,-1.5592,-0.28553,4.9265,8.0545,7.7279,-5.656,-1.3931,-1.9726,-3.3407,
-12.9886,-19.1352,-71.538,-8.4931,-5.2059,-9.1785,0.69593,3.667,7.5713,9.6743,2.3961,2.5469,4.8947,-6.5142,
-23.7785,-20.8793,-76.4047,-8.9478,-15.4986,-14.8943,-9.9511,-6.6764,-0.11385,3.3097,1.7704,2.876,-2.6298,-14.8005,
-21.6289,-16.4933,-69.6513,-5.2779,-15.2919,-2.1905,-9.1131,-1.2141,2.5441,0.45959,-1.9513,8.2471,-4.6414,-4.9944,
-12.6181,-14.0577,-68.8467,-5.9251,-10.036,-1.5771,-2.7817,-0.65932,-1.9469,-1.4962,-10.9932,5.8241,-7.7372,4.4643,
-1.7379,-6.9473,-63.2696,-6.0515,4.6661,-5.8208,6.5442,-4.4761,-5.6865,3.4143,-10.3336,5.957,-2.4522,1.7863,
7.5254,0.21802,-52.7247,-3.2781,16.7989,-3.0612,10.0082,-4.6897,-1.0067,-0.16523,-5.3751,8.4914,11.7949,-6.0339,
19.125,2.6153,-51.4894,-1.6356,19.6474,-4.3238,13.746,0.89429,3.8739,-2.0835,-2.1605,10.3925,19.1614,-3.7436,
15.3264,-8.3877,-57.8001,-6.5987,19.1919,-13.9463,14.1265,-4.7025,0.9904,5.0314,1.1026,6.1536,11.0223,-5.2063,
0.30678,-18.9716,-62.0451,-14.8796,8.8816,-19.3763,-0.82105,-12.1334,-5.8177,5.6936,3.9288,2.4101,3.6119,-11.1606,
-5.376,-15.4232,-58.3224,-13.5049,-2.7388,-15.8036,-11.2566,-6.1032,-5.4686,2.9418,3.693,4.1932,10.626,-7.1165,
3.1415,-10.1593,-54.8228,-0.64329,-0.16408,-10.0349,3.5188,-0.91605,-3.2126,6.1396,0.57916,2.978,15.7732,-8.1356,
8.9786,-5.4523,-55.1491,12.1695,11.6559,-3.8889,17.4077,1.3078,-2.7786,12.7608,1.2675,4.0039,9.283,-15.6014,
9.8864,0.65961,-50.8756,12.4035,4.69,-3.6554,2.2632,6.0503,-3.576,11.9954,2.1556,6.1745,4.8699,-14.6651,
12.185,5.4405,-47.3413,10.2132,-4.7506,-9.7032,-7.3933,5.2047,-6.2537,6.4547,-3.7586,4.8395,6.0237,-8.0008,
12.6592,8.7295,-53.9009,11.7696,9.6344,-6.4695,7.1503,1.2774,-9.4939,4.8626,-6.1841,5.7544,1.5649,-2.4591,
6.8382,6.0363,-61.5128,7.4478,19.059,-4.3943,9.4933,-2.8968,-15.9139,-0.49059,-10.8745,1.3116,-7.4473,-7.3735,
17.2742,14.5922,-51.3146,14.9551,13.8181,0.93101,3.862,3.3026,-8.9335,3.1543,-3.7146,-0.4539,4.3282,-9.5822,
22.2633,19.7422,-49.9229,14.7807,6.9635,1.1161,7.2457,0.93524,-8.1566,1.2778,-0.84062,-6.4527,5.7553,-15.0328,
18.2764,21.2093,-57.7734,11.7247,14.0175,0.80818,6.0881,-3.7002,-9.3544,-1.9324,-4.8871,-4.8602,0.83069,-13.4079,
11.1543,18.7314,-62.7431,9.8159,14.3817,-0.4456,-0.30274,-5.1654,-9.998,-4.4675,-6.2811,1.4569,2.4681,-4.1673,
7.8332,15.9201,-58.2554,8.0219,7.493,5.125,2.3663,-1.2403,-8.193,-1.0662,-5.6635,-1.2818,-0.81327,1.6261,
5.6765,11.3499,-55.001,4.8895,6.8025,7.951,2.4657,-0.44249,-1.6759,3.0956,-8.9386,-5.7842,-5.344,-4.497,
1.9614,1.5094,-58.4499,3.6318,4.4657,-0.72126,-0.57473,-1.8627,0.35285,-4.8034,-16.1155,-0.13494,-0.68526,-6.1554,
2.8078,-0.026947,-58.799,7.7524,-2.0686,2.6962,3.7983,5.4802,-3.0425,-12.2277,-16.1125,5.176,8.9971,6.7472,
6.4955,5.2773,-54.307,7.2875,2.8758,8.8012,6.9446,10.4538,0.0323,-7.156,-1.1664,-0.91934,8.9394,10.6809,
5.1419,3.9964,-56.8332,1.5476,15.2365,-1.8498,7.0099,2.5957,2.9224,-2.3883,8.5445,-9.0589,1.6541,-4.0599,
6.7614,4.7207,-57.7617,9.1673,11.43,-3.6672,10.4459,2.9221,6.6037,1.6116,8.9959,-1.7667,7.8216,-16.7113,
5.3918,3.4733,-60.0806,12.4737,-3.3558,0.40922,5.4804,4.675,9.0995,-0.89521,3.1535,1.7138,11.2087,-11.8522,
11.0939,15.0753,-61.5374,13.8949,7.8126,3.0362,5.8749,3.6716,13.1333,-1.0825,5.6159,-3.9327,7.8851,-9.9358,
14.5256,21.1602,-68.2095,8.9634,17.7077,-5.1002,-0.98552,-6.4306,-1.7547,-5.5973,-8.4599,-12.1328,-3.9162,-15.8476,
26.1875,27.1219,-64.5989,9.8718,12.3069,-3.3479,-2.3722,-6.0448,-15.7494,0.041221,-18.5571,-3.2097,-2.7174,-15.3786,
26.0625,32.7249,-62.1692,10.2438,9.6403,-4.5933,1.6265,-4.7182,-14.3225,-1.4075,-13.1054,1.3212,-4.4825,-14.9379,
12.2065,29.5564,-72.5391,4.5673,18.944,-8.4148,2.2516,-10.9429,-12.2581,-11.2052,-10.1496,-4.7838,-9.7569,-11.3903,
12.197,21.2755,-74.3327,3.5703,20.9409,-7.6689,6.2143,-10.5272,-13.2098,-4.9888,-10.2636,-6.666,-7.0024,-6.6095,
13.3934,8.9118,-65.5345,1.4279,9.5611,-12.0295,6.3234,-7.0036,-13.8635,0.13075,-12.0583,-13.0149,-2.7258,-13.4438,
15.4821,9.8231,-61.6022,1.3425,10.4334,-7.9331,5.9442,-2.7267,-4.3544,-1.3231,-6.032,-9.3413,5.6326,-13.1193,
11.9018,9.4749,-72.006,-3.3176,12.9411,-6.734,1.9719,-1.3581,-5.7806,-1.003,-1.5729,-4.2013,4.5716,-14.5011,
3.4752,7.4604,-79.3755,-6.4932,13.6107,-6.3301,5.2283,-0.31248,-4.4696,3.8777,6.7164,-2.0212,6.2257,-18.9337,
1.3382,9.905,-72.6846,-2.7289,14.2401,-2.5757,10.217,1.1528,3.9935,1.2351,9.6881,2.4386,12.1189,-12.0131,
6.0786,7.8645,-74.59,-4.4934,13.3857,-3.3854,4.3013,0.6012,-2.5126,-3.6597,-3.9086,1.3279,5.6067,-4.0614,
4.2677,2.09,-81.6842,-5.1881,5.8336,-8.9674,1.1507,-2.3274,-9.1108,2.8264,-7.5309,-2.1262,-0.9962,1.0025,
1.1193,1.0005,-77.7473,2.8362,-4.6395,-6.9828,-0.84627,-3.6338,-4.7075,6.9953,0.63392,7.6426,1.9559,5.2809,
2.4982,2.3865,-76.4567,1.22,-5.8072,-2.2253,-6.5798,-5.8256,-6.8354,-0.65498,-3.2603,15.379,-1.0538,3.518,
3.3124,4.6536,-83.4382,-5.12,-3.0484,-2.5739,-10.0417,-6.4402,-14.1383,-3.508,-10.2957,6.7437,-7.7392,3.3067,
3.3544,3.6513,-85.9039,-5.054,-7.445,-2.1788,-7.7522,-0.51041,-10.1568,1.2816,-6.5447,0.79522,-4.624,8.6517,
2.1893,-2.8343,-82.196,-5.2327,-7.9622,-0.60179,-1.9844,5.3048,-0.87025,4.5791,0.59686,7.014,1.9204,5.7225,
0.61187,-5.0746,-79.1926,-2.9907,2.6382,-1.0478,6.8115,5.9506,3.5205,8.6429,8.7555,14.3062,13.8565,-2.8158,
-2.0759,-6.4574,-84.8045,-1.606,2.7214,-3.1537,4.2337,0.53235,-0.78807,4.0275,10.8817,8.3866,12.7841,-5.7799,
1.9048,3.0894,-85.501,1.865,-1.2985,0.40977,-2.769,3.8746,1.6696,0.41112,9.2647,1.1343,-1.9624,-1.0946,
4.9238,9.8936,-88.3249,6.3322,-0.97942,-1.3018,-3.8079,4.3653,0.36434,3.5197,1.7192,-3.9953,-9.3165,-3.6802,
0.29001,6.8894,-96.0413,4.9879,-3.8132,-4.1167,-2.6156,-1.1997,-7.3708,3.3085,-5.1328,0.10085,-8.2758,-3.9418,
-7.199,5.7534,-96.7861,-0.37233,-9.1278,4.5667,-5.5919,-2.3324,-11.99,-5.3259,-8.922,3.7105,-11.8764,3.7668,
-7.0085,6.1311,-94.5943,-1.0733,-3.0369,9.3539,-3.5692,-0.023259,-13.9217,-11.0319,-11.5204,-4.9483,-5.6202,8.12,
3.0532,-0.021583,-97.1136,-1.973,5.8226,-0.84807,-1.909,-3.3961,-16.4608,-12.7803,-12.7571,-12.3644,0.98378,3.2947,
6.9674,-1.2251,-95.8661,-1.6137,8.1243,-2.9663,-2.9993,-3.9157,-11.3756,-4.5417,-5.484,-1.2582,-1.2444,3.82,
-3.5738,-5.4902,-98.3091,-2.9629,2.8164,0.58586,-3.3015,-3.6805,-3.4624,3.9257,3.04,6.5298,2.6864,6.4831,
-4.5642,-9.74,-103.2568,-0.13357,-0.0036862,0.30974,3.8865,2.0839,-3.4957,3.9312,6.9549,8.7896,11.4433,11.6377,
1.494,-5.7814,-102.3638,3.2487,3.3708,0.77332,9.92,7.2613,-4.7322,2.2493,2.6815,14.5289,11.7208,12.8678,
-1.2465,-4.2295,-100.8015,-0.079513,3.8916,0.0037883,6.1911,-1.6103,-3.243,1.8731,-2.5411,8.5958,8.8486,1.7317,
0.27411,-3.4938,-97.6459,6.6737,7.9965,2.8956,9.1941,0.41454,-2.0845,3.6889,8.6984,-2.5253,11.6917,-1.2647,
1.222,-1.8379,-101.4277,11.5759,5.1066,1.2761,8.6425,5.2104,-6.7797,1.5394,14.4434,-4.7839,9.5444,0.2574,
0.18434,2.1288,-102.5733,10.8814,3.3539,-0.24674,-0.5532,0.55898,-2.5168,1.447,10.2024,4.6622,8.0074,-1.6862,
-1.5137,1.2779,-103.4085,8.0591,2.4295,1.4551,-4.1352,-3.5717,2.214,1.6014,10.7953,4.1412,6.3219,-3.7545,
1.2282,2.4065,-104.1939,8.2989,2.5247,4.0193,5.031,-0.70629,-3.4627,-1.6282,12.7987,-5.5072,6.1835,-4.734,
3.8058,7.8055,-104.45,9.488,6.9528,0.1625,7.38,-0.90511,-11.2089,-2.7355,3.1129,-3.9717,7.0176,-6.6194,
0.68519,5.4088,-110.7162,3.1339,3.1614,-8.5241,-4.1498,-4.707,-12.4646,-1.6073,-5.2688,-0.3592,2.258,0.044538,
3.2954,-0.45913,-110.0986,0.77692,-5.4642,-7.2895,-3.6596,-4.6657,-6.1728,-1.2697,-2.7833,0.38548,-1.9751,4.6214,
15.8719,1.7378,-97.9493,10.1301,0.88942,3.5119,5.9597,1.1581,6.0079,0.97543,8.2298,10.7264,5.1335,0.72845,
16.1247,-0.53585,-102.4364,9.7635,3.4874,0.64989,-5.2439,0.36544,9.2626,-6.0727,6.5309,11.7703,5.0663,-0.038387,
1.0572,-7.0114,-110.3902,4.5981,-6.1221,-6.3787,-12.8832,-1.8259,12.8044,-14.1443,0.11328,0.7,-1.7454,6.4716,
-9.7318,-3.2165,-113.5285,8.1784,-7.2008,2.1989,0.42303,2.1403,23.6051,-8.9571,3.9631,-0.78849,3.1798,17.1708,
-6.0144,-5.6746,-113.7062,4.5547,-2.6714,0.86169,2.0853,-3.5317,21.4659,-10.1069,2.52,0.46412,1.7842,16.8634,
0.85394,-9.9134,-117.7301,-0.78028,-0.34196,-11.9645,-6.9579,-9.3454,22.3471,-13.5978,5.5023,-3.6611,-3.3846,14.1644,
0.32077,-2.5697,-117.4147,0.23087,3.053,-9.3179,-5.0941,-6.3745,26.7913,-8.9256,4.6902,-10.6723,4.0493,20.5454,
-4.0368,3.3686,-114.7086,-1.2292,2.3879,2.8103,-3.8246,-7.9203,20.3631,-9.8363,-9.6912,-10.0319,5.2526,26.0616,
-0.1794,1.4795,-112.4056,-3.3249,-5.7093,6.2569,-5.7645,-8.6501,24.2028,-14.3076,-13.569,-5.3324,-6.8729,20.4003,
0.55449,2.5958,-115.0611,-1.9203,-10.4282,2.7482,-6.1413,-4.9978,29.7403,-14.1722,-7.211,-13.9308,-10.5581,10.7404,
-2.3711,5.3323,-115.3885,1.5691,-7.8746,-1.2733,-8.1837,-2.77,20.2428,-8.5014,-5.8147,-14.541,-2.694,15.8803,
0.66349,0.67429,-110.3931,2.9215,-7.8838,-5.0531,-12.9946,-2.1216,14.2082,-2.2065,-5.9475,0.31101,-2.0497,27.4612,
2.0699,1.5977,-113.8929,1.7823,-15.1236,-0.41157,-18,-3.9225,11.4276,-7.3768,-6.555,0.77429,-8.6756,29.6699,
1.4636,15.6018,-119.5926,4.5672,-16.1446,13.7131,-16.4378,-0.79489,11.2236,-8.3807,-3.2694,-1.6825,-11.5298,33.6741,
-5.3731,18.4016,-117.7197,7.6676,-18.5503,22.4108,-15.9335,4.0735,12.9603,-2.0932,-5.4834,1.7929,-14.2122,31.1717,
-7.943,8.6207,-114.0307,6.2435,-23.7038,14.3175,-12.0852,0.45488,10.7367,-1.9674,-14.7953,-1.207,-9.0207,15.2014,
-4.5739,8.1034,-118.758,-0.39766,-17.9431,10.0845,-8.9499,-6.3213,4.3083,-8.1159,-19.21,-3.5447,-4.6231,1.3948,
-2.6125,10.7505,-121.9966,-2.0608,-7.4667,11.1664,-6.2435,-3.7727,0.4342,-7.3882,-15.4061,-3.5732,-6.0332,7.3365,
-1.2505,11.3103,-118.2925,1.6778,-3.8852,14.5933,-5.146,1.5149,-0.79715,-3.3295,-12.3128,-5.046,-4.4659,11.9575,
0.51156,13.7654,-113.3641,4.2285,-3.8933,14.4408,-7.0067,1.6652,-2.4363,0.48594,-12.7791,-4.0201,-2.5109,-0.56986,
1.9271,14.8677,-113.7929,6.3853,-0.76718,12.1286,-4.6576,0.60145,-3.7364,5.7594,-10.5661,0.077906,-0.91401,-1.4995,
-2.0449,11.565,-118.5347,1.6634,1.689,12.8471,-0.52222,1.0473,-3.9941,3.4852,-3.1835,2.001,0.1047,12.6904,
-2.6453,9.666,-119.3763,-2.0516,-1.5456,13.7633,-4.588,0.74326,-4.4776,-5.6417,1.1047,2.604,-4.4811,15.4235,
4.9852,13.6654,-115.3473,2.6508,-5.0683,16.5529,-13.7127,2.8678,-6.3786,-7.4724,0.3155,7.5095,-5.4171,11.8465,
6.1323,14.2917,-115.657,2.0098,-9.5849,18.4518,-14.3362,0.76756,-10.8161,-2.6857,-4.5241,9.951,-4.1282,10.6538,
1.908,9.5783,-120.2868,-1.4847,-9.9737,14.4526,-9.6197,-7.9551,-14.5055,5.1886,-11.0011,8.8724,-13.0391,7.6049,
-0.13488,1.2906,-121.7467,-3.3241,-3.5909,7.3187,-6.6321,-11.8164,-12.6711,8.7335,-14.1977,3.5191,-15.1495,-2.975,
1.3195,-3.6076,-117.3342,-3.1246,-1.4473,4.9514,-0.93156,-5.3228,-4.198,9.6557,-4.6687,-1.9946,-3.1533,-12.4374,
2.4454,0.22453,-112.4633,-1.7321,-0.15491,8.27,5.1497,4.3963,-1.2948,7.3894,4.5292,-3.08,6.9181,-10.4861,
2.7808,1.1747,-111.5003,-0.18214,7.085,8.7374,4.3585,7.5068,-1.6993,6.4634,1.8471,-4.3413,5.057,-13.2312,
1.4089,0.38154,-113.7279,1.9982,4.0086,4.116,-1.9283,1.031,0.57206,8.245,1.4956,-5.7678,3.0666,-22.8014,
3.9757,6.8664,-112.93,4.5296,-5.1498,3.6279,-0.12562,-3.1284,-5.97,4.617,2.129,-5.6629,6.0158,-11.5512,
7.1116,5.0081,-114.831,1.8477,-6.2871,-0.92811,-2.0458,-6.7971,-19.7118,-6.7468,-11.9781,-5.3231,-2.5398,-6.0374,
8.3721,1.0922,-115.413,1.0135,-4.2226,-3.0416,-6.9847,-7.1122,-25.8806,-5.1371,-22.1059,3.4319,-0.21828,-17.0038,
7.8696,3.919,-108.4882,3.363,-4.9333,5.8178,-8.4941,1.5095,-11.7941,1.9198,-16.9229,10.939,10.3999,-14.0551,
4.5051,2.7197,-109.6917,0.26896,4.0395,6.4328,-5.5741,2.865,-9.1585,-4.9441,-8.6769,-1.7687,5.9193,-9.8376,
4.9577,-1.5408,-111.5461,-1.9163,9.8227,0.50323,4.1604,-2.3686,-3.5473,-2.4783,4.136,-8.17,16.4104,-17.2011,
-0.88315,-7.9561,-112.8073,-3.4888,-4.8667,-4.5889,-4.0432,-3.9139,-3.0937,8.0345,6.5391,-2.1364,29.5257,-17.8565,
-6.3738,-8.684,-115.9208,-1.1103,-18.4335,-0.21573,-17.057,6.2033,-7.9693,8.7577,5.4239,3.0534,41.8542,-5.4564,
5.0957,-4.7887,-101.7349,1.8486,-3.2275,4.1358,-11.6951,7.2771,-1.2249,4.8576,9.9189,-0.02206,50.1888,-10.4319,
15.8771,-5.9472,-88.3998,-0.19006,9.3792,-4.3071,-1.3524,-5.6925,4.1513,2.6384,1.6108,-12.0718,57.3008,-23.906,
7.2115,-6.0725,-97.1958,-3.5533,22.7955,-9.3515,3.0669,-4.3873,-2.8465,5.8539,-0.41404,-7.9738,67.9627,-22.3512,
-3.8262,-6.6723,-105.464,-4.3042,35.5278,-9.2726,5.7756,-0.74943,-7.0142,6.4672,2.985,5.5203,77.985,-7.5125,
-1.9092,-7.9589,-113.2362,-1.3947,31.5886,-7.9931,10.9724,-5.7659,1.3606,2.4635,-3.7018,2.5378,87.4059,-13.0875,
1.3386,-7.7226,-109.937,-2.516,21.7393,-8.2367,13.9297,-4.2149,7.3047,-0.33517,-3.2385,-4.1222,96.2615,-15.9175,
7.0429,-7.2592,-103.8229,-2.3651,21.8812,-9.6707,4.8992,2.7869,7.3484,3.0589,7.0792,-2.4286,104.5858,-8.2135,
13.8511,-10.1981,-97.5935,-3.187,6.4684,-9.0904,-6.4819,-1.7191,4.9793,7.6961,6.172,-1.801,112.4107,-10.1313,
7.2353,-9.1041,-105.7174,-7.3348,9.0928,-8.0628,6.4398,-5.9545,-0.62235,5.3059,0.49931,2.1637,118.4403,-10.9695,
-3.5627,-8.7988,-111.6667,-5.2075,22.6472,-5.8918,16.4177,-0.053608,-3.2361,-1.5199,-2.1822,11.9158,125.4338,-4.2857,
-1.662,-13.8143,-104.2435,-0.79748,23.5785,-6.7434,1.3327,-0.77306,0.091781,-2.6338,-2.7742,6.1394,132.0078,-9.572,
10.0069,-5.2731,-99.9174,5.035,15.8968,-1.5185,-8.5088,-2.6553,3.9422,5.719,7.9973,-2.906,132.5233,-8.0338,
8.6836,-1.8232,-106.2146,0.6355,17.5946,-4.0785,6.1018,-3.7008,-1.3556,2.7243,6.7946,-2.9726,122.4027,-6.3465,
3.5828,-3.4011,-104.9032,0.83834,13.8873,-5.521,0.7947,3.0287,2.3412,2.3198,-0.60295,2.2674,111.4431,-7.171,
-1.4524,-3.6789,-112.709,1.7524,10.644,-2.7796,-13.353,1.4007,1.7183,6.037,-1.0489,0.20316,118.8565,-5.7764,
0.32175,-2.7351,-120.0464,-1.0041,16.0311,-2.3717,-13.6366,-1.8166,-2.4819,7.8442,1.6656,-0.050228,125.8251,-3.2609,
-0.90216,-7.6324,-124.1716,-5.5234,7.5977,-9.7009,-3.4182,-2.4303,-5.9482,4.2403,-2.532,0.67592,125.2655,-11.5007,
-2.5355,-3.5593,-117.9266,-3.9869,5.4544,-7.4319,-10.2032,0.84834,-2.4585,6.6372,4.6096,6.1787,112.2057,-8.6417,
-7.4448,-2.1407,-124.951,-5.4351,15.9731,-0.47826,-12.7243,-5.2279,-6.4081,5.5158,7.4663,7.9774,119.5734,-4.0261,
-5.7931,-5.6274,-128.4207,-5.8317,14.774,-0.20883,-14.6121,-6.1193,-10.6031,4.4618,8.7058,4.8474,126.499,-10.7742,
-3.7582,-4.0845,-118.5461,-6.6871,7.8615,-2.3655,-13.9764,-0.2085,-8.2797,1.543,18.5473,4.7976,108.3042,-12.2969,
-5.4607,0.016757,-119.1461,-8.2138,9.3183,0.66921,-6.3887,-3.0883,-8.2651,-4.3344,15.9884,5.9562,105.6626,-11.5588,
-2.4822,-1.1893,-118.5053,-6.5159,6.1079,-0.57646,-7.6928,-7.9649,-8.9742,-2.3874,0.92911,0.054983,113.0609,-10.1422,
4.1747,1.0512,-107.2974,2.3107,12.2493,-0.30045,-8.9184,-3.3892,-8.6768,2.3356,-2.8625,-2.1175,107.0006,-2.5438,
-1.6199,-0.69909,-107.8494,3.8593,7.4166,0.92241,-9.1067,-0.53474,-10.8077,-5.2763,3.8167,-0.3032,91.6621,-4.0788,
-1.2815,-0.41595,-104.9938,5.7971,-7.1284,7.8567,-7.3548,6.0051,-2.6874,0.58364,12.506,9.1148,100.2623,4.1199,
1.6879,-6.6575,-99.6581,2.0748,-15.4981,-2.2557,-9.3238,1.7884,-3.4901,5.3693,3.0785,-0.10876,99.6702,3.3908,
8.0941,-8.4274,-99.2222,1.2274,-0.4682,-12.0023,5.3356,-3.3806,-3.0397,9.1445,4.0991,-7.574,85.2538,-4.7664,
2.5468,-12.5015,-107.3689,-3.426,13.6599,-18.272,11.6439,-7.2751,-2.1344,7.3906,11.8069,-5.9148,74.1131,-10.0243,
4.8043,-13.1975,-101.5294,-0.81004,21.2764,-19.1039,-0.14222,-5.3926,-1.042,5.0192,9.1705,-2.1852,72.5586,-2.192,
8.1317,-18.4312,-95.1967,-0.5207,13.0097,-21.0909,0.10751,-7.238,-3.1489,1.1028,-2.2262,-6.1517,63.6255,4.9292,
0.89492,-23.1099,-100.5719,-9.1661,4.0345,-25.1281,1.5473,-7.2856,-1.5137,2.0005,-2.5746,-15.4235,45.708,7.044,
1.0824,-14.7337,-97.1891,-8.8573,2.1049,-19.523,1.6952,-1.7875,2.6745,7.4239,3.6055,-11.847,28.8655,3.97,
7.2842,-12.4036,-94.732,-4.9517,2.4608,-16.9054,-1.7807,-6.9827,-4.7168,1.1941,-4.3236,-4.3873,16.0464,3.7316,
5.6419,-10.4543,-94.5917,-2.9673,3.5184,-17.0964,7.7261,-6.8047,-9.4953,0.88148,-10.5719,-4.8474,11.9501,17.6077,
-5.0607,-6.2114,-91.0853,-8.3327,8.3692,-14.3831,17.1447,1.5576,-6.7562,4.4442,-10.1784,-10.0997,1.8333,30.6513,
-4.7571,-4.8746,-88.9944,-7.8327,13.6517,-11.1098,12.7416,4.8386,-3.9404,1.767,-5.2293,-2.7451,-1.6507,41.5869,
-2.5432,-8.9207,-94.7422,-2.0603,6.5654,-17.1921,3.7822,1.656,-13.3452,-7.0159,-4.9158,-0.17047,-4.9263,44.3941,
-0.46269,-5.011,-90.0216,-1.4546,3.2796,-15.6784,4.5193,1.5564,-14.4727,-3.7026,-0.2823,-4.9803,-18.7307,55.7099,
-1.399,-5.6747,-85.1027,-6.1878,5.4927,-10.3994,3.766,-7.2139,-5.8916,2.7863,4.5551,-3.2357,-31.7069,55.7416,
-5.1715,-11.1188,-89.6375,-5.3346,4.1988,-13.1499,2.0938,-6.781,-4.092,0.69043,1.8715,5.1534,-34.8662,57.2173,
-5.8253,-4.1844,-87.6332,-4.0499,2.5013,-12.8426,6.7891,2.3032,-11.5591,-1.7609,-2.097,3.8801,-32.292,67.8843,
-3.0656,2.3331,-79.4832,-2.8431,4.2795,-9.18,7.3456,-0.72755,-7.0091,-0.20898,1.8852,-4.0655,-43.8519,77.9112,
-1.1945,-5.7611,-77.8474,0.46054,7.1557,-11.2805,4.2538,-8.1557,1.3652,2.9366,0.56681,-12.2574,-45.8005,65.0421,
-3.5332,-15.5383,-82.8178,-3.9052,1.9059,-21.6909,1.1063,-6.2203,-3.5372,1.3144,-11.5183,-22.1271,-41.606,47.0396,
-1.1515,-6.6523,-80.0179,-4.8762,-2.3058,-21.1123,1.2809,2.1066,-5.9763,0.99453,-10.5862,-17.6662,-50.9202,58.3172,
1.8098,2.9059,-76.6628,-1.2094,-4.5778,-14.061,3.132,-0.43013,-10.9204,-2.4394,-5.6125,-10.3395,-61.965,68.9181,
8.6911,10.6853,-73.7503,4.8892,3.651,-5.2634,11.3802,-4.9836,-16.2907,-8.8007,-3.5885,-5.1396,-61.2596,77.1958,
5.0362,9.3213,-74.8689,-1.9121,2.7086,-8.5632,8.0458,-3.9617,-18.9287,-15.2625,-9.8812,-7.9647,-53.0048,86.3024,
-3.7021,9.003,-74.9563,-3.4846,-5.4081,-12.629,0.091266,8.0861,-16.106,-12.1776,-10.4933,-7.2458,-63.9245,95.2243,
-4.4441,9.4269,-74.7974,-3.7577,-9.9036,-8.0146,-4.2523,10.4937,-16.1035,-10.9648,-9.8637,-3.4366,-74.189,103.6108,
-2.7314,7.8972,-71.7556,-3.0501,-9.3096,-8.4981,-1.1049,3.115,-5.0141,-9.3428,-7.3437,0.14379,-83.235,111.4942,
-3.7724,8.1463,-64.7992,7.0149,-8.5101,-16.4241,1.6125,4.6153,9.3867,0.13558,0.5687,6.6429,-78.4819,118.9045,
-5.9565,4.7653,-64.2853,4.184,-11.8558,-19.2949,1.9978,5.3028,20.0311,2.5377,3.9089,10.5827,-80.0398,125.8702,
-8.4914,-1.3052,-65.7309,-4.262,-11.1444,-18.6194,5.7343,3.0565,25.096,-1.9529,7.0488,8.0196,-81.504,132.418,
-10.633,-8.2168,-63.4742,-2.3191,-8.3066,-24.9738,8.5238,5.0422,37.6902,1.7797,15.5437,4.8873,-87.46,138.5729,
-9.272,-10.8571,-57.9787,1.9176,-9.4953,-31.4294,8.7351,1.6061,45.9133,4.3241,14.8522,3.8708,-91.6125,141.4665,
-6.3053,-7.7953,-56.4279,2.2847,-8.9256,-29.0615,8.2112,-1.3821,41.2305,2.6186,6.2483,6.0489,-83.7054,135.3889,
-10.5067,-6.1224,-58.1038,0.94218,-7.1849,-27.5589,8.4418,-0.57639,38.9975,2.2204,4.1863,4.4808,-80.3699,140.5218,
-7.9479,-1.4167,-52.6895,6.6703,-7.718,-24.9412,12.7557,1.3865,43.4062,3.5334,8.2735,3.7299,-82.7785,146.1905,
-4.8199,-5.9111,-48.323,3.6191,-7.9779,-30.9164,12.2314,-0.86574,42.4892,4.0444,8.5001,4.2294,-79.9813,143.8061,
-11.7613,-19.6564,-53.6183,-4.7932,-10.3915,-43.1614,2.8207,-5.1523,36.0837,3.8017,11.8465,4.4575,-81.9311,121.0777,
-9.3685,-14.7412,-51.6064,-0.89005,-17.2397,-32.9795,-0.48218,0.21836,30.7851,3.3325,10.8947,4.4312,-85.451,116.103,
-3.504,0.24325,-45.6177,6.8761,-19.5798,-16.9008,6.7776,5.9898,30.8662,4.5788,5.4205,2.719,-78.3957,123.2368,
-12.2114,9.9902,-46.014,5.7403,-22.9844,-2.2688,1.3094,8.2817,24.435,4.063,2.444,2.797,-80.6818,113.0709,
-14.8533,8.4266,-44.2174,6.8423,-26.9081,-1.6506,-6.4819,12.6051,16.7021,5.7476,2.7795,9.8599,-86.9282,97.6097,
-8.9007,13.4646,-43.2516,3.7802,-30.8372,3.5099,-11.1546,2.9308,9.192,1.7873,-2.449,4.2066,-85.8101,87.1734,
-3.064,14.5852,-38.728,6.9281,-25.6126,1.8533,-7.5931,-1.1012,8.6407,3.1261,-4.7122,2.0263,-77.2868,80.015,
-4.0854,10.5766,-35.1995,10.6093,-16.1221,1.0187,2.7445,7.8824,4.0245,0.76935,-0.33232,12.7505,-74.337,70.6344,
-2.635,10.6651,-30.4362,7.8038,-7.6829,10.3578,5.7131,8.1326,-0.31414,6.0079e-05,1.3751,17.0474,-68.6715,60.3705,
-5.6104,8.338,-25.4768,4.684,-12.2836,7.567,-5.9579,-1.7553,-2.9468,1.6873,-5.6973,3.2501,-61.9001,48.7946,
-7.9249,9.0427,-25.6352,4.6442,-20.4642,1.5696,-6.3231,1.4832,-5.4209,0.86292,-8.4887,1.85,-62.7654,44.6618,
