"AF3","AF4","F3","F4","F7","F8","FC5","FC6","O1","O2","P7","P8","T7","T8",
-124.6101,27.7181,4.0974,-4.0974,-41.2154,44.5899,7.9542,-4.5793,-8.4357,14.2207,-8.9176,14.7026,-8.4357,29.6463,
-113.2774,25.0904,2.4055,-2.4055,-38.2608,41.4323,14.2252,-11.0537,-14.6787,8.5465,-15.1317,17.1947,-7.9298,24.4928,
-99.2499,24.0676,4.6715,-0.33273,-33.0724,39.9105,11.4437,-3.1594,-8.4951,-0.64313,-8.439,20.5016,-6.9718,29.29,
-104.3821,17.8026,4.391,-2.2412,-35.9085,27.3927,0.63394,-3.452,-5.5755,2.2877,-6.4866,13.4867,-9.9282,17.4094,
-108.4833,13.6012,0.99427,-2.3479,-41.708,21.6516,2.2829,-7.8244,0.3029,16.2505,-6.8205,15.3288,-7.645,12.2678,
-101.0102,10.8569,-7.7425,-3.1709,-44.9903,22.7626,1.664,-8.3192,6.0693,20.2166,-4.0012,25.0144,-5.2581,23.1009,
-93.7443,11.893,-9.4469,-0.32933,-34.8186,22.6024,-1.0872,-2.7582,4.5001,16.3523,-1.5917,23.2723,-6.6297,27.2582,
-86.9143,12.8666,-1.8902,-0.068602,-23.3295,22.4515,5.486,1.5047,2.5429,13.6844,1.1553,13.9222,0.27561,21.5258,
-80.4946,11.8534,-3.4642,-0.30568,-24.5811,19.8989,6.3619,-0.755,-2.1892,7.8014,-0.60144,6.0972,4.3567,16.6186,
-70.1214,10.9013,-1.0872,0.43602,-20.4551,17.9821,3.8106,2.9057,-4.709,2.7536,-1.2883,1.6336,-0.0025581,18.2726,
-65.1909,7.5959,1.1474,-2.7239,-15.1307,14.2518,1.413,1.5263,-7.5602,-5.3651,-4.3447,-4.9721,-3.1357,11.6324,
-58.8691,10.0326,-0.84963,-1.1137,-15.1867,17.7355,1.8102,-3.8675,-7.588,-4.5613,-2.1553,1.1112,4.2833,7.0785,
-54.855,8.4663,-1.763,-4.4213,-17.65,16.189,0.73768,-3.6359,-4.2407,1.497,0.86604,11.6494,4.9906,10.9921,
-54.6968,6.2711,1.4763,-2.4688,-17.3139,5.8181,1.8987,1.162,-2.299,0.68426,2.5013,10.2275,-1.3343,19.2507,
-50.4511,3.4845,1.8699,0.089195,-17.7211,2.5763,1.7846,-3.2462,-7.4635,-0.32089,1.3871,6.2397,-5.1109,12.7932,
-40.9163,3.0347,2.9627,-1.1212,-14.9708,9.4118,0.47242,-4.2565,-3.8824,11.5087,-0.86503,7.5523,-4.0811,4.5536,
-41.8356,1.8885,1.8209,-0.089851,-17.4468,8.3649,-1.4843,-0.14452,0.68908,14.1924,-5.6336,4.2069,-7.6924,5.7268,
-39.8076,-0.15321,0.74753,0.87964,-13.5077,6.8989,3.9076,0.34586,2.5757,14.305,-2.8857,9.2573,-4.3386,7.3112,
-37.9013,0.82031,-1.7074,1.3088,-6.4307,8.8951,6.5652,-2.085,3.8674,12.0004,1.1438,9.1838,0.742,4.4619,
-42.6169,0.047963,-4.2563,0.025201,-6.2856,3.7819,1.5918,-0.75486,4.8404,1.8806,-3.0219,-2.6956,2.3845,6.8456,
-40.783,-3.5706,-3.7602,-5.0378,-2.7752,-2.4708,1.2551,1.4598,1.8987,5.383,0.29265,2.5275,4.8927,10.5324,
-34.9618,-6.2484,-3.0522,-5.2174,-1.1624,-1.8406,4.0723,0.40791,-0.14343,9.3983,1.7209,11.053,5.5635,2.6696,
-35.9976,-5.6327,-1.1821,-4.1817,-2.7801,2.3674,4.0687,-2.7498,-1.3403,-2.4935,-3.4438,-0.93861,4.9885,-1.1062,
-36.0066,-1.6794,2.9862,-1.7612,-2.3724,1.0201,0.2096,-1.3795,-7.7674,-9.8157,-4.442,-12.6924,3.9663,2.0936,
-25.8925,-3.7478,3.048,0.51364,-1.9891,-7.4768,-2.9365,-0.57387,-7.0604,-6.5757,-4.4169,-8.3155,0.59481,-2.6113,
-20.9645,-7.8612,1.4193,-0.4815,-4.7618,-9.9207,-2.2783,-3.9139,3.0042,-7.145,-8.0083,-3.4782,-1.3691,-6.311,
-30.3117,-6.9074,1.8159,0.99388,-9.7789,-5.9508,-3.1057,-3.6788,-0.068348,-4.306,-8.0095,0.5871,-1.2872,-3.04,
-33.5547,-9.6264,3.3941,-2.6812,-9.9151,-6.799,-3.6423,-0.32507,-5.1255,1.496,-1.9853,5.6136,1.9236,1.2397,
-28.6491,-13.3874,0.2982,-3.9663,-7.3918,-13.6217,-1.4958,-3.1979,3.8589,-6.7887,-0.42017,-8.8233,6.1467,2.6114,
-24.0379,-9.6919,-1.1657,5.4304,-1.6459,-14.2509,6.307,-2.0419,9.4117,-8.7917,6.3537,-20.2252,10.116,3.9007,
-26.9339,-12.9665,-8.3264,-0.1978,-5.8857,-9.0573,1.1081,-0.95528,-0.31176,4.269,7.9005,-5.0317,4.2066,-0.18947,
-17.6051,-6.8861,-5.4169,1.2601,-6.9785,3.0555,-1.3688,3.4406,2.1173,17.0281,2.124,9.3702,4.4364,1.7503,
-15.1028,-6.9551,0.69292,0.70233,-5.1138,-0.020088,0.64131,0.8238,1.0262,2.9912,-5.234,-2.8819,1.7598,2.6089,
-14.6785,-7.9836,4.9897,2.5884,0.013738,-5.3215,3.9777,3.6669,-0.48167,-4.4191,2.7928,-8.4935,0.69038,5.8273,
-10.6646,-6.7817,-1.3353,3.6384,-0.71045,-8.6177,3.0157,-1.1329,-0.2118,4.2822,5.2763,-0.030177,0.40799,5.2362,
-7.8553,-7.5798,-5.3523,0.76875,-0.42662,-8.8237,4.5222,-4.1977,4.3804,6.6766,-1.0656,5.5155,5.9269,3.2351,
-6.9018,-8.0894,-0.69282,3.1328,0.080908,-9.7401,3.2866,-3.4639,1.7075,-3.365,-0.037787,-0.60003,6.5356,-0.33348,
-5.0417,-5.6756,4.1692,1.9807,-0.40565,-8.1916,1.1614,-6.6303,-4.1793,-7.9836,4.303,-5.8669,-1.5695,-1.2776,
-9.8009,-6.5403,4.16,-1.2716,-3.9972,-11.7979,3.2604,-4.0638,1.6146,-1.4795,5.7321,-1.8995,-6.0546,3.8608,
-18.1306,-10.2453,2.2232,2.9025,-10.2648,-16.6337,-1.0325,0.7598,5.1331,2.2247,-0.6374,3.2762,-2.5583,2.9058,
-10.7763,-9.1484,3.5359,0.31797,-4.8285,-6.9583,-4.3448,3.1246,-5.7799,-1.283,-5.902,1.6336,1.9337,-2.571,
-1.4526,-5.7072,1.3957,1.7449,3.6562,4.0643,-2.6376,3.4193,-9.7712,-8.4366,-1.2094,-7.1413,2.2998,-4.8266,
-1.6067,-8.0161,-0.37546,7.1841,7.052,3.0973,0.65387,5.383,-0.26756,-8.6536,3.4427,-8.8822,5.2951,-4.7782,
-4.4023,-12.3556,1.5755,2.4145,2.2908,-1.9091,3.5069,4.5779,-2.1795,-9.0984,-1.5843,-9.3134,7.3878,-2.0812,
-4.8615,-9.4453,-0.68843,1.5465,-3.8724,-4.9282,1.1271,1.6519,-6.1463,-4.9373,-4.1406,-7.5495,6.2214,5.0329,
0.974,-10.5656,-2.8161,2.6588,0.93943,-9.2116,-3.52,1.794,-0.23367,-1.9893,2.6156,-3.4809,7.0532,5.9364,
8.1462,-12.3423,1.6912,4.4274,8.1139,-7.695,-0.41676,2.1683,-0.21965,-10.0651,1.0124,-0.37998,5.6656,2.2058,
4.7651,-9.1911,2.0717,5.608,2.8064,-1.9307,5.3933,0.59237,1.2398,-7.533,-1.9404,4.4631,0.50544,4.4836,
-3.9567,-13.219,-5.0425,1.1742,-5.3158,-8.3223,2.4181,-2.0947,4.2984,-0.091172,4.2015,-0.384,-2.176,4.456,
4.7166,-16.0415,0.80391,-0.58371,-2.8274,-12.8849,-0.86021,0.68228,1.3892,-1.7732,4.6726,-6.8687,-0.35842,2.5012,
18.5336,-12.4274,7.7455,-1.2716,1.4396,-4.64,0.3967,-0.081554,1.0649,-1.9077,2.2231,-4.2874,-0.095949,2.1101,
26.4601,-4.6924,2.7011,-0.95433,0.62983,-0.26423,-4.6888,-1.7639,1.7243,5.6785,4.7408,-2.3429,-3.2232,-4.042,
36.4417,-0.072054,3.5033,-2.3433,0.11011,-4.1048,-7.7819,5.0904,2.1028,5.8198,5.4206,-5.5768,-4.958,-3.7995,
46.0653,-0.30916,8.8363,-4.8538,-0.13746,0.23887,-4.6634,6.4722,2.6996,-2.9651,5.8183,-6.9294,-1.5275,4.8641,
46.1937,2.1195,3.0035,-0.7062,-1.5755,3.599,-3.9017,0.29928,-0.35494,0.10486,9.3256,-5.0674,-1.4359,4.5723,
42.9401,3.9208,-3.443,0.7822,0.92941,0.0088304,1.1529,2.6917,0.14898,3.9552,9.7302,-7.6556,-1.8314,2.8519,
43.4972,4.4087,-2.0314,-0.4698,2.0787,-0.71483,1.3249,7.1097,1.3451,-3.7537,5.5312,-9.3652,-2.9271,2.922,
42.0922,3.9029,-0.22251,-1.1647,-0.69734,3.4256,-8.1548,6.4419,-0.90499,-5.6979,1.5836,-2.778,-4.9208,1.0592,
38.1207,2.7049,4.1296,-3.023,-0.17356,2.2558,-8.6299,9.9118,1.0775,8.6233,1.4886,8.9578,-1.733,1.4776,
35.3515,2.5426,2.4356,-2.3593,-0.64508,-2.2179,-3.2914,8.8352,-2.3616,7.624,0.91737,5.0464,-5.0031,-2.467,
40.702,5.0409,0.12006,-3.4232,-3.7396,0.084116,-5.2633,5.1713,-6.3175,-5.1258,0.1392,-2.2465,-8.3185,-5.4527,
38.2601,5.703,4.9333,-1.2894,-6.4075,1.5256,-10.7318,6.7895,-4.01,-3.3722,-1.7971,3.6731,-3.9628,-0.30503,
32.59,4.3965,9.4581,-1.2121,-1.2024,0.4697,-6.7135,6.8645,-1.3593,-0.27734,-2.1717,8.7554,-1.3149,4.052,
35.2141,1.9636,6.7214,-9.0935,7.3054,-0.76332,-1.2494,2.3548,-1.5187,-12.0713,1.0921,-3.0982,-1.9594,0.1935,
34.5475,4.2561,3.4258,-4.2094,4.4568,-3.6098,-5.0306,2.2138,3.3929,-17.6133,2.4726,-17.0123,2.0148,-4.1567,
26.208,3.0369,1.2921,0.38197,-2.0772,-9.1778,-12.4416,-1.2935,4.6356,-9.3257,3.2886,-14.9067,3.3402,-5.3535,
26.5637,-0.038097,3.6245,-2.5337,-0.024571,-8.6274,-3.9825,-0.25182,2.429,0.39269,5.0192,-0.99713,0.72941,-2.6219,
29.5491,-1.2406,-0.20842,-5.9971,-1.7103,-4.0124,0.83618,5.3069,2.0423,1.574,-1.7894,-1.1787,-1.0016,-7.0444,
30.6687,1.2439,-3.088,-7.0831,-3.0535,-1.361,-6.9268,4.9885,5.7766,3.8901,-0.71818,-5.9283,0.98671,-11.9239,
30.5156,3.3384,-0.73354,-2.5607,0.74512,-1.5208,-8.1984,-2.3007,1.3322,5.3439,1.9765,-0.51089,-0.27778,-11.9318,
33.7463,0.0051123,0.51577,-1.6842,3.8334,0.74007,0.24726,3.381,0.52939,8.6387,0.65259,8.9198,-0.019692,-8.5644,
36.5418,1.4506,-2.8896,-4.9576,2.1572,5.034,-0.7319,10.4089,2.9078,6.6741,0.61343,8.8665,0.46342,-8.5329,
33.1445,7.3891,-1.029,-1.0443,4.6793,6.9011,-7.1955,4.7227,-0.88213,0.73007,-1.1106,5.201,-3.1798,-9.7081,
29.2274,5.4997,3.8532,-0.98183,12.5935,7.9331,-3.8715,2.0295,-2.7572,2.1323,-3.4543,8.7456,-3.9531,-8.6435,
30.3662,2.7596,1.6938,-0.92292,12.8022,3.6012,-1.711,6.246,-2.1098,3.4506,-4.6929,0.99002,-4.1979,-10.535,
36.2573,4.0401,5.9307,3.471,15.8902,0.49234,0.32011,9.2455,0.90907,4.6896,1.3731,-8.7101,-0.57176,-10.867,
31.9122,-1.7459,7.744,-1.317,13.7315,-2.6707,1.5057,1.7009,1.5774,2.2391,2.9779,-5.5364,0.18544,-9.4921,
23.0081,-3.3284,-0.1924,-2.9247,3.99,-2.751,-0.75377,-0.08794,2.6881,-1.0283,1.112,-2.0707,-0.54858,-4.3428,
23.0738,-0.23618,-4.5192,0.1428,4.7145,-1.1401,1.702,5.22,3.9731,0.96159,0.56335,-4.3571,-0.033735,2.1843,
24.8227,2.4293,0.81342,2.3036,10.9393,-3.723,1.8407,4.6656,-0.36292,0.6627,-3.568,-5.3007,-2.683,3.7407,
23.0921,2.5243,8.2362,1.4423,11.0061,-0.84831,2.4534,3.1806,-1.0643,-5.8848,-4.0771,-3.7776,-3.2452,7.1314,
18.8143,-0.037066,8.7061,-0.57269,11.3098,-0.31525,5.1984,5.882,2.8562,-6.4958,0.50609,-4.0331,-0.64011,5.2575,
15.2751,0.44686,7.2197,2.8364,12.5592,-8.9732,3.9224,9.8672,0.27447,-2.7318,0.47596,-4.7552,-0.60194,-1.8071,
17.2511,-0.061883,7.7508,2.1838,10.8418,-6.9886,3.6871,4.4549,-1.1883,-6.4243,0.92933,-1.0955,-0.56536,0.22999,
16.698,-0.5401,5.8395,3.0171,8.2631,4.0356,4.9117,-0.15115,1.2932,-9.8952,3.2837,-2.9579,0.43243,3.5902,
5.3318,-0.26673,4.2838,3.077,8.0083,2.5882,2.4478,2.9914,0.49268,-6.6504,1.3995,-5.432,0.64745,-0.24064,
1.6376,-0.25073,6.9193,0.96421,8.0097,-3.3517,-1.0731,7.6326,-0.50121,0.49752,-0.13078,4.5353,2.0549,0.25619,
5.1548,-0.47688,0.96032,3.0757,2.9496,-6.2839,-2.6961,0.18503,0.73439,-4.5938,1.0826,-0.3163,-0.71975,0.48155,
6.7739,0.033896,-2.4711,1.9271,-0.6016,-7.8348,0.84032,-6.0928,5.0289,-9.1386,4.8743,-14.3973,1.2519,1.8991,
5.4034,0.031862,-1.3589,-3.0092,-3.9395,-6.8823,-4.5127,-3.3167,3.2809,-2.8057,2.1712,-9.5566,0.21242,2.2671,
5.5609,-1.8982,-1.7598,-1.8648,-1.2935,-4.5416,-8.5808,2.6665,0.19151,2.1829,2.0409,3.5503,-4.621,0.68485,
11.494,-2.2663,-0.68988,1.1396,4.0868,-4.2691,2.0574,6.3629,4.5183,-4.6966,7.2211,-7.268,0.47693,3.5363,
14.4198,-0.44331,-1.8535,0.83002,-5.0762,-4.2537,4.1034,2.3659,2.0783,-8.5124,4.1365,-14.3035,1.6534,1.1547,
14.5184,1.5115,-3.1886,-4.5224,-3.3254,-0.62451,-2.4098,2.7059,-2.3852,-1.2527,-0.93237,0.65468,-2.3022,-2.771,
12.6835,1.9027,-0.10522,-1.8405,8.4433,-0.58704,-4.6753,13.1488,1.1324,-3.1062,1.5337,0.012751,0.24605,-0.67651,
7.1022,-3.5134,-0.098216,3.0904,-2.186,-7.7824,-3.4307,15.2522,4.9211,-7.2579,2.8882,-12.5213,4.5703,1.7744,
8.604,-6.1953,-1.5388,1.459,-6.8758,-4.9051,-1.7788,7.106,4.6256,-10.1967,1.7508,-9.842,3.3315,3.114,
21.5852,0.44313,3.8559,0.88926,7.6368,0.20967,3.1484,1.3772,1.9381,-21.1543,-0.76462,-14.5539,1.2037,-0.44706,
28.0033,2.3447,9.8916,-2.0562,21.2786,-8.9619,9.7084,-0.63362,-0.10634,-21.3313,-0.71874,-18.5009,1.6134,-4.2766,
17.4048,-5.7499,6.1643,-5.0665,28.6789,-20.7165,5.0283,-2.765,0.62271,-7.7591,1.0114,-10.8836,1.7578,-1.8511,
13.227,-8.056,5.5535,0.7811,19.9683,-19.2326,0.62924,-3.322,2.2726,-7.5345,2.156,-7.0971,3.3391,1.3935,
13.157,-9.2597,4.4976,-1.9166,21.904,-17.3555,0.83268,-7.2198,0.93116,-14.0721,0.33963,-14.1429,0.9698,-1.3415,
10.6801,-6.5351,0.61212,-2.5252,21.7943,-16.0734,1.9878,-5.0996,1.1165,-6.72,-0.40388,-9.6791,0.67042,-1.0202,
16.788,-4.2146,0.57517,-1.4096,17.5944,-14.6268,5.7247,2.437,0.085397,-8.7272,-0.37987,-1.8678,2.0767,-0.9588,
22.7706,1.0995,8.9768,3.7366,15.8158,-11.0977,10.4429,9.2806,-0.16115,-6.9983,0.36628,5.2342,4.1212,-1.1422,
10.799,1.0335,6.51,4.4768,12.4567,-8.0217,0.17534,7.2775,-1.1154,6.437,-2.5482,9.2584,-0.46481,-1.0737,
5.0896,-5.5362,3.95,1.5564,12.9139,-3.4433,-5.861,3.7076,3.0492,6.7735,0.73793,5.0878,0.28621,1.1596,
10.5686,-8.0963,6.6053,6.2835,13.5856,-5.1646,-0.20689,0.59242,-1.4728,-6.6481,-0.27044,-2.9305,0.7512,-0.35596,
14.0321,-3.513,5.0039,8.5583,13.9755,-9.4343,1.0111,4.1725,-5.4816,0.25848,-2.4231,6.1636,-0.49894,3.763,
11.9851,0.31346,-0.35778,2.019,14.8244,-11.0371,-3.6291,2.2352,-1.537,6.7507,-0.59076,15.1936,-0.70974,4.2603,
7.4096,0.2942,-9.4953,3.3441,15.8627,-9.893,-1.0013,-4.1659,-0.96286,-3.7777,-1.5196,4.641,0.77865,-3.2261,
6.7241,-0.44635,-17.3613,9.169,16.5986,-9.0584,7.495,0.18186,0.78214,0.54676,-0.22317,0.7471,4.8293,-0.38101,
0.77678,-4.9991,-24.7555,7.8957,8.1307,-16.4689,3.4296,-0.070252,0.49401,7.0217,0.031418,6.2457,-1.0039,-0.11741,
3.3815,-5.4223,-23.5114,6.6989,6.9197,-16.6858,-1.3557,-2.235,0.70557,9.7336,-0.21166,7.5584,-3.595,-3.7256,
10.6506,-2.9275,-20.8956,6.0562,9.1558,-13.0334,-0.55122,-0.89581,-0.059897,13.7291,-1.404,4.4536,-0.72793,-3.7432,
9.5294,-0.342,-19.1597,9.549,5.7142,-12.7335,1.8922,2.0498,0.90779,10.977,-0.35569,3.7042,-0.68449,0.33753,
2.6907,-7.0699,-19.9388,4.6373,1.0326,-12.9338,-0.14997,-1.4477,0.85333,2.1236,0.14759,2.9995,-1.6077,1.2816,
4.6989,-6.4048,-19.9473,7.0106,3.6222,-13.3626,-0.86387,-0.15551,-0.8851,3.6834,-0.58417,4.9892,1.1403,-1.9288,
11.1654,2.1742,-17.7866,12.3745,8.2251,-12.0789,-0.33011,3.7102,-3.2426,3.9444,-2.9597,0.83344,1.0719,2.0433,
14.3521,3.4903,-15.7549,7.2935,10.1419,-0.74915,1.1362,6.8623,-1.1196,-0.14891,-0.8537,1.7475,3.8998,12.5263,
10.5987,1.8348,-18.1838,5.4099,8.0874,-1.1859,-1.3423,5.4864,-2.9804,-3.5142,-0.32031,2.1248,2.2198,4.5441,
10.4447,4.1349,-14.6826,10.3879,10.9766,-7.3817,-0.29747,8.5317,-2.8016,-2.8214,1.1452,-2.3414,0.64037,-3.9237,
12.2284,0.99447,-11.3918,9.7644,9.8358,-5.9747,0.68447,11.394,-0.70551,5.0609,-0.37003,-0.27252,0.60217,0.65023,
7.6383,-3.8859,-13.1184,6.2865,4.4254,-3.2057,-1.2848,4.9258,-0.66318,6.2035,-1.7936,6.0103,0.083652,1.5751,
4.5287,-2.9296,-12.0901,7.5963,3.4368,-8.5572,-0.96696,1.9789,0.58168,-5.0152,2.4111,1.5521,1.2837,-1.6527,
6.1854,-1.3078,-9.4367,10.5152,4.6766,-17.6845,0.53754,3.7882,0.547,-8.0885,0.82041,-5.7716,1.6888,-1.5533,
14.7321,2.3863,-8.1474,6.2686,7.5293,-11.08,4.1205,4.284,1.7192,-0.61357,-0.43388,0.60048,3.7569,0.70884,
19.8732,8.2687,-7.8995,6.1335,5.3903,-0.53328,0.25783,3.786,-0.071133,-6.1204,-0.16688,-1.6052,-0.083937,0.90728,
23.2606,15.2444,-1.8819,13.2373,8.6823,0.70401,5.786,6.2104,-1.2722,-11.7787,-0.87977,-11.3908,-1.7661,-2.2802,
28.6136,15.2938,-1.7692,5.2124,14.4281,-9.9433,10.7412,0.052956,-2.1599,-8.6616,-4.6836,-12.1534,-3.1062,-13.7128,
40.9968,21.848,0.50607,5.1407,19.106,-10.552,8.4095,-3.5656,1.1032,-7.901,-0.30523,-9.255,-5.5714,-15.5411,
52.637,28.7323,5.2964,5.7965,18.4416,-5.5801,5.9772,-1.4235,-0.40883,-15.1397,1.1593,-13.52,-11.0212,-16.0549,
63.5788,41.1083,9.0762,5.6895,20.9503,0.78003,9.7157,4.6872,-1.5898,-8.6879,-1.5615,-1.8627,-12.5298,-16.2971,
73.8641,52.7418,10.2186,7.0356,26.201,4.3484,7.9277,3.2014,-5.1096,-9.3717,-6.0474,-3.9204,-18.2852,-16.5239,
83.5322,54.1564,11.5339,7.5775,32.8239,1.6776,6.488,1.5628,-5.2852,-22.9094,-5.2024,-17.7851,-21.0448,-17.4609,
92.6203,59.3431,9.6366,9.774,28.6857,1.336,7.7859,4.1206,-3.7628,-31.2958,-3.203,-30.818,-19.5406,-19.5463,
101.043,68.0751,4.9611,7.9827,23.3492,7.7638,2.7395,6.0425,-8.5987,-17.126,-9.5183,-14.869,-22.9479,-9.9378,
96.1853,60.3747,-1.3621,2.4421,21.7068,3.2001,0.40547,3.0289,-17.4828,-12.0011,-18.3477,-10.7228,-30.0072,-2.8341,
92.1014,60.85,-0.55752,6.8748,24.0198,0.83897,9.2992,6.4621,-11.8545,-15.8603,-12.1851,-20.4433,-23.627,-3.8688,
91.637,62.7426,4.5376,2.8474,27.1584,8.2604,9.9466,5.3515,-9.4556,-18.5241,-8.8025,-15.1194,-18.1121,-8.6984,
90.9593,58.9778,5.7114,-1.6625,28.4211,10.6571,3.083,-0.27203,-16.1193,-18.8592,-14.541,-18.5508,-24.7383,-10.5868,
85.7427,55.6801,3.6815,2.0527,24.5463,1.0996,-0.23545,-0.49668,-12.0187,-16.0404,-11.4994,-26.8377,-28.3153,-7.3001,
77.2234,49.447,3.9428,-0.48082,13.4327,-2.823,-4.0779,-2.3953,-7.9233,-19.8984,-9.3634,-29.0841,-27.0985,-7.3442,
75.0004,47.4443,7.0804,0.99451,13.5909,0.72108,-5.2793,-2.7337,-12.2684,-24.4889,-13.6221,-30.7133,-24.9904,-8.3496,
70.5004,51.3461,6.1737,5.7551,14.7036,1.1597,-3.5163,-0.64153,-10.0865,-23.9839,-11.8409,-27.4242,-23.9734,-9.2949,
67.4759,57.6656,9.9008,16.2563,6.3498,6.634,-4.0284,6.869,-4.4194,-16.0371,-6.5509,-22.1636,-23.2577,-8.0141,
68.7297,53.242,14.1273,13.8349,0.66596,9.6102,-5.2328,8.3853,-8.9747,-13.1465,-8.5678,-20.3516,-24.2726,-6.0872,
71.5956,43.5393,14.0023,3.1222,2.7949,10.2386,-5.6419,1.374,-10.6056,-17.4196,-9.2592,-17.9254,-24.5037,-9.8196,
74.2897,44.5424,11.9573,9.4428,0.45854,13.2397,-8.9188,5.8713,-3.4614,-19.0255,-1.2314,-11.3063,-17.0074,-10.9171,
68.868,39.9416,4.9734,6.4661,-11.6205,12.4454,-12.722,9.8573,-2.7717,-13.5452,-0.6756,-7.7354,-14.0588,-7.3701,
63.7721,32.2429,1.3005,-2.5985,-8.5127,10.7348,-8.1023,3.9637,-8.8719,-4.5378,-8.3478,-3.4149,-21.41,-4.9997,
67.8992,26.6927,1.9456,-4.6125,-2.4586,10.8134,-7.3754,4.4486,-8.5808,-4.0248,-10.0164,4.2616,-23.2591,-5.4228,
70.0918,25.5731,0.38261,-6.2639,-9.06,12.5747,-13.6814,11.4125,-0.35321,-2.819,-3.1489,6.898,-14.1508,-3.6512,
64.1995,25.7259,-1.8095,-5.6467,-7.3111,17.8462,-13.5838,11.933,-2.5012,3.3757,-0.79077,4.3154,-11.6145,-1.263,
58.6603,19.1207,-1.46,-8.4413,3.0095,21.3547,-8.1891,10.0118,-12.7154,-1.4061,-4.3587,1.4049,-15.015,-1.4281,
54.6586,16.0455,-0.40827,-2.632,2.3473,21.0375,-4.3235,17.1241,-8.5778,-10.481,-2.1688,-1.5717,-8.3293,-2.3066,
43.4253,6.6466,-0.14281,4.0334,-2.8557,17.1237,-7.1976,20.194,0.85446,-10.5751,5.9151,-7.5029,-2.7683,-2.4091,
34.794,-7.0083,-0.85737,-2.2344,-3.407,17.3018,-9.899,13.4385,5.3827,-2.9509,9.6578,-5.8477,-3.3253,-1.5414,
33.4297,-8.2751,-2.4932,-4.7514,-4.8899,17.9509,-7.6178,9.9811,4.8188,10.4825,5.4629,8.6032,-1.9205,0.23827,
26.362,-9.9479,-4.0306,-6.6357,-7.2478,12.2944,-2.5812,12.0335,6.699,21.182,2.4838,22.187,-0.11829,-2.4274,
15.8625,-12.0024,-3.0656,-6.9607,-8.9823,12.2798,-4.5957,13.9629,9.9123,18.2236,6.9143,15.0712,-0.83432,0.36961,
12.5006,-14.1743,-3.846,-8.4712,-13.2636,13.9532,-13.4786,10.2326,5.9436,7.0073,6.4994,6.4541,-2.712,7.0959,
15.6069,-17.1802,-2.169,-8.4449,-6.6832,12.1517,-7.8496,7.2085,3.6583,9.9613,4.1812,16.1898,0.34278,9.0803,
5.7525,-23.6212,-6.6181,-10.1074,-7.0056,2.9869,-6.6553,0.26803,-1.6224,5.7482,-4.0234,18.8338,-6.6677,-2.3104,
1.5512,-22.2042,1.4915,-10.465,-7.5494,7.6282,-4.8099,3.1447,0.88527,-8.0943,-2.8179,9.9912,-4.8216,-0.72571,
-1.6754,-23.0411,6.9456,-12.0063,-3.4805,8.8577,-7.6548,4.1609,-1.8194,-16.0443,-1.444,-2.9007,0.047473,0.040735,
-3.2621,-23.3454,0.50335,-5.7423,-3.0307,4.7108,-10.3285,6.0808,-5.8076,-0.98161,-4.4904,2.335,2.2138,-2.6128,
-3.7893,-19.2936,0.23218,-2.7467,-13.2132,7.5616,-8.0221,10.7772,-3.7719,12.4539,0.35836,7.7385,4.7321,5.9796,
-8.8648,-20.5468,1.1823,-1.6178,-16.277,8.554,-6.0947,7.2383,2.7207,2.5474,8.5318,-2.367,6.3766,8.5132,
-18.4558,-31.847,-7.5657,-4.4128,-11.9259,2.7381,-4.7647,0.53746,12.1989,9.1439,8.5018,2.1138,9.8503,-3.0844,
-27.4716,-41.9875,-16.2706,-10.4147,-20.8511,-6.585,-12.1914,-0.45888,11.4672,22.6953,5.0994,16.087,6.849,-2.8996,
-28.2334,-39.4683,-10.956,-6.8978,-26.349,-5.708,-12.9061,2.4607,8.8505,18.3201,7.686,21.2673,6.438,11.3744,
-30.1548,-40.7156,-8.6114,-6.243,-20.6707,0.17813,-6.1062,4.9646,9.0428,5.8932,7.9477,8.1811,14.0055,12.2585,
-34.6123,-36.3442,-5.2024,-4.9043,-17.0201,2.5778,-1.4013,9.9692,8.0181,6.0213,7.953,9.1363,18.95,4.7743,
-36.3919,-29.3429,2.8225,-5.5739,-19.3729,-0.95132,-5.1736,7.4428,-1.1396,5.6605,5.5476,14.8551,12.9927,7.8623,
-31.7981,-30.475,3.6172,-3.7934,-16.7649,-2.8227,-4.8634,6.996,-0.58955,-2.3922,-1.052,12.5178,8.8385,9.3185,
-27.4801,-28.1641,1.472,2.7007,-12.3846,2.6493,3.6235,13.8071,10.0511,-1.7667,1.4213,10.8024,14.5751,11.17,
-29.2057,-32.2589,-2.9546,-7.1023,-12.6054,1.5265,1.4779,2.3738,8.4837,12.4393,5.6748,13.5287,13.2182,8.5716,
-31.3097,-36.5903,-6.6337,-12.4608,-12.8134,-3.3858,-4.8777,-6.9276,4.6002,25.793,5.3343,17.5377,9.0511,1.3084,
-34.7338,-31.5024,-8.1639,-6.4105,-12.5265,-4.6284,-5.5489,1.6827,4.3242,20.148,4.5318,12.1466,11.4001,2.1942,
-41.0852,-28.4072,-7.9153,-4.8208,-11.5337,-2.1818,-5.4572,3.2692,0.93152,10.9852,7.3937,9.7308,11.4393,6.6421,
-51.1538,-31.5232,-10.3327,-6.4595,-14.6983,-4.4613,-7.5401,-5.1219,-3.9449,14.6646,5.5035,9.6292,5.4505,-4.8439,
-50.2535,-27.9448,-6.5794,-4.3849,-10.6832,-2.5061,-1.5439,-0.71742,0.38942,15.9541,2.0401,8.8102,11.1488,-5.7583,
-44.8282,-21.4479,2.4924,0.69842,-2.8113,4.3927,7.2254,6.0745,5.1863,9.6942,3.3639,8.2816,20.1208,7.6026,
-53.4669,-30.5246,-2.7186,-1.5124,-9.6323,1.4778,5.5868,1.6125,9.937,3.5692,7.2597,5.1334,15.2984,6.4233,
-58.2126,-35.2011,-8.0991,-2.627,-16.0442,-1.7439,2.1186,-0.65344,20.669,7.9343,17.188,6.0307,16.0677,5.7969,
-58.8175,-30.4377,-8.8186,-4.1563,-12.4302,-3.8086,-4.5167,-5.1937,16.2952,3.8426,16.3974,-2.2851,21.129,7.6185,
-60.1087,-28.6115,-5.397,-10.1739,-2.0435,-0.20567,-0.87124,-3.4359,16.2818,6.5046,13.9678,0.26209,24.2,11.0178,
-64.4559,-32.9203,-9.6525,-11.7327,-9.8746,-5.255,-2.5057,0.38571,17.9564,11.6579,9.0324,7.7182,16.7225,9.1514,
-56.7324,-30.4629,-10.5194,-1.8694,-16.5127,-9.7602,-4.7657,-3.0117,9.166,11.4406,5.1162,8.7016,11.3806,5.2281,
-45.6152,-24.2968,-3.6217,1.1348,-8.2911,-8.6922,3.7149,-5.2415,-1.0249,12.6824,5.7731,11.5535,11.662,0.5761,
-44.3243,-22.8388,-0.99402,2.0313,-10.204,-4.3145,0.11779,-2.0343,-2.4094,14.3318,0.60622,15.6812,7.1057,-2.3508,
-50.5834,-29.4222,-4.5498,-0.26023,-19.9561,-2.8503,-13.9893,-1.1893,4.2426,11.7846,-0.63545,13.535,2.1001,3.8158,
-49.7178,-30.3087,-9.3387,0.47851,-16.5893,-4.8487,-12.0656,-0.39531,7.6032,10.354,7.8386,13.928,9.9276,11.0585,
-46.7345,-27.5256,-9.2601,-0.99623,-10.2916,-3.1118,-6.0388,-3.7458,5.2191,5.3946,6.4042,10.2,13.6705,3.1643,
-47.7866,-23.9461,-2.9201,-3.3468,-8.71,4.788,-6.1586,-3.5208,10.2084,6.517,6.5021,0.91116,13.8143,2.9747,
-52.8736,-23.7146,-5.396,-0.97684,-10.8385,-2.9711,-7.9582,-6.925,10.8011,9.2595,7.3168,-7.0977,13.2265,5.4473,
-41.265,-18.1939,1.4352,2.2153,-0.78817,-5.9264,0.47299,-1.9302,10.394,12.3193,10.0113,-3.5384,16.0483,3.4333,
-31.7995,-13.969,11.2313,-0.56899,0.94612,-3.4014,-1.7243,1.3193,6.6371,3.1443,5.7954,-10.3157,11.4702,-2.3161,
-32.5426,-12.8899,11.7627,1.6343,-6.5825,-4.4026,-6.6825,-1.8933,6.9618,-0.17789,4.7243,-13.7941,11.9868,-0.0079906,
-32.0361,-13.5626,5.7545,-1.356,-7.6335,-7.9946,-3.8712,-3.2258,6.5443,11.8841,3.4772,1.1335,16.0886,-1.9359,
-32.5243,-10.8208,2.9989,-2.7207,-5.7295,-7.9971,-6.5317,-6.4069,-1.0794,11.6532,-2.0343,7.6937,8.3741,-8.0865,
-30.5728,-6.3147,4.2652,-0.14733,-6.3496,-5.5891,-7.5856,-6.5044,0.43163,4.6875,1.9446,1.9294,7.8721,-2.7806,
-33.8001,-7.1412,2.3221,-4.2358,-7.1739,-9.833,-7.8534,-7.319,1.611,6.0935,2.5508,5.911,9.0866,-3.8186,
-41.1719,-1.1693,2.9059,-3.2586,-2.6459,-7.0741,-8.1053,-3.2647,-0.17263,8.3792,-1.6998,8.6901,8.3006,-6.7232,
-39.4247,2.0341,6.8286,-0.89412,-1.764,-1.1058,-5.45,-1.3818,3.4529,1.8507,2.9817,0.21471,11.8997,0.18789,
-41.157,-2.6674,5.6958,3.2571,-11.0584,-11.404,-4.8818,-1.0577,7.8248,2.9447,7.3823,-4.3777,7.5705,2.346,
-46.6411,-6.1224,0.77476,-0.55374,-13.5279,-15.781,-8.2044,-0.75325,4.7042,8.3116,3.324,2.8748,3.5009,-2.3745,
-40.2272,-5.5145,0.48731,-5.0998,-5.2449,-5.4341,-8.9174,-6.7336,0.80655,6.1257,0.47298,8.7279,8.8344,-2.473,
-40.2242,-8.5576,0.94,-2.3837,-13.1249,-11.3751,-5.4898,-6.812,1.2401,8.6502,0.92699,10.1324,4.9299,0.5679,
-46.0054,-11.4189,1.3658,-1.7585,-17.6401,-19.8514,-3.7144,-1.5828,5.5042,5.7209,2.7993,5.6679,4.152,1.0155,
-30.7119,-4.4672,6.1041,5.0955,-2.4817,-6.6092,2.775,-4.8618,9.9947,0.075418,7.934,0.025142,14.0258,3.8471,
-19.228,-10.4655,6.22,-0.99462,11.7672,-11.0331,2.6087,-16.6214,1.2001,-0.41127,0.7093,-5.7607,4.5073,-4.0967,
-15.9051,-11.0428,10.9085,-5.9966,25.1612,-18.8068,7.9958,-10.5625,-0.076766,-0.62756,-1.5024,-3.7278,1.5858,-4.5738,
-13.5048,-5.5593,6.3973,-1.2983,23.5315,-13.8218,9.9264,-4.6263,-1.5186,-13.6051,1.48,-6.3965,11.1319,-1.889,
-12.9355,-7.3954,3.3624,1.4307,22.3601,-11.3052,9.5718,-4.1077,2.1879,-7.7276,7.8992,-0.95146,16.0076,1.8397,
-26.1388,-15.6283,3.6426,-3.9573,10.8956,-20.7503,5.1411,-6.7533,2.0566,4.7876,5.4966,2.4801,9.2625,1.247,
-27.704,-13.4858,5.1113,-4.9252,4.6983,-22.6388,2.1811,-6.5896,3.1381,2.8127,6.854,0.64405,12.3217,3.8237,
-19.775,-10.2663,4.3224,-2.2198,1.5241,-18.3881,0.60418,-2.82,7.7703,0.23403,9.335,3.0158,14.4747,6.0042,
-24.1319,-9.891,-0.034038,-0.39912,-2.1826,-10.7767,5.1474,-4.3373,4.1712,1.4251,2.2677,6.4505,3.2426,1.5468,
-22.2021,-4.4773,2.8601,0.10676,4.2149,0.47475,11.587,-6.0057,-0.41781,0.85762,-0.76089,6.063,-1.2907,3.8641,
-16.7726,-3.9677,8.2321,5.162,6.1312,1.6511,8.2407,-1.548,0.33016,-9.0762,-0.95667,-5.629,3.8484,5.3195,
-14.32,-8.068,9.6663,8.2268,3.8351,0.58817,5.8181,-0.0088853,2.7209,-10.9418,2.4756,-12.0397,6.0276,5.9647,
-18.7632,-12.4046,5.7119,0.98425,2.6411,-1.8573,5.9509,-4.8286,5.9321,0.32002,8.1117,-4.5689,2.7739,7.535,
-23.181,-11.9013,1.754,0.20207,7.0617,-4.8791,2.4606,-6.2263,9.6733,3.4341,8.3477,-3.5716,3.8125,-1.353,
-19.1388,-11.9103,1.8897,3.8054,10.2539,-3.8634,2.072,-2.2373,11.7445,0.09454,7.1239,-2.634,8.1631,-11.6362,
-19.4368,-12.1596,0.33009,1.1669,2.8898,-4.5955,-0.94436,-0.65684,4.7733,2.9814,1.8762,3.7906,3.8169,-13.8301,
-21.886,-8.2968,-0.89478,-1.5544,0.54699,-2.6328,-1.6108,-3.2688,0.87125,8.8283,-2.8159,5.7326,1.4189,-9.3851,
-18.8856,-7.558,-3.0103,-2.6665,1.2375,-2.7158,4.5114,-8.6162,4.4344,9.0215,-2.406,4.6652,3.9849,-7.6167,
-15.8245,-9.997,-5.2402,-1.0602,-5.1037,-7.8555,-1.062,-16.7764,0.31194,3.1775,-5.1541,3.9034,-2.5212,-8.6059,
-10.5365,-8.4331,2.3053,-1.4788,1.9512,-4.0099,0.44779,-16.7339,-4.5273,2.0228,-6.7733,2.7051,0.04046,-8.5717,
-6.2889,-3.3476,3.372,-4.5233,11.7163,-0.63606,10.3031,-15.0067,-5.4607,0.69637,-6.1257,-1.5548,8.4739,-12.155,
-2.0549,3.6022,-1.1686,-4.7338,11.4952,-0.11551,11.6131,-7.3574,-8.5075,2.5828,-8.6502,4.3231,8.4479,-5.1587,
-1.9318,4.3501,0.34751,-7.3421,10.8058,4.2295,9.9522,-0.64922,-7.0329,4.3558,-7.6495,12.7406,4.5663,2.3814,
-7.1184,3.1248,0.32666,-5.9372,6.301,5.9044,1.1604,-8.323,-1.3083,6.0231,-5.7443,12.4585,2.8466,-5.9562,
-4.0402,4.1424,1.5121,-3.4121,4.7174,6.2728,-5.4174,-8.0649,1.9034,7.3487,-5.1584,11.9517,6.7729,-3.4299,
0.5408,2.4478,1.9036,-2.7252,6.3628,3.0041,2.1387,-1.7962,-3.5132,-4.1792,-3.8848,4.004,5.4024,7.3814,
0.74932,5.9163,3.4766,5.874,4.2938,-2.2373,8.0359,-1.9294,1.7588,-10.9183,4.302,-5.1543,4.8373,7.6614,
-3.8752,10.1409,4.473,3.8346,0.90294,-0.89802,-1.846,-7.3574,8.6434,-3.7555,9.5877,-5.5682,6.2345,-0.27029,
-6.294,13.6298,0.10731,-3.8673,1.0897,-0.60317,-10.6533,-9.0852,1.6168,-1.843,2.5045,0.30955,4.6552,-4.8334,
1.5557,23.1763,-0.62249,-2.43,0.78338,-2.2542,-6.3987,-6.8528,0.79694,-1.9734,-4.6356,10.6553,3.1706,-0.92794,
6.524,26.8474,-0.34372,0.84884,-8.6636,-5.252,-6.2557,-9.5751,3.4002,-4.9884,-5.5623,9.2931,1.2931,2.7432,
1.3121,27.1645,-0.32332,3.6902,-14.4105,-11.2036,-7.3264,-10.4467,-2.1062,-12.4021,-1.3724,-3.7982,-0.71245,-2.7238,
1.4741,29.1499,1.3831,3.2281,-10.4127,-11.2545,-3.7536,-7.6509,-1.7391,-13.345,3.7718,-10.078,-3.321,-7.1399,
5.483,29.5705,0.57719,2.311,-15.3311,-6.4819,-5.6975,-6.9504,4.3912,-7.4826,2.3402,-14.0526,-6.7372,-5.5067,
6.6003,28.2782,0.54256,3.1367,-19.2321,4.0299,-4.3918,-3.1594,4.6097,-0.28523,1.2355,-6.943,-6.333,-5.6582,
4.5171,31.6427,1.7153,-1.6313,-11.5705,10.2961,-2.4411,2.0918,-0.72856,1.901,-0.04347,7.5736,-8.1221,-3.1496,
9.3075,43.8442,1.8531,-0.32787,-2.9223,5.0988,-5.4279,1.2432,0.52022,-4.7203,1.6461,5.5525,-6.9117,6.4396,
19.1134,52.1803,3.4292,-1.5135,-2.0241,0.6955,-2.933,-6.3032,3.6225,-11.4269,6.609,-8.8807,1.9387,4.366,
17.4844,53.8699,6.5976,-3.833,-1.9024,3.5461,3.5097,-5.9248,0.51286,-4.957,6.6942,-13.2886,5.679,-4.0909,
7.2763,45.8175,2.8278,-9.8696,-2.7526,-1.0055,0.88852,-0.74905,-6.2668,-0.32076,1.4723,-0.92212,0.51754,-5.2917,
6.1168,39.453,2.8991,-9.0364,-3.3103,-1.1861,-0.85156,0.98312,-0.82913,-0.060549,6.4456,-2.0721,5.5482,-0.87683,
4.3038,38.0499,5.6174,-6.0839,-8.4143,6.1161,1.1275,-5.8245,6.4512,-0.53908,10.397,-6.7682,7.6256,-1.3059,
-0.051793,30.2233,1.665,-14.155,-10.5603,0.68747,3.229,-7.6442,2.4492,1.6624,5.6758,-1.3005,-0.78565,-3.8791,
0.91495,27.4458,1.0829,-10.4134,-5.1067,-5.6205,3.9994,1.4913,-3.4826,2.0448,1.4787,-0.25834,-2.6669,-3.6466,
1.3424,29.6555,6.3206,-2.5578,-3.836,3.8757,3.2775,2.8481,0.58277,-3.8624,-0.5378,-5.5455,1.8314,2.3572,
-2.5949,25.4655,5.9413,-5.7787,-4.0882,9.4278,2.1165,-4.5537,4.4042,-6.5232,-1.4699,-6.1771,0.75719,6.5541,
-1.9569,26.3482,4.621,-0.12937,0.49587,6.9339,1.99,-3.7985,-0.68032,-1.793,0.064595,-8.6985,-2.6622,-1.07,
5.6324,29.3466,13.7433,0.60129,3.5996,6.2769,6.4499,2.455,-2.3267,0.96565,-0.66218,-2.633,1.1129,-3.1749,
2.6429,20.5959,11.2314,-8.3529,-3.6062,-0.60764,3.4113,-2.2716,-3.3924,-8.4923,-7.1304,1.1404,-4.0155,-1.2972,
2.0026,19.8423,10.0759,-2.5488,-1.9438,0.39292,8.0276,-2.1356,1.1497,-6.5367,3.4206,-2.7846,-4.2568,1.6729,
-1.974,15.2778,8.025,-4.3241,-1.8272,1.3337,9.956,-4.8995,-3.2576,-2.7701,4.1797,-6.9559,-2.0727,-5.6583,
-3.543,14.1199,6.3385,-1.8952,-2.4407,0.048585,5.7435,-1.4723,-6.1959,3.4219,-4.507,5.2718,-0.26135,-7.0058,
-9.115,10.8624,-0.79051,-3.7099,-7.1148,-4.7748,-3.2784,3.4366,-2.4494,1.2882,-8.0932,3.0271,-5.0661,-5.1394,
-3.5066,14.7904,2.8723,-2.2821,1.2659,5.3936,1.0156,5.3995,2.7587,-2.4045,2.7562,-3.662,0.29904,1.1945,
-2.0909,7.877,0.53038,-4.3148,-0.015371,4.8286,0.23178,-5.2888,-5.3605,-4.9118,-1.9884,0.65507,0.040132,-2.0107,
-7.5091,-1.9957,-4.5627,-7.1889,-13.2706,-6.3069,-2.4332,-7.1401,-0.94154,6.2296,-7.8947,7.1232,-4.0596,-4.5411,
-6.8178,3.1858,-3.0841,-2.1783,-15.1257,0.097016,2.2921,3.1697,7.5506,12.3633,-1.3954,0.6703,-5.9852,-4.5096,
-4.2393,6.61,-2.6581,-0.84228,-8.6745,14.1912,0.94924,6.5954,-1.82,-1.1529,-0.10688,-4.4316,-5.3851,-4.48,
-4.4667,3.8031,-2.9803,-1.7558,-12.4924,23.5836,-3.9282,6.1995,-10.8696,-9.2787,-0.58217,1.6191,-3.616,-2.2832,
-4.9218,4.2985,-2.5603,0.036963,-19.2144,19.5172,2.3337,5.5868,-3.2278,-4.6244,-2.7162,2.2451,-5.568,-3.8332,
-0.52939,5.2452,-1.684,-1.6527,-11.5541,15.2129,9.1829,8.8668,5.4018,2.6427,-2.7944,0.42339,-4.5108,-4.8083,
-7.9692,-1.5768,-6.6444,-3.7229,-12.0659,8.2744,-2.696,7.6116,-3.3582,7.0637,-6.2424,2.085,-3.9994,-4.761,
-17.3732,-8.4723,-7.4508,-4.7046,-17.3677,8.983,-10.4883,3.0573,-7.2543,4.9529,-4.6628,1.2368,-3.5182,-2.306,
-12.2332,-10.1329,-3.8705,-2.253,-15.1204,8.6852,1.4695,0.70497,3.0631,1.0405,0.19697,-1.4888,-1.1377,2.8938,
-12.7045,-14.5866,-6.7717,-0.91295,-18.3107,-1.7183,1.6218,-1.9889,4.0841,4.593,-3.9127,1.734,-3.721,1.5149,
-16.7627,-17.568,-6.8471,-5.6787,-18.1762,-2.5793,-9.5625,-1.3874,-2.4272,9.1379,-3.1957,1.1478,-3.0156,1.4243,
-13.8288,-11.6932,-7.4006,-4.8555,-4.5521,7.2169,-9.4707,2.0703,0.61051,2.8051,3.7449,-8.562,2.9499,4.2313,
-14.4453,-13.8839,-11.2952,-6.9746,5.8441,6.7836,-7.9383,0.017669,2.5023,2.637,-1.3007,-8.0485,-0.6013,-0.36111,
-8.5167,-16.1839,-6.0377,-10.6534,6.2164,8.0638,-3.8466,2.6682,-0.29893,16.5788,-5.802,6.5344,-4.6626,-3.4729,
-1.0163,-11.5977,-4.4704,-11.2193,3.674,9.267,-0.00063752,8.5338,-8.235,9.679,-5.2127,7.4681,-3.1778,-3.5057,
0.0087963,-9.9377,-6.1306,-10.0644,9.2384,8.2293,1.4459,6.5753,-5.331,-1.9892,-1.5257,1.2357,1.351,-0.88505,
-5.053,-9.5824,-1.6649,-1.5064,4.5867,8.4584,-2.2563,-2.2549,2.9431,-0.66457,-2.639,3.3307,-3.3093,-3.0011,
-3.304,-7.5617,0.36316,3.8862,-3.4012,6.0227,-2.6033,-1.6376,4.6947,-0.62469,-0.55289,2.6485,-7.9315,-2.3391,
-3.3465,-8.313,-0.38175,1.966,-0.54585,4.4563,0.68662,3.0401,5.1361,2.0641,5.988,0.80255,-4.3219,1.8988,
-7.9664,-9.7422,0.60525,5.7047,-3.4054,1.7786,-3.2112,0.44737,5.3097,5.3145,6.1109,1.7185,-3.0985,-1.1074,
-6.2834,-11.3273,0.8099,6.5672,-10.1912,0.9485,-3.7419,-2.231,7.1603,4.7547,4.057,3.7845,-2.6721,-2.7282,
-7.1114,-12.8168,0.038405,3.5221,-5.0002,2.0969,-2.794,-5.2302,5.5258,1.3359,2.1263,-2.4681,-1.3065,1.0509,
-12.2283,-13.7348,1.7231,2.1053,1.8075,2.2123,-3.8314,-3.2294,3.0249,-1.8775,0.31177,-13.166,-0.98687,-1.6634,
-9.3253,-13.1519,4.271,2.7025,3.3865,3.2846,0.49603,5.4007,6.941,-1.0417,2.9444,-11.6529,3.6519,-2.7687,
-4.1864,-9.2296,-0.08281,9.53,5.3523,2.3644,2.1533,7.2456,8.6934,0.22583,5.901,-2.0359,6.566,6.3153,
-6.1044,-9.3987,-5.6215,11.1274,3.8261,-2.8387,-0.14509,6.088,4.0745,-1.9569,4.824,-1.6728,4.0029,9.0698,
-9.3536,-8.1116,-0.70465,12.6287,-1.9471,-3.392,-2.7877,9.8198,4.0712,-5.9371,2.8471,-10.9727,-1.2987,1.5355,
-11.2025,-4.2505,2.2301,17.1736,-5.6867,2.1147,-3.5843,5.3747,4.7913,-7.0266,3.1582,-11.7601,-3.149,-2.8949,
-10.5303,-3.9954,0.65008,15.6612,-3.4173,2.9516,0.96907,-1.2147,3.5395,-5.6412,6.3432,-5.7523,-3.9244,-1.275,
-8.4525,-3.2738,4.4675,16.6498,-3.6944,-2.0462,0.91092,2.7145,4.291,-4.3388,8.3727,-10.2274,-6.0991,0.72973,
-8.1863,-6.693,6.8507,13.4814,-5.1597,-6.5029,-4.6876,3.2748,5.721,-3.3554,7.1472,-16.1215,-5.01,-0.037185,
-7.4539,-11.3529,2.3421,8.5754,-0.2704,-6.3535,-3.6832,-0.054954,0.79818,-1.9485,4.5495,-6.2364,-2.0581,-2.6863,
-4.5966,-11.6356,-1.6548,8.0609,0.70969,-0.18769,-3.4622,2.3585,-2.6242,8.7732,-1.0261,6.6713,-2.8989,-3.007,
-7.6952,-11.9018,-5.4119,2.7565,-4.1534,3.198,-10.9672,3.1813,5.7285,9.6931,-0.00025258,-0.95981,-1.7606,1.5117,
-9.4024,-10.9462,-7.7383,4.2783,5.0139,1.3189,-8.6217,3.7133,9.964,-4.9885,9.8817,-14.6405,5.3349,5.0369,
-5.2233,-13.4232,-5.587,4.2628,17.4871,0.99859,3.7057,4.6956,0.44789,-6.9788,7.1194,-9.665,6.7018,2.5648,
-9.0073,-15.2689,-7.4209,-2.5009,9.4484,3.1078,3.2424,3.6909,-9.9428,2.8399,-3.6716,-2.0952,0.75605,-3.1322,
-13.5283,-9.7732,-10.1089,-0.18144,-1.0006,6.537,-2.0136,3.2283,-6.213,-0.46375,-2.7282,-3.1746,-0.012439,-1.2573,
-9.1012,-9.4278,-7.8152,3.4449,1.7105,1.0831,0.75829,2.7936,1.1496,-5.4976,1.5328,-2.2612,1.1936,2.4336,
-2.7705,-9.3443,-4.9364,8.0587,5.4645,-2.3561,6.4971,6.9646,0.59849,-2.2755,1.4406,-3.0896,4.4962,5.6618,
-4.7735,-11.9169,-2.4708,2.0318,1.039,1.8824,3.4565,7.2698,-4.0169,-7.2004,-0.81472,-6.0375,4.4676,0.74255,
-0.87186,-9.9968,2.257,1.1867,4.5923,2.4926,4.9361,5.1462,4.66,-4.117,2.3674,8.0633,3.9584,-0.50706,
-4.1938,-9.8789,-4.145,2.5613,-0.02199,-8.7442,0.30158,0.98101,1.9703,-4.3524,-3.0773,7.0976,-1.5818,-0.95857,
-3.9419,-8.3221,-0.52204,2.4079,-1.9486,1.4216,-0.68061,5.7431,0.40601,-8.9113,-0.00034787,-3.9333,4.2979,3.4375,
0.39172,-8.0642,3.1247,-0.87009,-1.5908,7.8438,-3.2913,2.265,-1.788,-9.1,-7.4721,-3.4564,-1.5035,-3.7586,
13.1427,0.37361,7.9987,3.7616,8.8688,2.7941,4.8601,8.6368,-2.4034,0.84626,-9.1932,7.597,-3.5827,-0.39986,
14.2823,-0.61267,5.1086,3.054,10.7468,0.21636,5.5328,10.0468,-9.49,1.7594,-6.231,4.2492,-3.3678,2.0347,
9.8099,-3.7092,2.1508,4.0758,6.4868,4.3005,-3.235,1.972,-10.6076,6.2333,-8.5085,7.6094,-3.8888,-2.6669,
3.9187,-8.3073,-1.3527,1.9031,3.2051,-0.29584,-6.4154,-1.5208,-6.5971,2.4849,-7.0341,8.1167,-2.6912,-2.0249,
2.4787,-9.014,1.3798,4.9222,-0.60243,-3.8937,-0.0046856,5.5605,-1.1394,-3.6896,1.3419,-0.80575,3.978,5.0862,
4.017,-10.6425,3.4664,5.8319,0.63878,-0.52686,3.6108,4.0214,0.61596,-1.7812,-0.90799,0.92959,1.5699,-0.76281,
1.3656,-10.0042,-1.5625,3.0716,3.9747,1.4332,3.8758,-2.4866,-0.86749,-1.1926,-3.2639,7.6225,0.99358,-2.645,
-4.2597,-6.7524,0.70082,8.9133,0.60294,0.14189,3.4028,0.31412,2.8004,-7.6285,4.8862,3.5497,8.4058,5.4674,
-3.2812,-8.9986,1.8638,3.799,-2.5665,2.3028,2.4755,0.53647,3.3551,-9.3398,3.3879,-4.1348,4.2862,0.07794,
2.2183,-2.1919,-1.1403,1.6426,1.4439,11.8058,5.2192,3.3966,-0.22045,-0.58489,-1.1539,-3.405,-0.30949,-10.5318,
0.15703,2.7601,-4.4461,6.3646,0.39315,10.1334,4.9059,8.0133,-1.1713,-2.9597,0.36137,-4.6468,3.0833,-9.9001,
-6.6011,-5.6002,-7.5538,3.0906,-4.9331,3.2584,0.27319,5.1223,-1.583,-1.3363,-0.62418,0.93468,2.4164,-4.0035,
-6.2048,-10.0847,-4.6902,1.4592,-3.6725,5.4732,-2.6355,-0.005488,-6.7904,8.8675,-6.3715,10.0379,-4.4773,-7.1375,
4.0492,-5.8644,1.1346,3.0586,-2.7295,9.2424,0.17396,2.6457,-4.696,4.7198,-4.3023,6.3019,-3.4855,-8.8786,
9.832,-3.8251,-0.13854,6.0084,-7.6272,5.0722,1.3686,4.6564,0.64722,-6.8918,1.9817,-1.5478,2.7494,-3.2845,
5.8677,-6.4881,-3.9866,4.6835,-0.42112,6.6961,-0.15979,1.0025,-4.2123,-3.5858,-1.9936,2.401,1.6201,-0.19487,
8.1669,-4.8938,1.314,-1.1409,11.4145,12.802,2.5011,3.5937,-8.0567,2.1727,-5.4892,9.729,0.31783,-2.3526,
10.087,-3.636,1.7174,1.8199,-2.7677,7.6954,-2.9514,4.3422,-4.1991,-11.9372,-3.7138,-0.01358,-0.66534,-5.5856,
9.723,-6.5511,1.3731,8.2184,-15.858,4.5828,-6.8719,3.3585,4.4888,-10.4978,4.9449,-2.1822,4.436,0.77528,
3.1139,-8.8096,0.56783,8.9306,-11.7733,1.1743,-5.7366,0.98784,5.4247,4.2321,5.3711,1.5642,5.3752,-2.8867,
-3.0983,-5.6295,2.7029,8.1538,-9.3794,-2.5116,-5.151,-1.7225,4.8583,17.8376,1.9158,-1.1808,2.4016,-10.1853,
-2.4307,-8.1842,4.4689,1.3976,-12.1914,-4.2891,-9.1807,-4.0298,5.0487,8.5722,1.8004,-3.0386,1.7751,-7.646,
7.8385,-5.2826,4.2008,1.7961,-8.0852,0.30661,-8.1477,1.9971,2.8176,2.7552,2.6567,-1.8919,3.5968,-2.8489,
10.0195,-2.7965,2.2615,2.4113,-9.2873,1.0116,-8.3818,1.1539,0.96132,-0.54311,3.7026,-9.25,2.1761,-6.7753,
5.3205,-3.834,5.7413,0.57935,-9.9354,1.6738,-10.5304,-3.4951,0.18028,-7.0185,2.2752,-14.721,-3.0161,-6.1278,
9.3399,-0.71166,4.9146,-0.41951,-4.5188,2.0555,-9.8986,2.0175,-5.6149,-4.187,-4.1281,-9.4989,-6.2094,0.024664,
16.492,3.1872,1.2455,-0.8765,-2.8016,-0.47818,-10.269,4.3063,-8.1703,6.1869,-7.2546,-0.73453,-5.837,2.4331,
16.4673,3.9608,1.1708,1.1047,-7.4538,2.925,-13.0269,-2.7,-7.6801,7.2624,-7.7832,6.5408,-7.415,1.3232,
19.0942,4.4455,1.3415,-1.6131,-5.3195,9.7389,-12.0045,-4.2257,-7.4602,2.7288,-6.1114,10.7277,-7.2111,0.52048,
23.4922,3.9378,1.502,-2.2397,-0.42085,9.8779,-6.7047,-0.83869,-3.8796,3.7704,-5.0218,0.68401,-3.6454,0.24828,
16.78,1.7738,0.92993,2.7154,-0.87753,5.9108,-4.8559,0.17596,-5.0926,2.0979,-6.6482,-5.6235,-2.4623,2.162,
8.7833,-0.50221,0.15077,0.86527,-2.9943,3.8689,-9.1443,1.3702,-5.9924,-4.054,-0.70619,5.5597,-2.5556,3.2371,
10.6669,0.97419,1.1061,4.1878,-2.8146,-1.6659,-12.4521,0.80609,1.598,-7.6667,7.049,2.334,-2.8842,0.63279,
12.196,2.121,2.245,11.4083,-1.4404,-4.6989,-9.5356,-7.6784,5.1176,-7.4476,6.3851,-11.906,-1.5063,0.35386,
10.7412,1.7526,1.3872,7.1087,-4.0053,2.0907,-8.2403,-16.6175,-2.6611,-10.6164,3.3511,-15.4095,-2.621,0.09143,
11.7841,6.2269,2.0271,5.959,-2.56,10.4012,-8.9512,-12.4872,-0.33247,-8.7744,6.2833,-11.3517,-3.1868,-0.63719,
10.354,5.1302,0.21798,3.914,0.24496,10.0178,-6.2449,-6.1946,10.5335,3.5625,8.5576,-1.7527,-2.7544,1.0885,
9.9735,-0.72101,-3.8922,-0.90035,-8.2056,6.7659,-11.4136,-12.8125,3.3938,7.9282,1.054,6.7883,-5.2405,-1.6281,
17.0881,3.1784,5.5001,2.046,-6.2673,7.806,-7.8367,-14.9361,-4.0404,1.6677,0.99103,2.5244,-2.5157,-0.56635,
13.4114,2.2646,8.3034,-2.6563,4.955,0.8299,2.5156,-12.3524,-6.4493,-5.422,4.5468,-6.5449,-1.6416,0.6727,
7.0631,-1.4867,1.7796,-4.6661,9.7194,0.05675,4.5338,-12.3347,-6.3034,0.44695,3.5511,4.2121,-3.2304,0.8733,
6.3984,-2.1204,-0.49632,-0.77071,5.0389,6.5613,0.6464,-17.1382,0.58233,4.5175,-0.27743,6.6105,-0.38545,3.9544,
4.0861,-3.4392,-0.94871,0.23963,0.87994,2.7929,-3.7307,-22.3766,0.54762,-4.4304,-3.1531,-7.7656,4.4582,4.6812,
5.2872,-4.1972,0.07254,-5.0774,7.0937,2.1434,0.83145,-18.1415,-4.3059,-8.021,-3.4458,-3.4433,7.0832,1.9898,
10.7543,-3.4632,2.96,-7.1831,15.8268,8.2816,11.3869,-10.7863,-1.6372,-3.2012,-2.7574,2.0657,6.658,2.8345,
9.3864,-4.4605,0.61349,-1.2083,11.262,1.7589,8.5343,-13.2728,1.1123,-8.553,-2.3507,-12.1582,3.1252,4.3519,
12.1979,-3.2287,-0.38742,1.2746,7.6943,0.68971,3.2019,-9.5837,5.8665,-9.4856,4.5394,-13.9591,7.2763,9.8756,
10.9834,-3.5172,-4.7027,-3.6224,2.894,4.5045,-0.36462,-8.0446,0.69359,-2.168,1.3743,0.37554,5.3937,6.8727,
5.2631,-3.5471,-8.036,-3.1641,-0.89501,3.0289,-0.58394,-10.6954,-1.9991,8.3264,-1.3592,9.2711,0.0083669,3.3268,
7.5984,-3.5753,-4.9023,-1.287,2.2919,3.0882,-0.78987,-10.7766,3.6644,8.0678,3.3016,3.1712,-0.2331,7.7065,
10.0348,-0.95039,0.21235,1.2006,4.5648,2.9031,-1.2244,-9.1659,4.4087,-4.9495,4.0676,-10.0343,-2.1475,7.7263,
8.4684,-2.3396,-1.729,-1.282,2.8446,-1.6099,1.2592,-6.2058,2.6979,-5.135,2.3773,-10.3965,-1.0548,3.8882,
6.2735,-4.3684,-2.8301,0.00017059,8.6995,0.65634,4.799,-3.6643,3.2589,5.0555,1.9937,-3.2648,2.6243,4.8602,
0.83545,-0.49088,-0.49117,3.1336,19.5062,5.6786,2.3419,-8.5057,-1.5159,0.17292,-1.7409,-2.8279,-0.6666,2.3995,
0.30316,2.4309,3.8769,-2.3572,24.1202,9.1941,4.1294,-11.8519,-6.2454,-7.5505,-5.493,-2.6585,-5.4471,-3.5293,
1.7312,3.2489,5.5724,-0.28762,25.5655,12.4988,11.5949,-4.8743,-5.8707,-4.6873,-4.6815,-1.5347,-3.1921,-4.2814,
-5.6033,-2.7304,2.3458,-1.2345,24.0313,6.4465,2.2223,-7.9561,-5.0363,-8.2622,-4.4004,-7.7093,-1.5545,-4.0248,
-5.2675,-6.9054,0.27686,-3.0886,20.1789,1.239,-8.9987,-13.2637,-3.7703,-6.3207,-3.6549,-4.8366,-1.4612,-2.337,
4.2078,-6.4908,-0.70385,-2.4211,17.5226,7.4314,-5.5663,-11.9853,-3.0619,5.6279,-2.953,8.9511,-0.89141,0.21356,
4.9197,-7.5476,2.2309,-7.0966,20.3276,9.3956,-3.3041,-10.3023,-0.94997,6.2541,-0.84762,7.9321,1.5722,2.1289,
0.76809,-7.0948,4.0252,-5.7064,18.626,-1.291,-2.6237,-10.1661,-1.3749,-8.2211,-3.6893,-6.6438,-0.93225,-0.89086,
9.8806,-2.3308,2.8194,-0.061401,15.5798,1.1966,7.1747,-3.7716,-3.2211,-3.7508,-4.4323,-15.2839,-2.3226,-1.8017,
10.0111,-2.9138,0.96301,-4.1551,13.4402,7.1503,3.6107,2.4803,-5.197,4.9104,-4.4073,-1.5925,-2.4242,-1.4527,
3.8666,-3.4621,3.0746,-2.2188,16.7309,7.4444,-0.22111,2.5727,-5.1259,-4.3025,-5.3479,0.67249,-2.5199,-1.1248,
5.0809,-3.7363,3.3721,-0.15745,19.1015,9.8898,5.5767,-3.8487,-4.3364,-7.9007,-5.509,-1.7784,-1.4044,-0.092951,
4.0531,-5.1994,-0.44567,-0.8709,13.858,8.5735,1.1448,-8.679,-4.3172,-5.7395,-3.9731,-4.8048,-0.11485,-0.81028,
1.3998,-5.8513,4.4018,1.5915,8.6882,-2.5457,-6.1548,-5.2662,1.7264,-2.5026,1.0855,-2.1064,-2.5185,3.5767,
2.7618,-4.5361,9.922,2.4601,7.6848,-5.7672,-0.48282,-0.61166,6.4433,6.8064,3.9127,9.1075,-3.8135,7.7006,
6.9344,-2.3362,4.5065,-0.097646,10.1158,3.7374,0.028084,-2.9851,-1.656,3.0235,-2.5886,4.2223,-3.5847,0.0077352,
20.6184,3.3478,6.8874,-2.7431,23.2474,15.3235,3.1599,-1.6009,-7.5825,-8.4858,-7.0128,-5.4309,1.6919,-4.0903,
27.2145,10.8597,11.2944,-5.471,22.8168,17.7786,8.2729,2.3515,-9.5376,-3.6384,-9.9665,3.0897,-0.81977,-2.3986,
21.0021,16.7158,9.4117,-4.9016,7.3478,15.0244,-1.6237,6.3076,-6.7964,8.8722,-8.1634,6.5195,-9.6889,-0.56772,
23.5986,20.0514,11.2573,3.1055,-2.3728,15.0875,-10.2031,6.8937,-3.014,6.8939,-3.3351,-5.9225,-7.6611,-2.4616,
27.4854,22.7047,14.4383,13.0421,2.1084,12.2536,-1.8782,5.9976,-2.8331,5.5159,-3.135,-6.5315,0.029447,-2.7959,
13.0618,12.4244,4.172,7.6803,-6.9362,4.047,1.85,3.951,-2.9041,5.4264,-4.1517,-5.4162,-3.1058,-1.4233,
2.3959,3.243,-3.068,3.6038,-17.3661,-2.7035,-8.1432,-0.38362,0.40339,-1.8893,-1.7337,-9.6708,-8.9452,-3.9892,
7.5546,1.6024,5.3106,3.3873,-9.0935,-4.4697,-9.5828,-2.771,0.37895,-5.1502,-1.6294,-4.2701,-3.5876,-2.7857,
9.7529,1.7472,11.0179,1.4973,3.7446,2.3064,3.2849,-1.3994,-2.2949,1.6668,-4.1828,6.8324,1.207,2.4431,
4.1062,-0.044594,3.8492,4.0588,0.86864,0.96296,1.8823,-1.5566,-4.8085,9.0384,-7.5474,7.1456,-5.8551,2.5377,
8.6801,-1.0062,6.0283,2.369,2.2628,-2.4693,0.32355,0.46495,-3.0737,3.1934,-4.2021,1.4142,-2.6113,3.3493,
6.9542,-4.0791,5.4259,-1.3888,-1.0067,-4.9724,5.3656,-0.28608,-5.5406,-11.0982,-1.781,-12.4092,0.19627,-0.94879,
0.51121,-3.5932,-2.8536,6.1666,-7.454,-1.0589,5.2844,1.9005,-4.9675,-5.0094,2.4234,-14.3162,1.3896,-1.1331,
0.72174,-5.065,-7.2619,3.1453,-8.6938,0.69163,-3.4686,1.5453,-2.5,9.3912,1.5549,-1.6471,1.5474,0.62192,
2.8476,-3.5559,-5.6209,-0.17692,-7.9312,-2.001,-10.2501,-1.6805,1.2654,13.5279,-1.6719,11.7086,-2.6428,-2.0665,
-1.4206,-2.6196,-6.007,2.9672,-12.9989,-4.0501,-9.8761,-2.303,1.4304,16.3317,-1.8125,17.0316,-6.0997,-4.5936,
0.59281,-2.9444,-5.6466,10.5019,-8.8445,1.0137,-4.463,2.6559,1.827,5.7108,0.2244,4.9225,-0.91297,0.98421,
0.55724,-4.6959,-5.3078,14.2101,-5.9037,-2.9036,-6.1234,2.4965,7.0196,-8.7319,3.5854,-9.4729,0.10567,0.44323,
-6.2251,-4.4141,-1.6153,14.8038,-14.7088,-12.8527,-5.7563,0.90047,16.7213,4.4458,13.0108,-5.8917,0.09933,0.41663,
-14.5285,-6.5596,-1.5182,17.2898,-22.985,-14.9738,-7.3391,-2.0458,13.3077,10.4453,14.6405,-0.2358,-0.38879,1.8377,
-5.4618,-7.1302,1.4652,19.1447,-12.9291,-10.2192,-1.1141,0.48726,11.5456,-4.2814,13.2804,-3.5959,0.59863,5.1016,
0.89144,-9.8358,-2.2381,11.4885,-5.6456,-12.7391,-2.7343,0.21706,9.6475,-10.8934,6.458,-8.9237,-4.9809,1.6625,
1.3203,-5.8712,-0.65759,11.2811,0.96009,-3.2981,-4.0165,4.5424,5.6942,0.8474,1.7317,-5.4958,-1.7895,-1.3298,
1.964,-8.6524,0.58716,6.5069,2.5893,0.99757,0.32185,4.0288,-5.0113,-8.6034,-3.9158,-10.2277,3.3791,-4.383,
0.40015,-11.9895,-2.3404,4.6705,-5.2786,-7.2572,2.7134,1.8592,-3.7465,-10.0152,-2.2344,-10.096,1.2484,0.70046,
-2.0344,-10.3058,-5.5744,3.4259,-10.7465,-5.3755,-3.2345,6.5679,7.0836,4.6857,6.5763,3.525,-1.2367,10.7813,
-5.0454,-10.8927,-11.7474,0.56927,-11.7887,-2.4019,-10.9939,7.3791,0.63301,9.8275,3.5307,7.8932,-0.43957,6.5195,
-3.5378,-5.1779,-6.9457,7.0426,-9.8766,-2.4988,0.99344,7.1768,-3.0208,7.0687,0.66728,10.5526,1.756,1.5486,
-6.4588,-8.0001,-7.2516,1.5586,-10.489,-5.964,6.9596,3.131,2.2223,9.7778,0.86844,8.2325,-1.4826,2.6607,
-5.107,-7.52,-9.7086,0.019274,-1.1824,-3.196,2.6859,7.282,4.0172,3.8885,1.2987,0.5077,3.909,5.8755,
-4.5594,-7.31,-4.547,0.74079,5.8782,0.12897,1.8016,11.9065,-2.7316,-9.601,-2.8768,-6.5124,6.3257,0.94348,
-6.9376,-10.4871,-3.551,0.93754,4.32,0.84436,3.3805,6.6126,-1.3626,-2.0353,-1.4991,0.38604,3.2949,-1.2825,
-9.1724,-13.4733,-13.2204,-1.7703,-0.036543,-4.7504,-1.4021,1.6361,-2.0042,7.9688,-2.1325,6.8704,-0.51824,0.48166,
-4.2833,-8.3261,-7.606,-4.0742,6.2326,-2.0548,-1.3175,9.7331,-0.43725,2.188,-0.55785,5.0123,4.8155,1.899,
2.4812,-1.801,1.768,2.6782,9.4741,7.4685,5.7512,14.6927,3.2044,-0.11244,4.5368,3.9882,8.142,-6.6506,
3.0552,-7.7185,-5.3275,4.6867,4.8078,8.2257,10.95,7.7856,-1.0857,6.8842,0.64921,6.8824,3.5561,-12.7595,
-0.020161,-11.1118,-4.5259,0.066698,1.6273,-0.463,5.9542,6.3541,-2.4668,11.7738,-3.2461,11.2897,1.8965,-6.2093,
-3.1524,-7.794,0.80685,-4.0347,0.8063,-8.389,-5.2493,9.1064,-2.5597,6.9695,1.046,3.6225,-0.38646,-7.0421,
3.3032,-5.3981,1.2408,-5.2388,9.435,0.79147,-2.524,6.1494,-1.9242,1.2492,4.8396,-1.4151,1.5649,-8.0658,
5.2746,-7.7253,-0.52084,-2.7549,11.52,4.8413,0.27876,1.2012,-4.9418,-8.2258,-3.4045,-1.0892,-0.2162,0.85427,
5.1991,-5.5746,2.1615,-0.90283,9.1416,-0.99276,0.021065,8.6009,-3.9224,-9.4195,-5.3694,-1.7468,0.03774,12.6131,
4.8872,-2.3481,1.5499,-8.5614,7.1473,0.031136,4.8401,12.4232,-4.169,-3.5516,-4.5653,-2.1244,-2.3747,4.1436,
5.3169,2.8545,1.2159,-1.5398,10.3334,9.4288,8.647,9.0267,-3.6779,2.687,-5.0143,6.4392,-1.0273,-2.1306,
2.8285,-0.93241,-0.062101,3.1321,-0.65069,-1.9829,2.1029,4.3875,-1.7702,4.6947,-3.0264,10.1504,-1.6888,1.1305,
6.5154,-3.2868,2.3515,-0.43051,-14.7116,-12.469,4.869,7.0165,-3.592,2.4851,-3.8089,5.2024,-12.1926,0.09858,
19.3808,1.9721,6.3078,-1.1276,-6.2367,2.3791,7.7099,14.0673,-2.6535,-3.69,-4.3033,-3.0635,-10.2557,-1.5946,
16.0486,-3.6896,-1.0603,-7.5676,8.2375,4.526,-4.0807,11.0539,-2.7351,-9.012,-3.8044,-10.8332,-1.2045,-1.7396,
10.7474,-4.4326,-0.99671,-4.7034,1.5973,-4.9046,-4.318,5.5704,-2.571,-1.7224,-3.0937,-1.9885,-5.471,-0.67138,
15.6464,1.8591,5.5708,0.15827,-12.5986,-0.51273,1.0028,6.9232,-1.6936,1.0323,-3.6312,9.4593,-11.65,-1.3542,
6.5122,0.7835,1.3804,-6.5999,-15.3376,-0.96413,-7.7345,16.6309,-2.0741,-7.2246,-3.4136,1.6606,-6.6129,-0.30888,
11.6651,3.3876,5.8769,-6.9268,-16.1043,-5.4856,-5.101,24.0692,-3.6369,-8.4784,-1.5215,-7.839,-1.6364,-0.53131,
24.4627,7.0409,13.2373,-1.2088,-3.0868,4.4848,9.305,12.5019,-2.9365,-2.6672,0.01579,-0.1376,2.8004,-0.9816,
8.895,1.557,8.3454,-2.3413,3.1242,5.9027,9.3494,1.8697,-2.5196,-2.266,-1.1902,8.7885,1.4273,-1.1634,
-5.2566,0.98168,9.7729,-7.0211,-11.1632,-8.5515,-5.3116,15.8575,1.9704,-3.5763,2.7376,4.8867,-5.4073,2.7628,
-0.84381,5.0201,12.8019,-1.0562,-24.5934,-18.7639,-19.0929,29.006,3.5394,2.1819,3.7786,-0.95009,-8.6982,3.3199,
-3.9264,-1.7892,0.70541,3.1043,-25.2874,-13.0591,-25.9015,13.1657,-1.253,6.6305,-2.4739,1.2759,-8.4175,-1.9408,
3.5395,-0.71756,-4.1572,-2.3846,-9.6702,-8.9011,-10.2474,13.2191,1.7147,-1.9625,-0.87918,-0.2465,-2.6098,-1.8243,
17.4272,12.0999,10.1923,3.784,0.18953,-19.2128,-14.3324,26.526,4.7453,-7.8703,3.7529,-10.5958,-6.5506,-5.8122,
30.4815,7.0354,23.6807,13.1982,-13.9218,-29.1473,-27.5724,33.2501,10.7274,6.7019,9.7944,-6.5856,-6.6397,-3.5355,
25.7606,-5.4378,8.1599,9.032,1.0135,-35.5934,-17.6027,26.9165,9.1196,2.3232,9.6889,-7.1546,0.50732,0.051306,
29.7588,-1.9781,-3.5374,6.3207,15.0527,-32.7346,-3.2901,32.2912,-0.82779,-11.9162,0.67169,-15.6434,2.6463,-7.9057,
39.3014,2.238,10.7748,12.449,1.4958,-16.6705,-12.9749,44.4537,10.5501,-7.7065,10.9953,-0.96644,6.1029,-1.4059,
22.8434,-6.5733,24.2283,11.7024,-12.694,-8.3191,-26.2964,55.8865,16.1839,3.843,16.1205,0.53792,0.43398,3.0172,
8.3366,-2.5636,11.9284,10.277,2.1677,-21.92,-29.1774,45.0615,8.2231,-5.3056,9.1273,-9.3764,4.0235,0.1847,
13.6212,-1.9278,-2.8873,9.1782,3.7248,-27.9562,-26.9448,51.517,4.837,-5.9513,8.5799,-6.4037,4.7462,-0.79048,
8.2244,-6.8734,-8.137,13.2075,-10.5987,-29.894,-23.6409,62.526,14.4294,7.1802,14.5728,-1.9219,-3.4923,2.3902,
3.6334,-1.8817,6.4512,11.2095,-17.555,-35.5722,-16.6788,57.6899,10.9123,9.8826,7.6727,-5.422,-6.8982,-3.2966,
17.5154,10.2825,20.1642,17.2859,-6.3784,-19.4581,-10.3752,56.6386,5.4369,4.9514,3.8383,-0.27596,3.1566,-2.6169,
15.8616,0.024379,12.2054,18.6586,-20.0957,-12.5065,-7.825,63.363,13.3051,4.6541,10.3563,1.6683,3.9313,0.43244,
0.8099,-12.7512,2.0732,11.0317,-32.9899,-25.8561,-11.9347,59.3203,17.0867,7.0262,13.3504,-2.529,-4.7403,-1.2806,
11.2465,-0.89912,7.2514,14.2262,-16.9105,-34.5482,-14.593,62.51,13.169,4.6765,12.5494,-2.3773,-3.0099,0.72441,
12.2588,4.2164,15.2524,12.6496,-1.7959,-21.629,-10.1021,63.3391,8.7637,-1.1476,10.5915,-2.4755,4.1605,0.43987,
-2.5767,-6.8826,5.9011,8.2752,-8.678,-15.7517,-8.7729,53.5132,10.889,-0.35562,8.7507,-1.1219,4.634,-0.30966,
-5.1938,-11.5312,-8.553,7.5379,-22.2573,-28.9066,-17.6464,51.0254,13.3693,3.281,4.6104,1.1147,-4.0799,1.8782,
-7.2924,-10.8392,-8.6422,7.0855,-24.4168,-26.3286,-15.1415,48.4457,12.0851,3.5662,5.2979,0.56577,-2.8711,1.2835,
-8.7832,-10.189,-8.1238,6.6602,-26.3262,-23.7849,-12.7868,46.0212,10.8779,3.8343,5.4619,-0.43239,-2.2168,0.7244,
-10.9075,-9.8186,-8.3595,6.0199,-27.8801,-21.6347,-10.8146,43.5007,9.5021,3.8452,5.8573,-1.1296,-1.3606,0.43997,
-12.9044,-9.9526,-8.0989,5.8994,-29.8227,-19.6137,-9.4428,41.6138,8.2089,4.3376,6.229,-2.2669,-1.038,-0.30956,
-14.5404,-9.3556,-8.095,5.5453,-30.9255,-17.4727,-7.4301,39.5988,7.2343,4.5594,6.8195,-2.6129,-0.011765,-0.77303,
-15.5962,-8.3121,-7.1274,5.2126,-32.4444,-14.9783,-5.538,38.1872,6.3178,4.7678,7.3742,-2.9383,0.95304,-0.72665,
-2.1271,-2.9929,0.53111,10.6844,-24.231,-17.4538,-19.3057,42.6448,7.8669,1.1075,6.4498,-4.6902,-6.8169,2.2092,
6.9186,-2.0902,4.5966,10.2846,-18.6798,-11.3451,-13.9295,46.1115,13.4207,-5.9488,7.2679,-11.3984,-3.7566,8.5844,
-3.1375,-8.7135,-3.8739,2.4369,-31.659,-20.7873,-2.0063,31.7759,9.2412,-5.1097,5.3858,-13.6068,0.3252,5.177,
-6.5648,-4.0932,-3.4004,6.3879,-15.6595,-20.7453,-0.68099,29.6282,2.6611,4.1148,2.8933,-2.4262,1.993,-1.1592,
0.33668,-1.1964,-3.9196,4.7995,-0.61991,-5.4005,-3.7735,37.7326,7.0808,0.73453,2.4789,-5.4142,0.66804,2.0437,
0.55757,-3.776,-2.4793,4.7526,-2.8725,-10.0177,-2.3419,34.7454,12.6817,-4.3711,4.4992,-17.8637,-0.57699,10.839,
-8.6347,-12.2263,-6.1869,4.9494,-15.2334,-19.5395,-10.8783,21.0915,8.0644,2.1579,3.7471,-14.3815,-0.54237,9.2246,
-10.7679,-12.6978,-9.4311,0.55527,-10.2218,-12.3416,-24.3256,17.6571,6.3754,5.6439,1.3531,-9.9032,2.6234,3.1275,
-1.4451,-4.2231,-3.0805,-4.7808,1.4786,-6.7805,-14.7917,19.0077,2.6183,-0.96164,-2.1024,-11.7193,2.4661,0.047434,
1.052,-4.4518,-1.9316,-5.9402,13.4412,-3.4814,-0.88878,19.7954,-0.91275,-3.3141,-4.3864,-4.2674,2.3182,0.044588,
-8.4112,-5.872,-4.467,3.334,3.7167,-3.5137,-6.8612,21.7409,5.1673,-2.8743,-0.50803,-3.2885,2.42,5.1034,
-11.0399,0.024084,-0.10154,8.6779,-3.0141,-11.7387,-10.0649,20.1954,13.2933,-3.4248,8.9226,-12.0089,3.48,13.7153,
-8.6902,-3.5928,-0.81858,1.1676,1.2643,-15.1317,-13.0764,7.1733,6.9523,-8.7629,4.7718,-16.832,1.584,6.3847,
-4.3123,-7.7156,-1.7334,1.5794,6.009,-6.5112,-16.6302,7.7071,4.6069,-7.273,0.14705,-8.5913,0.042809,0.21693,
-5.7408,-5.0835,-1.3885,4.6181,2.9972,-8.2896,-11.0529,18.091,13.2485,-2.7392,8.092,-1.5681,-0.68289,12.0143,
-1.7811,-0.19891,-5.4026,4.5819,7.8789,-10.9256,-8.2205,10.9798,10.7663,-2.816,10.7398,-7.4997,3.4556,15.3909,
1.4593,-6.6947,-7.2476,-3.1646,14.878,0.093997,-14.2349,2.8495,-1.2079,-2.888,-0.26867,-10.6652,5.4174,2.1751,
-6.5822,-10.8725,-0.78723,-5.6261,11.8159,2.2577,-16.5141,7.258,0.55181,-4.8838,-4.3499,-2.5534,0.030886,0.83934,
-6.1873,2.795,-0.73999,7.7267,15.9274,-1.2522,-5.8823,12.6069,4.8573,-10.3756,4.1058,-1.9181,0.029033,11.394,
1.4149,3.5915,-6.9622,5.335,23.6488,5.5718,-0.70875,4.6197,-3.1471,-8.3067,2.4135,-5.6593,5.3298,8.7823,
3.981,-1.6855,-6.3034,-2.4568,26.3273,10.7809,-8.1382,-3.1291,-4.1637,-1.3007,-4.7213,5.5262,4.769,1.7476,
4.9473,2.9952,-0.38171,0.34161,24.5066,-0.22989,-9.8191,-4.1468,-0.78046,-5.3201,-5.6429,4.9536,-1.0607,2.8479,
8.2661,1.6102,4.2207,-2.8119,23.7593,1.9531,-0.79409,0.19983,-9.6515,-7.1701,-7.9557,-3.2974,-7.0228,1.4719,
6.8057,-1.8607,-0.37096,-8.9098,20.8876,13.4052,-1.7104,-0.7766,-15.339,3.8653,-10.8527,4.1312,-7.5654,-3.437,
3.264,0.90213,-4.4462,-4.7599,16.0188,-0.65566,-13.4183,-7.7195,-0.68024,5.8024,-2.2479,5.0885,3.7346,1.3487,
-7.0548,-3.9725,-4.1794,0.82831,0.9577,-13.6317,-22.2541,-11.1127,4.6632,-8.6457,-0.66676,-9.3168,3.5106,-0.1783,
-10.4879,-6.1443,-3.9286,3.1887,-2.8354,1.2862,-15.1343,-6.1077,5.8297,-9.4525,7.086,-15.8682,3.2999,-0.1676,
-5.279,-0.71404,-4.8981,3.7204,11.4347,12.8988,-7.7184,-5.9821,6.2029,-2.8597,11.7227,-3.5878,4.3071,1.0476,
-3.5163,-2.1173,-1.2299,5.4253,24.8486,-1.3726,-8.7015,-11.4078,-4.2923,-7.9907,-2.4782,-9.1572,-2.7001,-2.8717,
1.5155,-4.4005,3.6645,4.1358,15.1626,5.4585,-8.1795,-11.2054,-5.963,-5.101,-7.6322,-6.6795,-3.0202,-0.77111,
10.5835,4.0583,5.8549,5.3338,12.8067,9.9516,-9.1349,-11.4971,-1.749,0.98954,1.0207,2.8802,1.4995,-5.0633,
8.7432,5.984,8.6371,5.7371,26.1383,3.8109,-10.2738,-11.5306,-2.8489,1.6535,1.2005,2.9486,2.1327,-9.8209,
-5.8814,-4.016,-2.0043,-1.3563,22.2804,5.9926,-17.3701,-12.2848,-4.1244,2.0363,-4.6559,-3.0131,-2.3336,-4.8934,
-0.1055,6.8301,-3.3302,10.7768,16.123,14.792,-14.882,-10.1013,4.3179,7.6985,1.4077,-0.42209,-1.7118,2.631,
9.0597,11.7228,3.6182,6.2735,25.7608,11.012,-4.348,-12.87,-6.064,-2.4042,-4.4613,-0.87881,-1.609,-10.5422,
2.0085,4.9939,1.7141,-5.4309,22.5279,10.1103,-1.4358,-11.3743,-15.5823,-2.9831,-12.1475,4.7178,2.103,-14.4892,
-6.3065,4.2121,-2.2453,2.1255,7.0762,7.0934,-11.9547,-12.1383,-9.345,6.8369,-9.4903,9.2549,-0.91548,-2.5326,
-0.14356,7.3338,4.6383,9.2289,11.1107,6.1858,-9.7914,-14.3021,-4.4455,4.4984,-3.1363,6.7715,-1.8246,-0.45245,
3.2392,5.9296,1.9495,4.8184,22.4955,10.1531,1.4013,-15.8544,-10.4456,-3.0022,-5.8405,3.9549,-1.7153,-9.5845,
1.1168,5.0917,2.3147,5.0115,13.4327,12.4362,0.83526,-7.6725,-1.6239,3.4447,-3.5616,6.6099,1.2799,-1.2964,
-8.3504,0.68881,6.7553,3.5057,0.81666,-2.41,-7.6508,-8.8992,3.053,3.479,-0.69686,-2.7045,0.96216,6.2532,
-10.5007,-0.075648,5.6269,4.0185,9.6855,-4.0731,-6.9507,-12.9447,-0.26343,2.0652,1.5141,-5.1936,3.5558,1.7804,
-3.3629,-6.0967,-1.2184,-1.766,15.6121,10.2713,-9.667,-16.2656,-1.4527,-3.6023,2.6283,-1.7485,3.5834,-5.316,
10.3364,-2.8386,5.1214,0.75031,15.6394,13.15,-0.41007,-16.7357,-1.3658,-3.3862,2.4709,1.2487,2.4043,-6.4431,
9.4753,6.7317,13.2498,2.3921,6.2652,10.6737,10.9427,-14.0444,-1.5248,9.1093,2.5636,7.1994,3.4651,-8.7078,
-5.1932,3.9175,6.6702,5.1411,-4.7158,11.9615,2.0912,-14.166,5.3152,11.9369,9.1582,3.3929,1.329,-9.1497,
-3.7971,2.2364,0.0035091,14.9557,9.6672,12.2079,-0.92654,-12.8339,10.7811,2.0619,13.4297,-0.66702,4.6237,-4.2622,
7.2769,-6.3338,-8.9147,-0.04162,23.1871,-2.6246,1.7803,-21.4638,-3.9658,-12.1618,-1.4761,-4.7245,4.1052,-17.2629,
9.9735,-10.0511,-9.5851,-14.1391,30.2319,-11.0236,10.1093,-21.8629,-17.1046,-10.3476,-12.3546,-5.6461,5.5461,-23.6987,
7.447,-10.412,-7.5636,-11.1216,32.7564,-4.5775,11.913,-21.0334,-9.8117,-5.3881,-5.8287,-6.2713,3.285,-16.0102,
7.482,-10.7515,-7.1099,-9.0082,33.683,-6.2311,9.2702,-24.1099,-0.54602,-4.1008,-0.17642,1.3355,3.088,-8.7829,
3.418,-11.7935,-11.2627,-8.7088,29.4932,-12.3649,2.6883,-22.422,-0.75434,-6.506,-0.40645,2.4608,7.4822,-8.0149,
0.32044,-12.532,-9.6228,-13.9708,26.7593,-13.5512,-0.84722,-22.041,-3.6016,-6.5978,-0.86446,-3.4715,6.0691,-12.3545,
7.2909,-4.7904,-3.0199,-7.1068,28.287,-11.0509,6.6752,-13.2469,-0.25225,3.6802,1.8387,-0.61207,-0.32055,-15.2286,
9.5046,-4.2621,-3.5617,-1.1371,28.759,-12.5571,12.7823,-9.8009,1.4502,4.6644,-0.92303,-3.2268,0.42169,-9.7355,
6.283,-7.6216,-5.0353,-7.5766,24.8646,-6.26,5.9898,-20.5408,-2.7344,-5.0155,-7.8573,-9.0587,2.0836,2.1768,
6.6295,-5.9593,-4.4921,-11.7012,10.5979,6.4077,-2.3235,-24.3699,-7.6319,-3.5094,-11.965,-3.4536,-2.621,4.2155,
11.5344,-5.6016,-3.2584,-9.5528,14.3008,7.4695,4.0827,-16.1588,-4.7634,9.7166,-8.3551,5.9126,-2.9457,-0.85793,
9.3958,-6.2296,-4.9911,-4.6416,25.0121,-5.0297,5.284,-12.7789,-3.9954,11.0618,-5.9253,5.5579,-0.3586,-3.2166,
6.6628,-6.0969,-3.0046,-4.6042,21.3421,-7.3794,3.7618,-14.1815,-3.5148,4.3724,-1.9545,7.3937,0.38593,3.484,
8.9141,-7.9004,-2.5833,-12.7636,14.5175,-2.8393,7.1513,-15.0183,-5.9555,5.7971,-2.5606,10.5652,-4.6989,3.034,
6.6925,-2.3647,-5.0794,-9.8286,10.9954,0.46457,3.5892,-11.9476,-7.2849,10.5109,-5.0581,10.1725,-8.9963,-3.6558,
-0.69879,1.8746,-5.0157,-1.285,5.2741,1.6419,-4.0981,-6.6513,-1.7865,10.1214,-0.65711,11.2495,-4.8412,1.143,
-5.2366,-0.88918,-4.9557,-1.9308,-0.10357,-0.62603,-5.0573,-14.206,0.97178,4.9346,1.0695,8.4051,0.51074,5.6539,
1.8264,2.0563,-2.2482,-5.1896,10.9898,4.2321,5.8511,-19.1383,2.3596,4.6386,-1.4049,10.7932,2.8903,1.4582,
3.8864,3.6202,-3.8005,-4.6372,23.1048,8.0756,8.6335,-10.5182,1.0132,6.5294,-0.59768,12.3148,2.476,-2.7266,
1.0017,1.7157,-3.8134,-0.26117,12.8005,4.9397,1.6078,-12.0563,-6.5194,8.3068,-2.249,5.5504,-0.80586,0.088272,
4.557,-0.074192,2.9229,-8.6816,-0.26008,4.4023,-0.65806,-18.8047,-12.6362,3.2291,-9.1035,-0.80843,-8.2293,-1.1223,
11.9965,6.1969,6.122,-8.643,10.8429,8.4766,1.3097,-11.4098,-8.5034,1.1071,-7.1114,1.6503,-5.3253,-2.019,
4.7686,4.6199,-2.1991,-1.1347,12.8433,0.49612,0.025968,-8.5562,-8.7162,5.6201,-8.372,7.577,-3.8008,-5.9953,
1.1083,0.48632,-2.0674,-3.9589,3.8782,-3.39,3.8808,-18.1659,-10.6036,9.6214,-10.2796,14.353,-10.8034,-5.1536,
4.6574,3.1085,1.1903,-4.444,10.6352,6.6955,5.8173,-22.1374,-9.2443,-1.32,-7.4939,6.0202,-10.3962,1.6635,
3.655,5.5732,-2.9788,2.33,17.9507,14.2477,7.6376,-10.445,-4.11,-2.446,-0.53645,-0.84884,0.10965,5.179,
-0.90299,0.90034,-7.6204,-0.70176,6.7508,7.6083,9.1074,-10.3001,-4.8276,8.306,-2.9143,7.3971,-3.7534,0.047674,
-0.84858,1.3285,-3.789,-5.4801,7.7918,3.2954,10.4891,-20.7695,-7.9122,8.7717,-6.596,11.2916,-10.2769,0.045043,
-3.9312,6.7922,0.053794,-6.8386,16.7243,7.1951,12.5111,-19.7643,-8.6427,-0.19026,-6.9232,5.5527,-10.8654,2.6934,
-8.9984,6.3844,0.050567,-1.608,12.8283,11.5836,12.7243,-9.9018,-5.714,2.2308,-3.6157,8.1116,-11.1778,2.5318,
-12.3145,-7.9778,-8.6295,-6.3319,1.9356,-2.1267,1.8381,-17.0201,-5.8532,7.8819,-3.3989,7.1431,-17.7378,-0.99442,
-5.309,-4.6072,-12.4504,-2.5779,9.05,-2.9633,-0.20075,-15.5173,-3.0918,4.0346,-2.7129,4.786,-15.2276,2.4396,
5.1328,9.7692,-3.5083,7.2177,22.0047,11.3145,13.9113,-3.4987,1.4319,-1.9921,1.7885,8.3553,-7.565,7.1138,
6.2709,3.2785,0.55872,-1.8917,20.2028,17.264,20.6694,-12.9299,-1.0638,2.948,2.1635,14.1208,-9.0391,1.3847,
3.2431,-3.9081,-6.4647,-4.4297,7.1801,2.1282,8.1008,-20.5902,-5.0978,4.4583,-3.5104,14.4786,-16.9329,-3.7603,
5.4587,5.4852,-7.0409,-0.30757,0.0003445,-3.9048,2.794,-11.1601,0.028804,0.81639,-2.8178,9.7533,-13.9888,4.6602,
7.542,2.7459,-3.244,-3.1814,4.8213,2.1143,16.124,-13.3823,2.4374,-3.089,3.136,0.97364,-3.9902,7.2729,
4.1969,-5.1316,-4.0134,0.38393,8.8703,2.9515,17.0847,-20.7746,1.8093,2.399,3.9122,5.7357,-6.1611,2.498,
-10.1549,-10.8497,-15.1011,-6.1473,-5.7619,-4.6976,1.9596,-16.8768,-1.433,2.496,-2.3483,14.3094,-17.1199,0.66066,
-13.7634,-4.1727,-13.9536,-9.8753,-13.9728,2.0922,-1.4117,-12.2487,-2.0699,0.65904,-1.484,5.979,-13.9233,3.7547,
0.077793,5.7186,-1.0653,-3.0163,0.96556,14.018,12.773,-17.2984,-0.49948,0.13757,3.9072,0.7998,-4.4108,4.0114,
4.1705,3.6883,3.5782,-1.1481,15.0076,10.0434,19.8399,-16.9834,1.6996,0.85221,4.878,11.1159,-7.7618,1.6015,
-5.4796,0.3336,2.1583,-1.8025,0.0071671,1.005,4.5495,-13.7951,1.8388,0.078067,2.4163,11.172,-15.2497,2.7106,
-9.2483,1.0366,-0.6224,-5.3098,-3.7289,1.6678,3.9151,-18.9931,-0.44085,-5.9523,-1.8261,-3.5983,-12.6476,5.1992,
-3.6323,7.4822,-4.2006,-2.3398,10.5948,2.2907,17.4186,-13.2743,-0.65548,-2.4618,-1.9576,-3.262,-7.3094,6.0924,
-5.3425,4.1411,-12.1432,-1.7174,4.2948,-0.73891,16.3736,-6.2108,-2.0623,-1.832,-1.3581,10.4312,-12.6553,2.3525,
-5.2629,-0.20493,-9.7273,-3.7835,-0.54219,10.1517,14.6681,-12.828,2.6412,-1.9631,6.1952,7.6362,-9.7268,4.3805,
-0.12662,2.6997,-1.9131,-3.0743,5.7571,15.8091,15.234,-16.8788,4.4107,1.047,7.7514,-2.4629,-1.4304,2.1895,
4.4605,3.743,-1.5573,-3.613,10.955,4.4965,13.5971,-5.502,3.4229,2.6714,4.635,2.2643,-0.13952,0.37092,
2.5056,4.2413,-7.4894,0.21921,4.7541,3.0214,14.9504,-2.5208,4.9048,0.82391,5.0803,6.2258,-5.1926,2.0359,
-5.1164,2.7816,-5.8349,-0.51719,-6.3773,11.2761,13.3304,-12.2513,2.4414,2.9437,5.0165,5.1293,-7.0503,-0.25553,
-12.0401,-7.9904,-8.8594,-14.5862,-5.9945,3.3688,3.3714,-17.3012,-5.4182,4.213,-2.0333,2.8932,-7.5915,-1.6861,
-13.2459,-10.8852,-17.9688,-14.5545,-2.7428,-2.6179,0.75876,-13.8525,-5.575,-0.37807,-5.7676,-4.5112,-9.0642,2.7534,
-9.3178,-2.2783,-11.3469,-5.7276,-5.2294,6.4571,12.5237,-13.7448,0.30298,-0.1143,-1.8063,-9.3019,-5.8689,2.3471,
-5.1432,4.8482,2.1082,-4.1785,2.0743,12.0954,14.4235,-14.6073,1.0078,3.5079,-0.97489,3.5484,-0.93715,-1.409,
-6.2809,0.70091,-1.8749,-7.3023,12.5547,8.4771,5.3631,-13.2484,-4.8372,-3.9334,-4.2908,10.0842,-3.2913,0.60369,
-0.11954,-0.78729,-3.6905,-5.418,15.6582,9.8968,14.2005,-10.0435,-3.5828,-9.4819,-0.65906,-2.0899,-1.6477,6.8343,
8.0828,9.3831,6.1719,5.5124,9.898,9.7852,23.9535,-9.9228,-2.4035,-6.0207,-0.61951,-14.498,-0.5847,1.6036,
5.6695,9.3019,12.0682,3.7353,2.5555,5.3415,17.6957,-11.2558,-3.2237,-2.7673,-5.8846,-7.3615,-3.9242,-3.7954,
-3.1066,-3.5483,6.2827,-6.8529,-5.5518,1.4056,14.4648,-14.678,-3.271,-4.2882,-7.701,4.8905,-6.822,1.4942,
-7.4999,-4.5407,-0.11981,-3.3083,-6.9059,0.11623,16.2483,-16.4484,-1.8699,-6.2001,-0.73096,0.017594,-1.351,7.912,
-6.5677,3.9267,-0.11285,0.26444,5.5598,3.9656,12.3808,-14.0155,2.0989,-6.3103,3.651,-4.8039,2.1043,5.9913,
-4.7274,5.1374,-0.10585,0.24857,10.0469,7.1022,11.1561,-13.1746,7.7575,0.33509,-0.42446,4.1612,0.049839,2.7393,
-13.1209,-5.7759,-4.438,-6.0329,-2.1251,3.7837,12.4151,-22.0251,4.8819,4.1714,-3.773,7.2859,-2.8452,1.1291,
-12.3335,0.83702,5.9512,1.0777,-1.9979,10.3053,21.7932,-13.4726,4.1067,3.921,6.094,9.259,5.0382,10.2201,
-9.9064,6.3305,2.943,2.7001,-0.19093,10.8921,18.3164,-4.7106,-5.5398,-5.7142,-0.77922,3.6419,5.941,3.5812,
-3.0455,4.0223,-6.8748,-1.8002,7.5333,11.6849,13.8429,-7.3205,-6.1713,-2.4793,-5.0708,2.9412,8.4766,-1.9363,
-3.5859,-1.2805,-11.0416,-3.3796,7.8044,8.3325,14.2174,-14.3528,-2.6677,0.32082,-1.6333,4.9339,7.7271,0.83119,
-1.2014,-3.3728,-5.7996,-3.4176,2.2747,3.7349,21.8003,-9.3941,-0.33827,-6.6881,0.15171,1.9868,5.0943,4.8789,
3.6912,2.1322,0.33296,-2.2485,-3.6461,5.4393,25.7949,-8.3483,0.16419,-6.7687,-0.33909,-3.917,3.3426,2.1758,
5.1569,4.6555,0.55384,0.055503,4.5263,7.7639,23.524,-15.8012,-0.087201,3.0373,-1.0422,-0.066663,2.4188,-0.60594,
5.5709,0.27888,0.27975,-1.1525,11.2447,3.2008,21.3897,-10.7557,-1.2867,0.20384,-1.2205,0.17842,4.4432,2.0816,
6.2006,5.0823,2.191,3.2546,1.4106,4.9368,16.2496,-1.916,-4.1019,-6.0752,-2.5935,-6.5811,5.6225,2.9207,
2.9362,9.116,-2.2786,0.16736,-6.3867,11.8718,13.3468,-11.4414,-6.2658,2.0026,-5.8122,-5.7039,-1.4634,-4.9672,
0.34967,2.7842,-4.5525,-3.6993,-4.5574,9.2311,12.0636,-20.8785,-2.0337,4.7743,-2.0892,-0.54145,-1.8578,-4.6694,
4.4263,1.4121,0.30018,1.5841,-1.6327,5.544,10.1347,-13.6,-1.1885,0.39048,-1.2407,5.0347,2.3511,0.19029,
2.9554,-1.3239,-3.3333,-5.0184,0.15252,3.5241,8.3216,-14.4713,-6.6608,4.9466,-8.6381,10.2762,-1.8874,-2.4722,
-1.5607,-2.2086,-7.9537,-6.1636,2.0716,1.384,5.4119,-18.4237,-3.3691,2.7216,-4.7454,2.4285,0.63601,0.086237,
-0.7437,2.5034,1.4415,-1.2145,-0.70383,2.5062,5.8103,-16.113,-1.4798,-11.5417,1.083,-11.8172,8.5518,2.7326,
5.3269,4.5226,8.3449,-3.7927,1.0256,5.0074,16.7899,-12.9766,-6.9346,-12.1748,-4.0437,-6.1667,6.8336,-1.5287,
8.1406,5.4563,1.3365,-2.842,6.9899,5.912,22.7726,-13.4031,-7.7236,-1.5621,-4.5237,2.6394,3.7723,-1.6782,
3.5548,1.0316,-2.8413,-4.3587,3.9189,5.3164,17.7908,-14.7685,-5.091,-4.6019,-0.15496,-4.0269,6.6792,1.0736,
2.8593,0.48754,4.0781,-4.097,-3.0649,4.5152,19.1333,-9.5438,-6.2316,-7.7002,-4.4842,-8.6057,5.3144,-2.365,
7.0261,5.2788,10.5819,-1.9234,-2.3991,8.1007,21.8417,-2.7047,-7.7859,-1.9358,-9.5178,-3.2692,0.1748,-7.0438,
12.6303,8.5777,8.26,-1.5668,6.1808,15.0867,19.3261,-3.7475,-6.5956,4.6881,-5.8135,-2.8318,0.88767,-4.4518,
4.4005,4.9295,-0.18959,-0.26727,-4.0722,3.8174,9.7306,-5.2096,-4.9948,8.9863,-2.3314,-6.2773,-0.37066,-1.5334,
-6.4689,-4.0433,-5.963,-5.0724,-17.9279,-7.9813,1.916,-0.55872,-4.2132,6.5189,-4.6017,-3.0086,-3.7231,-1.4414,
7.8988,6.3224,-0.3026,1.0167,-12.8753,6.5976,4.2114,0.4389,-2.032,3.2355,-4.8077,2.4745,1.8029,-0.87274,
15.6198,16.5484,-0.28421,7.2225,-7.2823,20.3017,5.8871,-4.8899,-2.8741,0.14909,-5.4834,-0.56622,2.1769,-4.1951,
6.7291,15.3143,-1.9542,-0.68244,-20.9454,33.1836,7.2209,4.8038,-1.9786,-1.0649,-4.9132,3.5653,-0.12285,-2.2559,
8.0123,18.4925,7.5629,0.56357,-33.5477,34.6873,6.0645,14.8792,-3.5473,-0.27789,-3.4133,7.4485,2.0534,-1.8798,
12.5931,19.5524,7.3503,4.6273,-25.0267,28.509,-0.80709,7.4787,-4.0576,-0.020025,-2.0034,0.97631,6.9919,-11.649,
1.2322,12.1127,-7.1907,-2.3992,-21.115,23.9059,-5.0972,0.76348,-1.8859,-2.9116,-1.8832,0.9175,4.162,-16.2527,
0.43534,12.1088,-5.434,-2.4962,-19.6071,26.5689,4.1265,6.7432,-2.4957,-2.0137,1.3628,8.3345,1.261,-4.9134,
9.8092,13.07,5.7386,-2.1055,-17.2254,23.288,9.4229,10.9184,-4.0332,5.5789,2.0044,9.0397,8.1752,-4.8596,
4.4006,11.3217,5.394,-0.050733,-20.0485,22.8548,5.9653,3.0327,-3.309,13.9215,-2.9364,5.605,9.6131,-13.7268,
1.4851,12.8111,2.4193,1.6391,-15.7121,23.1708,10.1866,-5.1035,-2.3876,16.2192,-5.8937,3.0991,1.0824,-9.288,
4.5292,10.8374,3.4792,-2.0745,-15.0105,15.7547,7.888,-3.1103,-2.0031,15.9692,-8.6733,2.6724,-2.598,-8.4898,
4.9804,7.536,5.4396,-3.1553,-20.6174,18.4249,-3.4311,-3.6466,-1.16,13.8057,-7.4296,5.1632,4.0658,-14.97,
6.1276,4.1916,8.0055,-0.073675,-20.8268,18.7654,-2.7435,-12.1047,-0.12634,7.675,-4.5739,5.8175,9.1243,-14.0718,
9.1344,5.8683,4.6327,4.7515,-11.8645,5.5879,11.4008,-4.148,3.7376,3.84,-1.8893,8.3605,8.5768,-6.4788,
5.9352,5.2752,-0.70652,-2.5235,-9.9473,5.4941,8.0657,0.68063,5.2006,-4.3441,2.3218,3.2796,7.3393,-2.9564,
2.2046,3.5124,5.1205,-4.3003,-9.8324,19.2644,1.7967,-9.0012,6.8168,-10.8324,7.9671,-4.148,13.6474,2.0413,
-4.4353,4.0248,5.5364,2.9474,-9.4836,15.3365,5.3046,-9.6662,3.2745,-8.9771,1.4633,-2.2119,9.6953,1.1957,
-3.6871,4.7474,4.722,0.36064,-11.8069,0.91922,4.9861,-4.2657,-3.1887,4.095,-2.4806,6.116,-1.4915,-3.6966,
0.63174,4.2214,5.1618,-7.133,-11.8216,11.2282,-0.85649,-10.5175,-8.0588,13.7314,-1.6087,4.0615,-2.607,-7.09,
-2.2987,1.558,2.9239,-6.2231,-6.2916,13.9289,5.9438,-6.512,-2.7546,15.3177,-1.9945,3.3359,9.1185,-5.2183,
-6.2581,2.6698,-2.7951,-0.30612,-9.5295,-1.0068,10.1665,3.7607,-2.3484,11.2651,-3.5621,7.2331,6.8842,-7.5568,
-1.3029,9.0171,4.8444,4.292,-12.5732,3.9946,2.5671,-5.865,-4.8586,10.3483,-5.9995,6.5582,-3.4108,-9.7545,
-0.98374,1.0043,7.6872,-6.3294,-13.506,14.6012,0.72581,-17.3232,0.012249,5.1481,-11.665,-1.3071,-4.4114,-3.6256,
0.28012,2.1493,0.71804,-6.673,-8.1164,5.7709,11.5281,-3.0274,4.5908,-0.22248,-9.7603,-1.4697,0.91493,6.9558,
5.0838,12.143,-3.6636,-0.48826,-2.3265,6.3887,13.7287,4.8668,-4.8439,-5.0301,-7.7287,-2.3456,2.788,5.5744,
7.6713,12.8611,2.3408,0.98729,-2.1869,18.5389,8.0847,-3.138,-4.0709,-8.1023,-4.3724,-7.0251,7.9234,3.3117,
3.8363,3.8945,4.1288,3.8203,-12.6608,11.1598,-0.11339,-10.6623,1.9582,-7.134,0.22847,-13.3525,8.4121,5.0414,
0.95505,-2.8471,-4.5546,-2.9164,-9.25,5.429,5.437,-8.3353,0.6354,0.76588,2.8663,-7.4899,5.7382,5.9438,
-0.30754,0.45724,-12.2355,-7.3211,2.1512,5.8262,7.28,-0.36338,-8.8027,4.8173,-3.8136,-0.53303,5.6349,-2.3666,
4.7724,9.8296,-4.5118,3.4822,-3.0393,11.02,5.1562,2.7917,-5.6232,14.8923,-3.344,7.9349,10.3582,-4.394,
3.0402,1.0451,-2.3124,-2.0289,-16.9569,2.646,1.9543,-11.4758,1.945,17.8552,-3.6249,8.4231,4.9165,3.1005,
4.0631,-1.1868,-1.4508,-0.21992,-5.4549,-11.6128,4.9705,-9.9437,5.9256,11.7222,1.6538,5.2666,4.3805,13.7607,
2.1321,-0.39266,-2.569,2.4444,-1.9946,-25.016,5.3952,3.4274,0.99082,4.5114,0.8317,-5.8956,3.3943,5.9452,
3.6912,1.8003,-0.72742,3.9847,-12.2386,-37.615,14.4717,-0.87582,5.5109,9.7841,0.54061,-9.1573,4.8781,2.9372,
3.2285,0.96914,-3.3351,-0.3515,-9.8173,-49.4581,14.3265,-11.1874,6.3853,-1.1671,-3.107,-9.331,-2.8866,4.9303,
3.9991,2.3572,-0.24293,-2.7405,4.2691,-60.5906,3.3436,-8.5879,3.1097,-6.3992,-1.9567,-8.7712,-6.0876,4.1526,
1.59,3.903,4.8333,2.4851,-3.9408,-70.0911,2.902,-6.3854,-0.2104,6.2768,1.2942,-10.414,0.3034,-0.67631,
-2.603,1.4995,3.8202,1.6129,-14.5508,-65.1627,13.5739,-8.1717,1.9716,11.4436,0.49338,-3.7639,2.9361,1.0513,
-7.9902,0.68637,-2.4348,0.79298,-4.7595,-64.386,13.4826,-3.1019,3.0584,5.6955,0.70497,9.7188,0.59097,4.1219,
-10.8852,-1.283,-6.627,-1.6647,-0.13558,-58.1127,6.8891,-4.844,0.46475,7.282,-0.30165,11.5458,2.4837,1.464,
-5.6528,-5.3034,-1.6497,-8.5547,-7.5992,-48.118,8.6453,-8.1687,0.67783,12.8711,0.92174,7.2376,3.54,4.5096,
-4.5905,-7.6365,-2.7562,-7.8002,-8.8303,-44.508,9.3317,-0.20658,0.87836,6.073,-0.82102,6.0802,-3.1801,5.9265,
-11.3047,-10.3116,-13.919,-4.199,-5.1672,-42.0787,1.2997,1.9748,-1.3437,-0.31714,-1.9768,6.9205,-1.3023,4.8478,
-12.3139,-6.5596,-11.8786,1.1144,-6.0622,-36.4205,-2.8758,-4.1691,0.42389,2.8351,1.7574,6.7465,8.1756,6.7259,
-1.4519,0.58264,0.88545,5.868,-4.7344,-29.4148,4.5273,-5.3654,4.2551,4.1111,3.098,4.8952,5.2747,1.0199,
5.6253,-2.1036,5.8938,1.4188,0.6111,-24.9986,10.2815,-1.4278,3.7586,0.73114,2.189,2.4325,1.343,-6.5129,
-0.73825,-2.7003,-2.896,3.0205,0.33347,-19.4013,7.0135,-0.13732,-0.082366,-1.4819,3.7449,2.0456,3.4316,0.38538,
-9.1294,-0.85131,-13.568,4.5267,-4.748,-20.4064,4.9057,-0.85175,-3.6926,-0.66984,0.86888,2.646,0.57484,5.9061,
-6.1715,-3.2104,-7.4515,4.737,-0.12479,-25.4485,10.8779,0.64515,1.8316,2.7448,-0.62951,7.3075,0.54035,2.1773,
-4.5962,-6.151,-0.97866,3.7297,2.0521,-22.7166,10.9483,-7.3471,4.373,-4.8919,1.0957,4.2177,4.605,2.2874,
-8.6589,-4.3359,-5.7407,-2.7604,0.96486,-12.6767,7.3991,-5.9421,0.25402,-12.7929,1.5117,-1.3378,6.2572,6.4887,
-12.4779,-3.5936,-7.3242,-2.1126,0.90674,-15.7725,8.8836,-0.2832,1.2029,-3.8304,-0.50699,1.6348,3.9533,3.2071,
-15.5857,-14.9474,-3.5107,-0.058111,-3.486,-23.9852,8.3501,-13.2816,6.9153,-1.1909,3.3798,5.3931,0.8236,-2.7699,
-11.0353,-13.8096,-2.0948,-0.29536,-3.518,-13.6282,10.0185,-17.5462,11.0799,-4.7346,11.6129,2.9001,5.8361,2.4577,
-5.7932,1.119,-6.0665,1.4094,-5.9578,-8.7129,8.6943,-6.6112,2.4616,-5.6556,6.3366,-6.6737,4.2809,2.5515,
-2.7945,7.6803,-4.9796,0.6019,-9.2162,-14.6979,5.5215,-1.1534,-1.7839,-6.0392,0.89476,-7.9605,0.89052,-3.6272,
8.2192,9.3884,6.1655,1.7708,-3.1194,-10.6828,6.3953,-6.6275,0.97443,-7.3643,2.5285,-1.939,0.11396,-3.1688,
16.6441,16.2969,8.929,-0.022632,5.5034,-0.15985,8.6627,-8.8814,-5.5915,1.9956,-5.0954,4.2029,-3.0264,-2.7377,
9.1375,17.4887,-0.042854,-1.2266,1.5578,2.5011,6.9381,-6.6613,-6.4613,15.9759,-8.4047,8.0481,-5.9778,-2.8144,
-0.0874,9.6905,-0.52222,3.6677,-9.1405,-5.8437,3.1473,-9.1537,-0.28906,4.0508,-6.9365,4.1907,-5.6191,1.2108,
1.6051,3.0835,8.9091,-2.0959,-1.6026,8.6069,7.0558,-5.4715,-4.3691,-10.2922,-9.1714,1.7701,-2.6309,-0.067113,
1.0268,5.791,6.4464,-3.4164,7.1706,22.1905,10.007,0.64187,-10.3734,-7.3848,-4.2824,3.1102,-3.4369,-7.7754,
-8.9172,3.2739,-6.7149,0.8859,-4.1059,34.9591,3.8629,-5.9046,-7.5819,-0.43424,-5.2307,3.1645,-2.0259,-7.5498,
-6.6947,-1.0196,-5.1069,-3.7468,-6.0285,46.9615,5.8001,-10.6118,-2.0655,-2.5776,-9.4964,6.5899,6.0497,-1.5535,
-0.26769,-0.7177,-3.1135,-7.1372,7.1075,58.2438,6.6571,-6.3599,-7.4854,4.0848,-4.8295,1.133,4.9636,-7.968,
-3.8668,1.4947,-5.0956,-5.5039,4.5116,68.8492,4.0888,-3.3269,-9.2052,8.9016,0.52219,-11.2273,-1.36,-11.1051,
-4.5989,2.8511,-2.8615,0.12924,-4.9179,78.8183,8.182,-6.0196,-3.8324,0.17258,-6.2578,-11.5177,-4.1703,-5.6183,
-0.94852,2.68,0.20229,2.5316,5.0182,88.1892,8.6554,-8.0686,-1.6743,-2.2479,-9.2568,-6.4879,-0.54606,-6.2455,
-6.1945,3.9653,1.6362,1.4152,11.4658,95.1899,3.7971,-8.5486,-2.5379,-3.5595,-1.4708,-9.4733,2.379,-9.245,
-14.2585,11.1991,1.297,8.3201,2.3421,93.0939,5.2565,-4.9026,-0.69843,-9.3715,2.7148,-5.7714,1.031,-2.6648,
-10.0288,6.1886,-1.1911,5.4106,-0.69114,87.0261,9.2796,-5.5726,-1.6206,-3.5068,1.5878,7.1081,0.0050093,1.3513,
1.4192,-0.69015,2.0138,-1.9035,3.9301,68.0662,3.1792,-9.3355,-6.1027,0.80098,-8.3894,9.8151,1.6924,-0.8985,
2.2982,1.2797,8.1597,1.5849,4.6584,61.0899,0.57859,-0.58048,-8.6293,-9.8521,-12.2246,2.4776,4.4831,0.60144,
-0.73223,3.1306,6.2239,5.3462,1.9683,67.5475,11.1487,7.6491,-8.1115,-8.2972,-0.40432,5.221,7.1062,1.0468,
1.7221,1.0148,2.4762,1.1693,-0.55972,62.531,8.5518,-3.8969,-10.999,-2.0145,-0.37937,5.3899,2.8237,-7.2105,
5.9573,1.4361,7.1481,-0.82927,10.0789,58.2969,1.772,-7.5197,-5.5186,-1.8934,-4.2132,-0.71833,5.0642,-5.3318,
0.53817,-2.2655,-0.75255,-3.9125,11.6434,55.0401,0.46036,-2.0068,-2.5359,-3.949,-4.2014,-9.5928,6.4475,-4.7705,
4.6035,-0.44255,-3.8407,-1.9908,0.58066,49.5683,2.6021,-1.1633,-3.5893,0.38509,-1.7804,-0.58183,4.3737,-9.5462,
14.6913,3.6816,3.3794,-1.6306,0.78701,46.3535,-1.1696,1.0759,-5.0609,-1.8069,1.9421,5.9608,3.8701,-9.2141,
17.1843,6.3527,4.6229,0.87781,4.5962,46.4643,-2.5457,8.7241,-7.1679,-7.9655,0.86124,-6.4479,1.7097,-4.8053,
23.3839,9.3463,5.3096,2.7531,2.8744,45.6049,2.9099,12.5392,-1.4349,-2.6671,-1.6008,-1.7225,2.5712,0.30392,
19.3297,5.652,-0.070614,-6.8121,1.0147,37.8069,-1.3621,2.8688,-0.62547,-1.7837,-5.1197,6.8165,1.694,-3.8117,
13.5902,5.5539,-3.1994,-8.0906,5.0512,34.8156,-2.0037,0.52751,-5.6496,-5.774,-3.6077,3.2745,-0.094851,-10.0909,
17.8367,5.9437,1.5721,-2.0613,2.0968,34.4137,-2.1242,6.0392,-0.73113,-1.8124,0.22442,4.765,0.15204,-7.798,
16.0431,1.4898,0.272,1.1954,-2.6088,21.9845,-6.5765,-0.34866,-0.92869,1.9118,-3.4049,1.8276,1.3477,-9.0178,
14.1165,0.91822,-0.70796,-1.2862,4.7788,16.3273,0.56677,-6.5945,-3.7648,-1.0952,-3.6823,-4.5484,3.6772,-7.9946,
14.9567,2.0684,4.8781,-7.717,7.6251,20.8913,-0.19014,-3.5477,-0.88781,-8.0194,-2.7385,-2.1063,1.2874,-3.8995,
14.7822,-0.2253,4.8264,-7.4949,2.5883,15.54,-3.3122,-0.6833,-2.0398,-10.1898,-7.1535,0.67116,-2.8876,-7.7629,
19.6801,-0.69349,4.0547,-6.0811,4.8434,12.1977,9.9022,-1.1245,-1.9172,-3.3112,-4.7958,1.5954,1.1423,-9.707,
20.4275,3.2045,3.3295,-8.1264,7.4448,17.2504,9.79,-0.093131,-3.2484,-6.9694,-1.1341,0.53539,3.0019,-6.7149,
14.1401,3.7351,2.4063,-7.3978,7.2391,16.9383,-3.09,6.4204,-0.88438,-16.9151,1.585,-6.0047,2.5808,-4.1428,
12.3279,-3.2374,3.2263,-6.954,5.359,11.5837,-2.4226,-0.71373,1.5788,-11.0799,5.3468,-5.6444,2.9079,-4.8581,
15.4446,-1.5974,5.4428,-3.1623,3.1092,11.8525,3.9897,-11.7577,1.0021,1.1545,5.026,5.7815,3.6978,-4.5667,
10.9023,-2.2242,3.9112,-7.5521,5.0916,9.9363,3.0272,-8.4009,-0.26304,1.326,1.5912,8.5679,3.2347,-2.6052,
3.4997,-6.9115,5.1228,-6.617,5.2685,1.6274,3.3275,-0.18407,0.23467,0.28254,0.53137,7.0899,2.0768,1.4075,
-2.2539,-4.8095,5.0564,-1.1583,-5.8939,-3.0496,5.7794,-0.89638,2.8721,2.4348,4.5968,7.3874,2.6751,1.0821,
3.9069,0.058312,3.0658,-2.2941,0.48531,3.159,10.4939,-5.9043,3.4227,1.0834,5.5263,4.2931,2.2736,-2.5987,
8.7341,-2.1143,1.677,-3.8437,12.7487,8.995,7.6951,-5.3086,-3.7721,-0.18646,0.13306,3.7945,3.3425,-7.0221,
4.8354,-4.8798,1.5761,-6.9873,9.091,7.9731,4.823,-3.544,-6.9204,-5.4782,-3.2491,7.423,7.48,-8.0468,
5.9915,-0.24821,3.4098,-4.6399,4.6897,7.4952,5.016,-6.2235,-2.6488,-12.3798,-3.5361,2.1574,5.5854,-5.1539,
12.1398,0.97175,4.8922,-1.2282,9.9517,11.1426,5.9201,-7.5375,-2.2487,-4.6474,-3.5652,-6.408,0.67076,-3.1572,
10.6885,-2.702,4.3577,-4.288,10.0775,3.4842,9.1803,-5.398,-4.7653,2.1389,-3.5922,-8.1931,1.8354,-3.6911,
6.6727,2.2804,3.1324,1.7543,6.0988,-2.0271,5.737,-6.5204,-2.5507,-1.3634,-4.8229,-4.3266,1.7252,-2.5053,
9.4058,6.2409,3.1854,4.3002,9.8302,9.4227,5.1518,-7.8164,3.1455,3.2977,-1.8825,3.8867,1.3807,1.7424,
8.1181,4.6616,3.7172,-1.0195,7.5532,10.0622,10.3863,-8.5523,-1.6226,-0.5156,-2.0105,1.4839,0.575,-1.4957,
1.8467,2.9359,7.8327,-0.95813,3.2439,-2.5924,4.9427,-6.1112,-8.2739,-13.9822,-5.2641,-11.6203,-5.2443,-6.7083,
-0.6747,-1.579,10.2552,0.063221,6.4232,-3.4012,0.30777,-2.852,-5.3673,-11.6971,-6.3945,-15.7438,-4.4477,-5.8239,
-3.0441,-2.9303,5.3014,1.0235,3.6275,-1.7511,5.5917,-7.5013,-4.0812,-2.8003,-7.9388,-10.9426,1.604,-2.5822,
-7.9234,-2.9957,1.85,0.23898,-2.6155,-7.1894,1.1586,-14.0414,-6.0057,-7.6937,-5.7755,-6.1884,2.7128,0.22407,
-14.4376,-4.021,3.426,2.394,-5.1099,-4.1072,-5.9005,-8.1374,2.3086,-7.9552,4.9352,-4.6121,3.2731,2.862,
-19.5969,-5.467,2.4976,-0.4007,-9.383,-3.1374,1.4434,-2.5875,7.2318,-2.4167,6.8082,-7.4688,4.2821,2.4493,
-12.1544,-3.2105,2.8299,-4.2333,-3.9991,-8.2515,5.6953,-6.7703,2.4593,-3.7177,0.61536,-10.8768,4.0249,1.8201,
-2.0251,-1.3307,0.49046,4.9388,8.051,-6.5516,-1.6363,-8.5337,2.0708,-3.7356,1.7833,-6.6093,2.5781,1.9519,
-3.3498,-2.6971,1.9073,7.0526,8.5318,-1.3378,-0.57422,-6.0935,3.8747,4.6832,5.5327,7.2851,5.7979,4.7273,
-9.8978,-6.8736,2.7567,-4.4578,-1.6211,-5.1139,2.8347,-10.5482,-4.5525,2.9564,-2.5121,6.848,4.9681,2.0335,
-5.9294,-2.1229,1.6275,2.5586,3.2969,-7.2172,8.4496,-4.1307,-3.3154,-1.5593,-3.3252,2.0988,9.9726,1.4291,
-8.225,-1.2724,-6.9061,3.1282,4.7861,-8.9536,5.7728,-4.1241,-0.94713,3.5953,-1.9206,7.9982,7.2049,0.62026,
-14.9619,-5.0524,-8.4199,-4.2903,-3.6958,-8.4164,0.12426,-12.0713,-5.711,9.1646,-4.2155,12.8209,-2.8684,1.5474,
-11.1721,-9.57,1.2443,-4.5153,-3.9565,-6.9475,-1.3295,-8.9369,-4.8864,2.8297,-3.4807,6.749,-0.28614,5.3109,
-8.3322,-4.898,5.267,2.2635,3.2713,-7.7355,4.7763,-3.8209,0.46891,-1.9189,0.3436,2.2467,9.6134,7.1619,
-12.412,0.93907,0.37169,0.9229,7.1719,-7.0304,8.1047,-12.0278,-3.1751,-4.4554,-1.8462,-1.0216,5.9031,-0.7401,
-2.0265,-0.5633,5.1699,-4.9173,14.9365,-2.7524,10.5107,-8.4139,-3.4663,0.15052,0.19256,-0.4781,2.1747,-3.588,
7.4953,-1.2526,6.0647,-3.8991,12.8352,-5.7205,10.1213,-0.91939,-7.3559,-2.9922,-4.8804,-0.69061,0.83871,-4.0958,
5.3581,1.4738,1.1213,-1.4962,7.4856,-7.0643,5.4164,-9.3001,-14.3866,-10.2843,-13.9878,0.073958,-2.8268,-9.3935,
-0.024355,0.18035,0.81332,0.28099,7.7596,-4.9534,0.51236,-11.8749,-7.9796,-8.4622,-7.1223,1.757,-1.9341,-6.6605,
-0.98745,1.1336,-0.68196,6.0485,5.848,-8.5124,4.8197,0.40651,0.69416,0.24051,3.4277,1.6513,3.4844,3.8618,
5.8209,0.10151,-2.569,5.2039,10.7995,-5.5913,11.7616,0.38234,1.1347,1.6721,4.1861,5.8908,6.65,7.9687,
2.8201,-8.3407,-3.1382,-2.0982,10.8745,-3.569,3.5836,-13.7406,-5.9233,-3.4899,-4.0188,9.6347,1.6713,1.465,
-11.4491,-10.7323,-7.2883,-1.008,-3.7573,-13.4778,-8.6825,-15.9294,-4.1216,4.4327,-2.8133,9.0566,0.12473,3.3053,
-21.9698,-9.8472,-11.9129,-3.1169,-11.9678,-17.2487,-9.3666,-4.6095,-1.2235,10.674,-1.4395,5.38,1.3223,5.7583,
-11.2517,-6.1233,-1.7981,-1.2427,0.078505,-7.7781,1.0773,-1.1995,-6.6937,5.9362,-6.4148,5.7801,-2.372,-0.61274,
-5.5149,-3.5863,8.6741,4.3755,7.0637,-0.3215,9.9308,-6.1887,-3.1586,1.4827,-4.3427,2.7822,-1.5068,2.5575,
-10.2457,-2.1663,2.6101,7.2464,2.5425,-0.060786,6.2014,-2.6844,7.8772,-3.6675,3.3897,-8.231,5.0916,9.3935,
-5.0514,2.0613,1.2484,9.4625,2.6307,-0.29833,-1.6422,3.0201,8.6096,-6.0992,4.8733,-11.3523,8.4013,8.1067,
-3.0611,2.1786,1.4145,4.3155,-1.6245,-10.1624,0.14353,0.18777,-2.7532,-6.9381,-3.3728,-6.0919,1.8716,-0.81534,
-9.8673,0.36061,-0.35764,4.7795,-4.1781,-10.276,3.7503,-1.0283,-2.829,1.9143,-2.9295,6.5661,1.0365,0.9208,
-17.2292,-11.4714,-7.8078,-4.4251,-3.2048,-6.5262,-5.8749,-7.4748,-3.3824,5.4147,-2.9949,8.8235,-2.1595,-0.8219,
-9.2054,-7.6494,-2.2778,-3.4365,5.9058,-7.3397,-1.4248,-3.4107,-4.8664,6.2948,-2.574,9.0172,-3.2349,-4.8697,
-8.6533,-0.92414,2.1974,1.1078,2.6592,-8.8277,-0.37525,-5.6164,-6.9848,5.435,-5.3119,7.5116,-4.0049,-6.9879,
-19.2213,-7.6171,-3.719,-2.3327,-6.6594,-8.2976,-6.6197,-8.6538,-3.1912,6.5551,-4.0288,2.2407,-1.3545,-0.78403,
-19.2731,-4.0269,0.11929,7.6894,-5.5367,-11.4154,-2.1249,5.6039,3.9899,14.1158,4.6488,2.8293,5.7164,10.109,
-18.5986,-4.7496,2.0403,0.9611,-8.097,-20.8534,-1.5155,-0.99882,-6.3724,5.0737,-3.8253,-2.1611,-0.89311,-1.1028,
-12.6622,1.3202,4.8102,-0.5426,0.58372,-11.8896,-5.2807,-15.0389,-3.5802,0.43072,-2.1498,-7.3339,0.60651,-1.5183,
-12.6256,2.4461,1.3883,9.3721,1.7538,-2.7399,-5.2046,-8.4722,9.4093,4.0205,8.3438,-12.9192,9.4884,8.9369,
-13.0732,-5.6547,-0.38243,5.6761,-2.449,-4.7453,5.4713,2.3997,8.6036,4.5024,8.5658,-4.6729,13.0162,5.7489,
-8.4326,-1.9412,1.087,4.3714,2.0364,-0.60399,9.9635,-2.5647,6.6413,-1.5525,6.6059,4.7667,8.861,3.9579,
-13.2291,2.0319,-9.5837,3.627,0.95016,-6.8345,-1.2394,-4.8212,10.5809,-13.9926,8.6199,-9.0168,3.5089,9.9872,
-16.5327,-5.0799,-14.0699,1.7226,-9.4707,-16.3064,-10.0831,-3.3266,10.6694,-8.0914,10.2718,-13.0551,6.9138,11.0752,
-10.2383,-6.703,-2.1387,6.4397,-10.8309,-11.4714,-2.729,-3.6092,7.6189,6.4941,8.2095,1.8282,11.3194,6.5545,
-9.624,-6.3009,0.8821,3.6432,0.90619,-10.7831,6.1114,-4.3565,3.3054,6.4659,5.3063,1.1161,6.7839,2.7868,
-9.7697,-4.7177,-1.8221,4.1473,5.9133,-12.7874,8.878,-2.8901,4.3121,3.4266,8.6036,-8.833,7.1,1.8964,
-11.3527,-6.6038,-1.9538,4.6218,-2.3953,-8.8871,0.39157,-1.5114,5.7406,8.7646,7.8464,-0.83126,9.807,2.5056,
-12.5995,-9.0999,-0.39053,2.898,-6.5901,-7.3898,-1.078,-3.831,2.9858,8.7209,0.14456,8.3774,5.3624,6.6938,
-4.6129,-3.7334,5.4177,5.6169,-0.89182,-13.2127,7.1817,-9.386,-1.5314,0.0027244,-2.274,3.0543,-2.6723,4.8461,
-3.613,-0.37616,8.2259,5.5206,1.3306,-16.9999,3.617,-5.6896,-0.23446,-8.9157,1.4776,-9.4213,-2.2708,-0.98849,
-8.4577,3.2616,3.1528,9.2869,2.4558,-11.8823,-0.21517,5.0159,5.323,-8.6215,4.0403,-10.061,4.8551,0.75827,
-1.2015,6.9225,0.071376,10.6577,2.7907,-8.2771,7.5103,3.2689,5.4858,-1.8375,1.8694,3.0759,6.4922,7.4615,
4.8963,3.3739,0.79022,3.029,-6.2946,-8.0212,1.9987,-4.3988,4.4335,4.7805,3.9267,4.0968,3.4514,7.255,
-0.70032,1.2431,-1.6675,4.7753,-8.3273,-8.5041,-11.6188,-0.76064,4.6497,11.2423,4.6552,-1.4518,2.7621,-0.89334,
-3.7913,-0.036359,-6.6287,0.87333,-8.0686,-5.8246,-7.7882,2.4185,-1.1729,13.7013,-1.6497,6.1071,-1.019,-5.419,
0.051113,2.6169,-4.5442,-1.8306,-13.1281,-2.8241,-2.7416,3.9601,-3.7541,12.6378,-4.6842,17.0688,-5.0552,-0.99653,
-1.1568,1.737,-3.5482,1.4127,-15.9559,-10.6084,-6.1926,3.482,-0.39538,7.7826,-0.78772,10.0192,-4.029,1.7144,
-1.8105,-1.0185,-3.0946,0.60481,-14.7573,-17.9258,-5.5803,4.4777,0.35147,9.4846,0.94654,8.6949,-0.65403,-0.55789,
-1.4607,0.72957,-4.5959,-2.5647,-15.0769,-8.4139,-10.7888,8.3066,-4.2491,15.4232,-3.6893,19.5016,-2.7837,-0.76516,
4.6523,1.8909,-4.079,-6.026,-9.1109,4.8651,-13.2748,8.5314,-2.3067,10.8826,-1.781,15.1978,-3.8218,3.8603,
12.0859,5.1519,2.9142,0.1201,-2.2977,-3.6219,-7.1756,1.753,2.6519,-0.37562,4.1105,0.18594,-1.6643,1.2181,
12.5658,5.0839,3.4625,5.6563,-3.8468,-9.4304,-7.4682,1.4066,3.2159,0.85198,5.0689,1.5006,2.0508,-1.9883,
5.7861,-8.4777,-10.8452,-7.4573,-7.7136,-6.2133,-12.082,-3.7397,-4.931,3.9341,-4.1531,10.8103,-3.1337,-8.3767,
8.5726,-8.6922,-13.9302,-10.6251,-3.1532,-10.4195,-3.4031,-7.1305,-7.2865,2.493,-6.5552,1.2438,-5.597,-17.2739,
14.5658,0.74742,-6.105,-5.4083,-0.79486,-13.8922,-2.4756,2.2154,-0.82372,2.5844,0.82799,-0.99995,0.28242,-18.4066,
8.6304,3.8358,-4.5336,0.46006,-3.3985,-6.5509,-11.2449,6.18,2.3594,-0.70393,4.3935,9.9061,3.3987,-9.8306,
2.087,1.4365,-3.0563,1.6373,-2.9536,-3.5063,-2.1345,-1.1806,2.4588,-0.90266,2.9251,11.4813,3.4358,-3.6972,
2.9261,-5.8805,0.50153,-7.62,-5.1865,-11.973,2.8143,-4.4838,-1.0632,7.3467,-1.5888,6.4537,1.3019,-11.67,
9.7402,-5.2865,-1.698,-7.4035,-3.1883,-10.5315,-4.8266,-2.5278,-4.6146,6.6647,-4.1448,0.52307,-2.3919,-15.5494,
15.4225,0.81552,-2.0778,-3.5851,7.1266,-2.1866,-3.5725,-2.3759,-2.8917,-1.4482,-1.4857,-1.9187,-1.2843,-9.7959,
9.1945,1.2485,-1.4712,-7.7083,-0.049945,-6.3937,-5.2868,-2.7157,-2.2362,-2.8076,-2.8428,-0.35729,-2.1711,-8.2438,
9.6067,4.0657,0.062892,-5.3181,-12.5804,-5.5282,-10.2722,-2.5528,-0.17386,5.556,-3.1547,1.5923,-2.0413,-7.2673,
15.7792,7.1962,1.5058,-1.6241,-2.1846,-0.37579,-7.7272,-3.3635,0.8009,3.7764,-1.0367,-2.3596,0.4918,-8.2775,
14.5915,5.0772,2.1384,0.64253,8.7927,1.3335,-5.0944,5.7564,0.029947,-1.9938,1.6766,-6.7973,3.5958,-6.0936,
11.5466,1.1574,1.7689,-1.0835,0.7931,-1.3978,-8.8864,10.9544,2.679,3.1873,0.85284,-5.1849,2.6564,-2.1128,
15.4336,4.2209,0.45746,-4.6339,-1.4236,-6.3752,-7.1479,1.3791,2.2773,4.6833,-3.2957,-0.29402,-1.1179,-6.0834,
11.3743,4.6908,-0.77505,-2.6684,2.2774,-13.4647,-4.5501,-2.8008,-4.367,-2.5874,-5.7493,-3.4096,-4.6665,-14.1543,
7.3169,2.9631,5.056,1.83,-1.2337,-6.8722,-1.3846,3.6333,1.1976,6.7265,3.7543,-4.6513,2.8443,0.79497,
9.2883,4.7137,5.2348,2.2019,-4.0519,1.735,-2.266,1.4873,3.5361,9.2152,4.9755,0.44824,6.0479,14.8473,
12.8286,3.7078,7.0897,-1.0634,-0.67557,-5.3587,-4.7809,-1.7352,-3.1838,-5.4377,-1.3488,-1.748,0.62359,9.1357,
13.7458,2.7622,11.2438,0.68782,0.088091,-7.2066,0.56737,6.3229,2.0687,-13.1855,5.7218,-7.1865,3.7194,9.7931,
7.6189,2.1145,2.8569,0.64655,-1.3635,-0.5072,-0.91248,4.9797,1.9446,-0.34279,3.4507,0.95742,3.9787,12.58,
-1.0334,-4.2789,-5.0278,-8.0693,1.1285,-2.4054,-6.6428,-4.4786,-9.2593,-3.2147,-8.3259,1.8643,-5.4191,3.1481,
5.2953,3.6904,4.4332,1.0921,8.7738,-2.7428,1.9507,6.3956,-1.9551,-5.4322,0.85049,-4.9962,-0.27347,6.8158,
2.3265,3.228,-1.3764,1.2676,5.1139,-2.3373,-0.33547,8.1811,1.7777,-1.4909,2.4867,-6.8656,0.94823,7.6117,
-5.7673,-7.33,-10.2119,-9.1728,0.70968,2.8642,-10.6797,-0.74593,-2.4264,-0.67851,-5.1343,2.4639,-3.2065,2.0933,
-1.0824,-7.854,-2.8503,-4.2841,3.0772,-1.164,-7.1464,-4.5576,-5.1733,-5.4581,-6.7545,7.1368,-3.496,-0.44242,
6.6953,-3.5264,0.69516,0.79365,4.8212,-8.3246,3.4053,0.53661,-2.4523,-3.2024,-1.0465,2.3698,0.57013,2.4766,
3.401,-5.725,-2.721,1.228,0.19319,-3.0049,1.2728,9.1811,2.5151,0.84615,4.8008,-3.557,3.9104,7.6307,
-0.65941,-8.274,0.33432,0.19042,-6.0849,5.3706,-0.24937,8.1483,4.7748,-2.0971,6.441,1.4772,5.122,13.4394,
2.7546,-1.993,4.1706,0.17854,-4.274,-1.7005,3.6215,7.6594,4.4878,-1.007,4.6083,10.0652,6.2605,11.6687,
1.1431,3.4293,1.0283,6.4348,-2.5713,-7.8655,0.030237,8.1637,1.8084,0.49924,2.4036,0.78464,3.4747,6.1483,
-1.0947,-1.3558,0.24329,5.8077,0.23451,1.0426,0.75132,3.5765,2.9052,3.6028,3.9466,-1.914,1.579,6.5023,
-6.3316,-11.3978,-6.5198,-5.146,-1.7078,-1.9125,-3.1501,-7.7253,-6.4281,-1.916,-6.8955,3.0216,-7.6748,-2.5649,
1.2791,-4.447,-2.7546,-0.49893,8.0357,-3.7259,-2.4792,-0.99483,-3.6323,-5.6575,-4.0712,4.2865,-2.3936,0.48148,
7.951,1.1223,5.6056,4.8339,13.8203,-2.5383,2.49,8.2237,4.7806,-6.2821,6.2962,-4.6475,5.4626,10.0938,
10.1255,3.706,5.0283,8.1593,8.8933,-1.6626,2.5816,8.4531,3.2884,-2.2898,6.1594,-4.1277,4.4119,9.2467,
6.6255,-0.85465,-2.9861,-0.043064,2.5751,-8.7937,-4.8037,1.6794,-2.6935,-1.1881,-0.95907,0.9402,-1.6373,0.97916,
0.20263,-7.3106,-4.494,-7.5125,-3.1228,-8.9892,0.06406,-3.9647,-3.7365,-1.358,-4.0348,4.0175,-6.1186,-2.2124,
-2.9428,-8.5594,-3.5012,-2.9642,-5.5868,-1.9422,6.0855,-4.45,-0.37901,4.2673,-2.5876,7.3916,-6.4746,0.089284,
-3.7303,-16.2408,-7.1473,-4.2324,-4.2875,-6.1637,-8.2587,-10.4497,-1.3204,5.4573,-4.8423,3.092,-7.0503,-0.88017,
-3.507,-19.1227,-7.6828,-2.5322,-1.1377,-8.2045,-13.5482,-7.8945,-4.6156,1.7554,-6.9623,2.9065,-7.1092,-0.82736,
-6.9117,-23.0373,-8.9093,-5.5139,-1.3106,-9.8816,-0.443,-5.7339,-9.8825,-1.4831,-7.7496,7.3111,-6.9238,-1.9832,
-6.4973,-22.6187,-7.4106,-7.1111,-1.2322,-8.3246,3.9221,-12.6204,-6.8792,0.53381,-3.9104,2.052,-6.9906,0.54611,
0.15955,-10.1743,3.6393,3.4385,3.6624,-0.59429,2.2405,-5.1143,3.1745,2.43,1.6268,-2.8914,-4.6429,8.2266,
2.5603,-5.2258,6.3132,3.2324,9.7094,-7.7892,4.5165,6.2795,-1.3545,-8.3209,-2.3269,-0.78994,-2.9179,3.3944,
4.3344,-5.3942,2.0781,5.4486,15.8753,-20.3373,12.4402,7.831,-6.0935,-10.7137,-2.1878,3.1138,0.6312,-1.6299,
6.7259,-0.49078,2.6763,12.5935,16.1281,-14.5378,16.7555,4.71,2.2259,0.293,5.8977,-1.6523,4.6911,6.4221,
0.77877,-1.1847,-2.0636,6.7762,5.2785,-16.3166,3.94,-8.347,1.369,3.4089,1.9284,-6.1329,-0.652,5.3134,
-3.3653,-2.3189,-0.73493,5.1643,-1.0638,-26.1839,-1.84,-10.9797,1.5282,7.3017,0.12548,5.5633,1.0743,3.7893,
-5.5738,-3.1439,4.1296,7.7468,-6.3028,-24.1307,0.68075,1.7304,8.1852,4.9352,7.3486,10.5319,5.8304,6.4542,
-8.8545,-3.196,2.6773,8.0055,-9.0579,-17.6214,-2.4934,2.8316,6.971,-0.42191,6.185,4.839,2.8292,7.7544,
-8.8054,-6.3789,-1.8224,-0.18779,-5.6222,-21.3846,-0.41579,-3.1231,1.7322,3.4596,-0.93526,4.0665,0.73104,8.2532,
-11.1696,-10.3345,-5.087,-4.0329,0.49975,-24.9222,6.84,2.8494,-0.78228,6.6264,-2.3254,5.7507,0.68718,1.9735,
-10.017,-8.7501,0.52084,2.4756,7.7006,-16.1961,7.8759,-0.69606,-1.6992,0.44428,-0.73962,2.0312,0.64641,-2.0013,
-9.6574,-14.2511,4.1045,-7.073,6.9971,-12.0908,3.7874,-14.7543,-3.2845,-2.7159,-8.649,-0.74222,-0.11573,0.28745,
-6.9084,-14.1189,4.5816,-8.8177,6.3368,-13.0526,5.7298,-21.4616,-1.4002,9.2572,-5.9609,10.1486,3.0247,5.3323,
-7.6994,-11.1024,2.1373,-0.8171,1.859,-16.8489,0.8065,-6.0739,-6.8596,6.5329,-0.059389,8.3346,-3.6645,0.43289,
-7.9601,-5.3748,5.6248,0.43745,2.9525,-10.7766,-2.8571,-5.3477,-7.6531,-3.7413,-2.7071,-3.0115,-5.1316,3.0582,
-11.5801,-3.8473,4.5641,-4.1688,3.9804,-6.5143,-4.3731,-15.391,-6.9531,-7.6144,-10.0168,-7.4103,-3.1367,6.9719,
-13.2954,-10.3649,1.3978,-2.9543,-1.5606,-15.7644,-1.2182,-10.6111,-2.1972,1.5196,-3.6307,0.74706,-2.4666,-0.67683,
-8.6415,-8.7791,5.1705,6.8641,-6.7698,-19.1571,6.0855,-6.6002,8.0573,10.5872,8.638,6.969,4.4301,1.2917,
-12.7023,-8.975,-1.6472,-1.0195,-7.0865,-18.7306,3.5512,-15.604,3.4765,0.55197,2.0942,0.043356,4.4057,7.2398,
-16.5199,-9.6418,-6.61,-8.4302,-0.63578,-17.3658,3.5791,-11.5345,-1.3113,-0.20405,-1.1645,3.6562,1.0079,8.975,
-14.3234,-1.592,2.2222,6.1757,-1.8029,-18.0115,8.4256,0.96769,6.7211,13.9082,6.3767,8.0161,5.0448,4.3387,
-15.6334,1.1549,4.7402,7.6128,-5.3099,-15.7253,4.3048,2.1147,7.5229,9.5788,5.7534,-2.829,5.9471,3.8372,
-12.5263,1.327,3.2505,4.0226,4.8906,-3.4536,6.6981,3.1931,4.9023,-3.7704,4.6848,-8.2028,6.3132,13.9713,
-10.5694,-6.2244,4.2608,3.5402,6.2844,-5.4155,9.9112,0.83236,5.3311,-3.7852,5.1271,-8.916,4.7296,5.6612,
-7.5251,-10.6717,7.3796,-1.9748,0.60467,-15.6959,3.05,-6.9304,3.083,2.7085,1.9269,-7.4167,1.0714,-7.6939,
-4.4223,-4.0056,5.2494,-1.6151,-1.1186,-14.031,-3.1588,-6.2738,-6.0198,-2.9974,-5.1783,-3.3565,-5.0187,-4.099,
-6.5671,-1.8371,2.0423,0.89191,-1.5334,-8.8508,0.4052,-0.59472,-8.0687,-6.674,-4.8676,2.6295,-5.1995,5.306,
-8.8244,-2.9324,1.6786,1.5615,1.2094,-6.6328,2.0683,0.16409,-1.0773,-2.6583,-3.8524,2.2305,-3.2005,3.3006,
-7.3308,-1.3099,1.5781,2.4319,3.0653,-3.8245,0.49822,1.6007,1.3977,-1.0523,-5.0673,-1.2775,-4.9365,-4.1285,
-5.2037,-0.50843,0.76007,-0.36508,5.5329,-0.94344,4.0837,-0.18254,-1.8192,-1.7126,-1.6303,-0.47753,-1.5068,-0.74729,
-9.2301,0.96856,1.6786,4.9592,-0.10192,-3.7791,3.8385,-2.5819,-2.1922,-1.1276,0.87792,4.8535,4.8499,3.6361,
-15.184,3.0794,6.1574,12.6157,-14.1958,-9.5782,2.4031,6.0089,6.3752,4.4834,6.3691,7.6956,7.6926,4.623,
-13.0679,1.2076,0.72647,8.725,-11.2951,-12.1367,3.464,9.7455,8.644,5.9018,8.6378,-4.0941,4.5793,6.0326,
-3.8477,-0.55206,-1.4863,0.72969,3.4826,-7.7931,8.3178,-4.9393,1.1355,2.8962,-0.79807,-6.5,0.20716,8.3222,
-2.1708,-4.8575,3.4234,-6.5447,17.3736,-10.6997,7.8185,-17.7783,-5.1989,-4.5082,-8.4632,-1.2891,-5.1077,0.59226,
1.093,-2.8788,3.9409,3.248,14.6437,-18.012,5.6622,-2.6116,0.65617,-2.5505,1.4446,-3.3814,-0.70387,-2.5768,
6.8122,-1.2596,1.7765,6.9097,21.4781,-16.4491,7.7328,3.4501,6.8835,0.97677,7.6247,-6.5527,4.6412,2.3983,
8.8134,0.74394,9.8644,3.1205,24.528,-7.7496,10.1611,-6.88,5.5064,-6.3124,6.685,-7.606,5.3264,3.2185,
11.9,9.135,12.8884,7.513,20.4047,-10.8996,9.3105,0.5222,3.0069,-9.5491,9.4174,-6.9082,6.2121,-0.10807,
15.0421,5.2127,5.8483,1.2774,16.2882,-14.1022,3.9314,7.2395,1.3804,-8.0121,5.9601,-0.70939,3.9114,-8.2965,
8.5962,-3.536,2.8461,-5.7889,5.9107,-7.2303,-3.2946,-3.5589,-4.2462,-4.3981,-4.7621,6.3228,-4.7596,-16.7166,
0.84985,-1.8778,-0.21695,-4.9594,0.73599,-4.8681,-7.435,-8.6478,-10.2577,-1.2419,-9.7783,1.6054,-8.3302,-15.7133,
5.8601,3.2965,0.51896,-2.0107,7.1993,-6.7456,0.96483,0.30673,-2.1709,-1.4084,-5.0947,-1.6245,-4.6974,-13.0838,
6.473,1.1708,6.755,-1.4079,5.8037,-10.197,4.2816,-0.19338,5.6723,-3.7338,-0.93197,1.3658,-6.8254,-12.7805,
-4.5209,-4.2023,1.5288,-4.6981,-6.5963,-14.4061,-10.0753,-10.3049,1.4754,0.82835,-0.39434,1.2831,-9.3082,-10.5676,
-4.9723,-0.81649,-3.6244,0.16372,-5.9593,-14.2644,-18.2686,-3.1789,-0.30014,11.1427,1.7987,4.8218,-2.7239,-11.1386,
2.7976,-3.4193,-2.2019,-6.3538,-1.5042,-16.0599,-14.0392,3.5195,-3.4154,6.859,-3.8531,4.7737,-4.7299,-18.9062,
4.558,-0.80354,0.82277,-9.829,-4.306,-14.132,-6.4479,0.41631,-4.1743,-2.2296,-3.1395,-2.2616,-4.4461,-11.5048,
9.3459,13.3447,6.7987,4.8608,1.4958,-0.50984,6.2312,5.9347,2.1014,-0.8908,6.4487,-6.2235,4.2566,0.031015,
9.9902,13.3876,5.6677,2.5202,5.9851,-1.6843,4.1704,6.7837,0.28836,1.332,-0.44597,-5.127,-2.5065,-8.8887,
3.1243,4.3892,0.025416,-7.272,-0.64055,-9.2965,-5.7213,0.5921,-2.6215,1.734,-3.7937,3.3758,-7.1768,-6.4272,
-5.2581,4.608,-1.4226,-4.4257,-7.8327,-5.8464,-8.7522,-7.1564,1.3924,-1.2623,2.2188,7.5113,-5.2997,6.4917,
-4.4604,7.7062,1.0731,-1.7494,-2.5423,-2.6029,-7.2625,-2.8704,4.2012,5.0802,4.496,9.9534,-7.3921,6.5848,
1.5918,8.6896,-0.43753,0.28377,0.020384,-9.1956,-7.3092,7.4247,2.5029,12.4882,3.2619,11.2844,-5.5023,5.2254,
-3.5652,-0.26765,-4.5084,-6.2414,-6.9705,-12.7415,-9.04,1.4358,-1.2625,3.303,1.8611,3.6172,-1.0751,4.1888,
-4.5568,0.95347,-0.62271,-5.1438,-6.7934,-5.9512,-5.3644,-2.266,-3.3561,3.8279,1.0263,4.1233,-4.6257,3.6962,
2.7069,6.4399,-0.82631,-1.2193,1.5684,-2.9426,-2.8729,2.9317,-0.98562,10.1062,2.17,10.8658,-6.5174,9.0181,
-2.2764,-1.1771,-8.9717,-10.3054,-1.418,-8.5508,-8.9673,-0.61846,0.037617,2.2687,0.59335,4.429,-1.3058,9.4411,
-4.55,2.268,-1.6845,-6.795,-8.5638,-7.0739,-6.983,-1.0633,1.9636,0.20442,-0.40612,3.6814,-0.74556,3.572,
2.231,5.7473,3.4778,-2.2895,-5.8808,-5.9261,-5.8411,-2.2048,3.051,2.3613,-1.587,5.6296,-8.1726,-2.6679,
9.0865,6.1254,0.61806,-1.9112,6.2822,-3.8833,-9.588,2.0249,5.5191,-0.43146,-1.2509,2.6408,-4.0669,-1.7845,
5.1669,5.7578,-1.3472,-5.6529,0.60259,-3.1684,-9.977,5.2778,3.7417,-2.8162,-1.6577,3.4462,-1.8946,-2.1598,
6.3031,6.3767,5.4821,-5.3137,-8.5926,-5.3884,-6.0039,2.551,2.5533,3.6198,1.8162,9.9883,-4.673,1.8262,
8.576,7.6809,6.8404,-0.41561,0.35909,-5.7885,-9.7411,-1.6998,-4.1078,-0.21282,-3.3545,1.4353,-7.0442,0.029398,
2.2769,8.1843,3.056,-0.39067,8.5323,2.754,-4.8183,4.6691,-7.2354,-5.0208,-6.5277,-5.8817,-1.3189,-4.7926,
-9.9108,3.355,1.9083,-5.6699,-3.5488,4.0346,3.6655,7.281,-4.8731,-4.7195,-2.7615,-0.22612,-1.7217,-2.5769,
-10.0393,4.8407,4.9275,-1.714,-0.68459,5.48,8.5075,2.747,0.48078,-4.1952,1.5017,9.6696,-1.8596,6.4956,
-5.0984,3.5861,4.6316,-5.9497,8.0334,3.2227,0.76598,-1.7563,-2.4404,-4.4256,-2.445,9.5711,0.66234,4.6598,
-8.1667,-1.4495,-0.46677,-6.5569,-1.1255,-9.022,-12.7771,1.7233,-3.74,-0.78539,-2.78,3.2125,-1.7878,-3.3328,
-9.8459,-2.0855,-1.6441,1.3084,-1.2989,-7.7575,-6.9493,10.056,6.8483,5.2873,6.3044,7.1171,-2.4034,4.339,
-10.9423,-0.7555,-0.82251,-0.9393,3.3583,0.17998,2.8677,2.9447,4.7502,4.2467,5.2033,4.5209,-2.5002,8.6584,
-9.3217,3.6284,5.0116,-2.3294,0.74688,-0.31298,-1.6425,-2.5344,-2.2835,-2.7568,1.9988,-8.284,0.05975,3.8003,
-5.1472,1.7232,5.4341,-2.9128,-0.50345,-0.5354,-3.7133,4.6073,5.8075,-6.2066,6.4584,-7.0639,2.7075,2.8492,
-11.828,-6.3337,-3.8098,-4.425,-2.6422,-0.74401,-1.8035,1.1976,8.5923,-1.7371,5.3477,4.6884,-0.58822,3.8833,
-12.5644,-4.0257,-0.68893,-3.6774,-2.0015,0.26472,1.6794,0.16167,4.2201,3.67,4.5447,8.2632,4.2676,3.6505,
-8.4365,0.55462,0.79821,-1.0466,1.4926,1.2127,2.0606,10.7573,0.11053,-2.3347,3.7901,-2.3555,9.7961,0.057054,
-6.725,1.2442,-4.3109,5.5241,-2.2124,-1.0292,-6.0168,14.2092,2.2735,0.45644,1.3935,-1.9732,3.6647,6.0792,
-3.9114,-1.241,-1.6421,-0.59234,-3.5259,-3.86,-12.4047,1.3051,2.1366,7.1775,-0.61875,9.2325,-5.7142,12.9453,
-0.54323,-1.4075,5.4463,-5.1361,2.7117,1.4333,-5.1529,-5.7631,-2.0889,-1.2069,-1.7865,5.0631,-5.1304,4.6967,
3.5865,1.3283,10.181,3.608,7.128,7.855,4.0741,0.12653,2.134,-7.6422,2.9002,-5.6048,6.9878,1.7636,
4.3356,0.76664,8.6058,5.3197,3.8083,2.563,4.794,2.5291,4.4161,-4.7731,6.1007,-10.0892,9.461,4.0679,
2.3883,0.47968,2.5463,-1.025,-2.4458,-0.72381,5.7116,-2.202,-4.2845,-2.7995,0.67297,-7.7966,0.93964,2.619,
1.5221,3.5844,-2.1863,-3.6146,2.2807,0.042977,8.5024,-2.7928,-6.1966,-3.8368,-3.9467,0.14343,-0.32157,0.29272,
3.6001,7.4669,-1.8139,4.5558,10.5793,-1.1651,7.7511,4.8464,3.093,-3.8478,2.7978,3.75,3.7948,1.9622,
3.8661,1.2343,-2.6694,1.8723,5.6062,0.35104,3.4296,5.0375,0.014906,-2.6526,6.4863,-9.4904,-0.28923,2.8083,
9.6596,-2.4552,0.14234,-4.2656,3.5826,2.4991,2.0185,-3.7004,-7.9397,-1.7705,1.0355,-20.2492,-3.8873,5.2913,
14.3825,4.9228,7.3644,3.221,11.0807,3.3133,9.1285,-1.5504,-4.0891,-2.6284,-0.95508,-11.8036,1.6484,4.0098,
7.7352,4.1452,8.851,4.9561,6.0773,3.5967,10.0268,6.7376,3.3873,-2.4705,2.9588,-6.7569,8.2981,3.769,
-3.5752,-3.0934,-0.11622,-2.3311,-8.3873,-0.71696,-3.8312,-1.1385,-0.43136,-6.902,1.0941,-14.3052,1.7747,7.6402,
-2.8783,-0.49718,-1.0731,-3.6375,0.19036,2.701,-1.6731,-5.8904,-3.7799,-5.0416,-2.3456,-5.7341,-0.25998,6.2179,
-3.6701,-0.94951,-0.52703,-6.3116,6.9276,-1.3177,0.35523,-3.1271,-4.5172,-0.40055,-5.0976,1.8406,-1.6904,-0.90386,
-3.2087,1.2764,-1.2185,0.092916,4.8245,-5.8182,-6.1738,2.6044,-3.0411,2.2748,-5.0329,-4.7776,-3.7584,2.2836,
-1.57,1.2003,0.78323,0.56927,8.3919,-0.16642,-0.018324,0.5199,-4.7869,-0.7542,1.536,-6.4191,-4.0148,4.0748,
-4.3683,-3.6925,2.182,-3.8037,5.9597,4.1819,7.6951,-7.7065,-6.4278,-6.4935,5.3003,1.1969,-3.292,1.4197,
-7.2397,-6.6044,-1.5643,-4.2983,-5.2437,-1.1307,-6.5049,-6.0388,-4.3549,-6.8268,-2.0076,0.88409,-2.8535,1.576,
-8.2513,-4.2797,-1.4702,-4.5221,-5.4112,-4.4371,-11.899,3.9647,-3.1296,-0.63286,-5.7433,-2.0612,-1.7182,3.8918,
-12.0948,-4.0232,-1.8642,-0.87659,-4.1224,-2.2429,-2.5082,-2.5399,-5.8341,3.7437,-5.8809,0.47278,-2.5792,1.2479,
-6.0662,-8.1203,-0.30629,0.1401,-9.6599,0.78442,3.4267,-8.6542,-2.1098,1.1087,-6.0102,-0.037747,-2.9066,-0.27346,
1.7696,0.3211,8.1482,2.7832,-2.0904,3.8708,7.3189,5.965,4.0428,-4.0191,-0.58791,-7.5073,2.3295,4.8046,
-2.6754,7.0503,8.6232,8.4004,7.194,-1.1821,2.059,13.4406,1.3896,-7.6343,2.8218,-13.8058,4.1179,7.4089,
-3.2378,2.5299,5.9366,11.0298,4.5932,-5.209,1.2121,3.2337,2.9935,-3.0789,3.3754,-8.8801,6.04,9.1335,
-3.5254,-0.032012,6.0624,7.476,-4.8414,-3.4502,1.6218,-5.637,2.8139,-1.9303,1.7266,-8.8292,2.7855,6.1754,
-9.3397,1.6569,5.9398,2.9298,-4.7917,0.37246,-1.6088,-1.6831,1.9219,3.2474,3.7924,-9.5045,-1.4792,6.0456,
-10.4663,-1.5758,-2.3705,4.9234,-3.7815,1.5552,-1.7534,6.3714,4.4579,13.4167,3.3237,-3.3904,-1.1492,9.2985,
-4.054,-2.9272,-5.6025,8.4842,-4.5187,1.944,2.2084,4.0612,4.6726,6.3449,1.1963,-0.77707,-0.59859,8.7404,
-3.3286,2.0689,1.0004,4.119,-0.87289,3.7553,-1.2983,3.8173,3.4282,-8.1358,4.4987,-3.6223,-0.080508,5.806,
-8.6725,8.9346,3.5914,9.415,-0.57955,7.1454,-3.872,14.9164,3.4634,-1.0196,5.4341,-4.1283,2.0935,7.6264,
-5.5008,6.2291,-4.0956,8.1274,-2.2322,6.476,5.7601,9.9243,-2.7701,10.37,-5.256,-0.26541,-0.68299,6.9281,
-0.83243,1.0351,-6.7424,-0.55538,1.2762,2.231,3.4868,-3.2046,-9.8343,2.5169,-11.6896,3.125,-6.4266,-1.2004,
-3.9157,6.5164,1.1342,4.0575,8.1892,3.3022,-5.6407,3.0134,-6.111,-5.1061,-4.4805,2.6967,-1.9439,-1.3696,
-4.6449,7.0895,4.4404,3.3323,8.18,6.4783,1.4468,9.0994,-2.3701,0.98505,-0.35505,-2.2856,4.4395,5.4617,
-3.6433,3.5307,0.55851,0.48081,5.5201,6.3306,8.8314,4.938,-7.7715,4.0594,-6.3593,-8.1744,-1.8524,1.0362,
-3.6657,5.9704,3.1761,7.9238,10.7325,9.0842,7.5786,8.7391,-1.2797,0.20044,0.04781,-6.4787,0.90982,2.6613,
-7.5431,1.9967,6.119,8.1712,2.1348,5.4057,-1.7942,6.0455,8.679,-4.8733,5.5886,-4.4027,7.3627,8.5271,
-12.3929,-0.53342,3.8239,7.6812,-10.5266,0.26088,-6.0246,-2.0302,6.2303,0.23962,1.3966,-4.1383,3.5467,6.0876,
-18.8802,-1.4653,-3.1544,5.7741,-7.0029,2.6554,0.12142,1.4661,4.4102,3.5997,3.241,-9.1927,2.3701,4.7584,
-19.9165,-2.5827,-7.0625,3.2585,-0.074785,0.32687,0.35511,-0.79105,6.3148,1.6965,6.18,-8.8825,2.9508,7.606,
-11.2497,-1.7048,-2.0595,3.7863,-2.2395,-4.754,-3.7636,-5.8053,2.3209,6.1744,-0.69824,0.086544,2.0508,4.4985,
-11.5391,0.32568,-1.9359,2.1124,-8.3721,0.83346,-0.16375,0.80956,-3.6034,5.8035,-4.9951,0.081352,1.4454,0.85414,
-14.4621,3.9216,-1.0964,4.1553,-8.5926,4.3989,1.5333,9.6791,-0.7356,1.358,0.8482,-1.6108,-1.2924,3.9364,
-13.1123,1.2759,1.8612,4.3877,-5.6672,-4.5419,-2.4153,6.688,4.1286,3.6868,3.6896,0.41385,-2.179,5.1458,
-15.4588,0.47623,-2.3476,7.7401,-7.0142,-5.4745,0.86287,2.671,3.6401,2.7425,2.2632,-2.2623,5.4233,5.0782,
-19.111,2.1347,-3.8942,9.4446,-11.1728,3.2894,6.8369,-0.62249,6.073,-2.9659,6.7064,-7.188,11.1237,7.4248,
-21.3386,-2.3315,-1.7321,1.1654,-12.9128,-2.6923,-0.32202,-10.7078,9.5648,-4.7159,7.2686,-9.649,4.6715,5.0509,
-19.8173,-0.50463,-2.8332,3.2644,-9.4867,-9.0385,-2.954,-6.4502,9.2321,-4.1918,4.1812,-5.4549,3.1861,4.5071,
-21.5205,1.4538,-5.5558,4.5148,-7.9532,-3.1935,0.59767,1.6496,5.3037,-1.0482,2.484,4.0319,9.7439,5.683,
-17.8189,0.40274,-2.3299,1.3518,-6.0297,3.2651,-3.2946,0.58679,-0.79862,7.2099,2.335,1.3799,5.7852,3.8957,
-6.6267,-1.0675,-2.6723,2.7168,0.59833,2.1051,2.6879,4.4082,-0.75093,11.5978,2.677,-2.5596,-1.793,2.6979,
-4.783,-0.039768,-8.2967,0.62532,5.8649,1.9785,9.7572,6.5536,-0.22417,10.9017,0.10607,8.1991,-1.2037,1.09,
-4.9778,3.8197,-5.8705,-1.8221,2.6211,6.6803,5.3157,-2.0341,-4.5488,5.9095,-6.649,10.5994,-0.64883,-5.2422,
1.105,3.1081,1.7126,0.21543,2.4634,8.6896,5.9606,-2.3944,0.06244,1.2161,-3.358,-1.1238,1.8002,-1.5532,
-3.5403,-2.1398,-2.9697,4.3001,-1.7815,-0.2672,0.5415,-0.081383,6.0845,-3.9183,3.8336,-9.9742,4.8255,6.0121,
-10.559,-2.0117,-9.0583,5.97,-9.3876,-7.0003,-1.9013,-2.4869,5.7192,-3.201,5.0496,-10.8222,8.3921,5.6506,
-2.4534,1.2428,-2.9709,1.9966,-3.2805,-2.9646,11.9513,1.2775,4.171,-3.7321,4.9878,-7.0392,7.6478,4.107,
1.5499,0.68603,0.09961,3.3229,6.5575,1.5518,10.752,6.9857,2.9566,-3.9903,4.2064,-3.2426,3.8147,4.3427,
-4.8096,-0.80139,-2.317,5.5336,5.1997,-2.3982,-2.4266,2.7102,2.2973,4.9262,3.4721,2.7365,4.5497,4.5641,
-4.5212,0.69272,-1.6958,4.2375,0.06725,-4.6642,6.3959,-3.2372,0.71341,4.6304,2.7816,4.0184,6.6871,2.8438,
2.2578,2.3382,-2.3172,5.1883,1.2683,4.5335,10.1097,-0.87362,-0.53492,-0.22696,3.3378,2.5722,4.1165,2.4324,
5.0148,-2.6224,-4.5883,1.503,0.71025,7.636,-4.5969,1.107,-0.50237,5.0893,1.6913,5.7923,-1.4332,3.2503,
5.1959,0.90895,-2.3848,4.7869,1.1496,-0.053494,-10.9492,0.076243,-1.4365,1.4095,-0.82076,5.4448,0.099095,3.0553,
13.079,12.9062,2.0969,9.3201,10.2394,7.6627,3.8077,5.8565,2.9882,-8.7977,2.6032,-0.18431,8.2881,5.7643,
14.2227,8.2757,-0.4393,2.0127,8.6614,12.9878,11.1718,9.3617,1.3629,-4.4137,1.0009,-2.1012,5.8628,1.5623,
2.5229,-1.6211,-1.1361,-2.2061,-4.151,-1.0481,-3.5985,5.6663,-2.3345,4.7689,-2.1928,4.0502,-1.961,-2.629,
-0.76153,-5.6217,-3.719,-6.653,-7.5174,-8.457,-5.1903,-3.1094,-5.328,1.3498,-4.7123,6.4583,-5.4587,-3.1942,
12.7815,0.98262,-6.3884,-3.3613,2.5746,4.5839,-3.915,4.308,-5.9722,-2.1057,-6.8397,2.2144,-4.1669,-3.0026,
19.0043,4.5393,-1.4256,-0.026389,2.6613,8.8884,-10.1874,11.0392,-5.8546,-5.1126,-8.5983,-4.9081,-4.1581,-4.9918,
15.6949,3.0617,0.82913,-2.194,-3.5239,2.8114,-5.4788,4.8332,-3.8165,-4.5649,-5.4313,-1.4802,-2.7033,-2.5231,
11.6197,2.1546,-6.21,-5.1958,-9.8204,-0.49027,-7.8016,1.4098,-8.6487,-2.6037,-7.757,7.0443,-6.6384,-3.5766,
16.2249,5.8819,-2.4632,-5.3662,-10.6772,8.6979,-15.5285,10.484,-5.238,4.3012,-5.3631,13.3703,-8.1686,0.97612,
18.8668,4.8057,-0.14625,-0.9469,-13.1701,9.3809,-12.9095,7.6858,1.5842,2.8378,1.4661,7.0245,-7.4375,5.4973,
20.6271,5.9634,-1.1016,2.9665,-8.0413,2.5513,-6.3506,6.7429,4.8634,-2.6349,5.7167,1.7826,-5.0633,6.1316,
17.9437,6.0879,1.3746,-1.5498,-6.1126,-6.2784,-14.6462,12.1229,2.6434,-4.8874,1.5173,-1.6989,-5.7233,-0.020919,
21.2052,8.133,3.7025,1.9174,-8.1562,-6.3839,-12.3214,8.9852,2.967,0.70874,2.3904,-1.5967,-6.826,-2.9124,
27.1637,8.6089,0.10592,-0.6082,-8.6311,4.1221,0.95136,1.6972,2.3065,-1.7444,4.1752,-0.53702,-5.9345,-9.4861,
26.7392,13.1541,1.3049,-1.2946,-5.4617,8.9364,1.1353,4.7288,2.8915,-7.6653,3.6837,-1.2277,2.8573,-13.4962,
20.3141,10.9186,3.6367,-1.6989,-0.31375,-2.2051,-4.7174,3.4808,-0.1745,-4.7952,0.57014,-0.19017,4.1321,-10.2763,
16.2032,5.4432,4.3828,-5.9353,0.6694,-5.9287,-5.8807,3.7543,0.8003,-4.507,3.4285,1.7499,-3.3467,-7.2496,
11.6156,7.2858,1.4683,-2.928,-5.8782,0.45258,-4.3225,6.6625,4.3677,-9.7802,6.3562,-2.4529,-5.797,-7.0556,
12.3649,6.3662,3.3084,-2.7524,-1.6692,1.8712,0.27515,2.8883,2.6594,-5.8194,3.0823,-2.7877,-5.4492,-4.7041,
21.9869,7.1895,10.0998,-2.8282,5.9028,4.4105,2.4283,1.5098,-0.15128,0.073812,-0.71802,0.03114,-9.7015,-6.591,
21.632,9.6507,6.1193,-2.6585,-5.5386,11.8587,-3.5025,5.7579,-1.1061,-3.787,-1.6388,-1.8989,-10.5657,-10.5339,
14.5495,7.1435,0.44952,-6.3554,-10.9909,8.737,-4.2562,5.412,-1.0402,-4.0422,-2.9867,5.9278,-8.0035,-6.0454,
12.7122,5.7505,0.90494,-5.9741,-1.6548,-2.8744,-3.037,4.1234,-2.9059,-0.42519,-5.2177,10.8748,-12.344,-7.6109,
15.3241,8.2978,4.7068,-7.5436,4.7113,-0.77355,-1.8906,5.804,-1.7675,-3.292,1.3617,0.09915,-11.6032,-12.4571,
13.9225,8.764,8.281,-9.9837,3.9469,6.0215,-2.2589,2.0815,-0.69735,-9.3612,5.1366,-9.548,-6.5684,-8.8174,
17.1845,7.0333,9.9533,-3.8411,4.9149,0.59857,-0.43661,4.1258,0.54979,-3.7378,1.213,-4.8778,-5.9333,-3.7086,
17.3585,2.5137,8.151,-7.2258,4.3788,-7.3913,4.651,4.6014,-3.0988,5.4043,-5.3675,-1.4518,-10.6393,-12.4044,
12.9426,7.1836,10.554,-9.2024,-1.668,1.2473,5.8182,-1.9412,-7.7332,7.0082,-7.4556,0.56346,-13.8568,-15.5161,
12.407,11.3314,14.5001,-3.589,-6.1477,9.1258,0.40746,-3.9944,0.68456,6.3463,0.94549,3.6631,-7.4823,-3.7393,
11.1806,6.7956,9.2918,-0.48115,-7.2251,1.3478,-2.991,1.5479,4.4999,3.0734,4.2632,0.55084,-4.6232,-1.5867,
15.0895,8.5571,4.155,-3.1034,2.1265,3.4361,4.1784,6.5167,-2.7595,-3.6184,-3.4644,-0.68705,-9.407,-4.1426,
9.8454,8.5256,1.4951,-9.6661,4.409,9.0145,4.4091,1.305,-4.0407,-9.6683,-4.7028,3.2106,-11.2532,-2.9302,
-4.0015,4.8808,0.20078,-4.0247,-7.6654,2.9303,-7.1829,0.50405,2.228,-8.3646,4.0153,10.0076,-5.998,-0.58501,
-3.7616,4.5877,-1.7397,-1.3728,-6.7238,-4.9585,-10.6086,4.33,1.1298,-1.5965,0.88208,10.3712,-2.7459,-1.0321,
-0.40245,3.5895,-2.8401,-5.3878,0.18757,-5.8659,-7.321,2.3829,-3.9992,-1.7416,-7.6065,1.3133,-10.0529,-5.5494,
-6.8862,3.1332,2.8734,0.47907,-5.3673,1.9574,1.072,2.9633,1.3019,0.53202,-0.16071,5.8138,-11.137,-4.0116,
-8.8834,0.052915,2.7012,0.45009,-10.8301,3.7684,4.3824,1.8214,3.6342,0.98226,2.7412,9.3211,-5.6483,3.9421,
3.7014,2.9425,-2.2813,-4.8793,-1.9853,-1.2782,-2.6292,1.23,-7.1885,-8.2355,-5.1358,-4.7353,-7.2373,4.6701,
10.9509,4.9344,0.024493,-6.756,2.2309,-0.47881,-5.1233,2.3612,-8.4451,-11.8389,-6.5151,-12.4052,-10.4187,-0.67202,
5.9555,3.6745,5.3257,-2.0123,-3.2051,1.9605,4.8256,0.29138,6.0414,0.44056,3.0348,-0.57362,0.32929,5.1529,
-6.2124,-0.64334,2.837,-1.1682,-4.7,-6.1109,-0.52564,-4.3054,2.5454,2.1014,6.4682,-3.1903,3.443,6.5309,
-8.732,-4.4614,-1.6718,-3.9904,-3.4539,-4.7801,-8.689,3.1835,-3.3917,-2.3633,8.008,-5.8912,0.34414,2.2825,
-5.7977,-0.81899,-8.3202,1.0695,-7.1033,4.6655,-0.4547,4.4386,3.0786,-0.77545,4.6353,2.1748,1.2876,1.1814,
-5.4498,5.0143,-6.8571,5.3437,-3.7846,8.242,1.9827,-1.6123,5.304,6.02,-1.4274,1.5624,2.1742,1.5925,
-2.7125,3.7498,-1.6247,-4.1358,-2.5934,3.4089,-7.2951,0.89476,-5.1374,3.7304,-7.1261,-2.3879,-3.2587,-0.43104,
4.1989,4.4889,0.40072,-5.816,-4.3663,3.2046,-2.0369,5.1796,-11.0959,-2.2778,-5.7345,2.0939,-5.9554,-1.8512,
5.1523,3.0143,-0.34622,-1.8516,-0.0064637,4.6995,6.521,-2.603,-5.3685,-0.93631,-0.81111,4.1374,-5.3571,-2.4635,
-0.21875,-0.78179,-0.084708,-2.9456,1.6809,-2.0901,-2.3061,-6.0624,-5.7695,3.2175,-4.3776,0.75591,-5.7588,-2.0745,
-1.1695,1.1933,2.331,-5.179,-2.7583,-8.2313,-6.988,-2.8062,-8.7978,3.0244,-7.0075,3.1211,-7.8234,-3.8782,
4.6855,4.014,3.1552,-3.9042,-0.66479,0.4571,-1.7483,-1.6737,-1.0388,0.91498,0.64402,1.9698,-8.3181,-5.5739,
3.44,5.7014,1.0377,4.5248,-1.1068,7.1786,-10.3205,-1.0913,3.3618,2.7883,6.8719,-3.9334,-3.4807,-0.4188,
-8.5765,1.7439,-5.0501,2.5661,-12.3686,-1.6878,-12.3523,-2.2307,2.9191,5.7545,3.3261,3.2924,-0.62033,2.7398,
-11.6773,-2.4581,-5.47,-2.1672,-11.8675,-3.2738,-2.6931,-5.7123,6.8413,2.2757,2.4036,4.3002,-3.2342,-0.55806,
-3.2639,-2.3106,0.16038,1.3373,0.41374,2.7072,-4.4602,-5.8519,7.8771,-7.0199,4.1876,-10.0578,-2.0763,0.92169,
1.0293,1.4434,1.3561,4.8725,2.5581,4.714,-2.023,1.0071,3.3071,-1.537,-10.1637,-11.9852,0.69939,9.3021,
-6.0221,1.5975,-4.7511,2.8927,-9.8877,3.708,-0.69698,2.1518,-0.50693,4.5805,-23.6538,1.0262,-10.671,5.1283,
-4.9379,3.6709,0.11326,2.4782,-5.1971,7.1009,-7.1626,4.6737,6.0314,0.20836,-36.3346,0.24173,-6.8973,5.062,
-4.8828,2.7275,4.2041,5.9447,0.65858,-2.7253,-11.7943,4.1526,4.9464,1.4009,-40.5418,-4.8347,3.3987,3.0708,
-4.3487,0.3949,0.81855,9.6856,-2.9966,-6.659,-0.24064,-1.158,1.9983,12.1634,-43.6529,4.8556,-0.42037,-4.585,
-6.7391,-2.7621,3.9027,3.561,-4.0219,3.1404,6.7639,-1.3297,1.1553,7.336,-46.0951,6.2513,-7.8672,-1.1766,
-9.7087,2.7063,10.8994,7.6857,2.004,3.4343,2.0193,-1.7319,4.4604,-2.7452,-32.2422,-1.8366,-6.4308,9.9812,
-5.2698,4.9541,8.7992,9.6347,3.3301,-5.4488,2.8625,-7.4126,2.7465,-3.5448,-29.8257,-4.6184,-7.4912,7.9361,
-4.2307,0.077074,3.2095,2.0667,-3.3777,-4.8809,4.3779,-7.2092,-4.4081,1.7296,-35.9902,2.1662,-7.7651,-2.904,
-11.2077,-2.8196,3.0174,1.4613,-5.5847,1.1965,-2.6332,-0.99163,1.6414,11.7492,-33.3484,9.267,-3.9243,-1.2835,
-14.6326,-2.4095,2.5949,2.5784,-1.1527,-2.0088,-6.573,-1.6555,11.9068,12.2491,-25.8041,3.1674,-4.4122,3.8548,
-11.1036,2.7968,-0.21185,5.0748,-1.8065,-7.4319,0.32885,-7.5817,6.6126,1.6322,-22.5686,-6.9046,-5.8347,-1.4378,
-4.4116,4.7979,3.898,5.9754,-0.01107,0.0036931,8.745,0.34477,4.5289,5.1494,-15.6709,-0.94693,4.8795,-3.5209,
-6.5572,-2.2386,7.0388,2.2426,0.47176,0.96803,-0.93848,0.80625,6.1856,4.8407,-14.7306,1.0383,4.5869,-3.7918,
-8.3327,-1.8631,4.9295,5.7237,-2.2079,-4.6339,-4.9798,-8.6419,2.6807,-0.99358,-18.9085,-3.1216,-6.0524,-0.91295,
-7.592,0.41759,3.9106,5.621,0.57592,-3.6327,3.7549,-5.4725,2.2791,3.1636,-16.0867,0.68091,-2.074,0.82882,
-10.9929,-1.5352,6.0861,4.3199,1.5057,-1.4866,6.9041,3.5329,3.1062,3.4557,-11.2649,0.64052,7.6914,-0.66671,
-10.5743,-0.72019,7.4081,4.3017,0.69199,-2.1203,8.1771,5.0082,0.26878,0.1149,-11.3121,0.84305,10.3634,5.3988,
-10.6625,-3.3283,2.3841,2.3566,-1.0365,-3.1981,2.1431,-4.2101,4.3502,-1.579,-14.7308,3.4438,5.1621,10.6188,
-13.8798,-2.1645,2.7228,8.4815,0.95363,-0.59634,-6.1805,-2.9934,14.6938,5.2644,-6.1344,1.3087,2.9239,8.0532,
-17.1444,-0.34741,8.585,8.2135,0.17351,-1.7659,-2.6766,0.31919,12.6074,9.5279,2.6696,-0.45701,5.882,1.0621,
-17.8025,-2.0138,5.9012,3.6238,-4.4162,-4.3105,5.9201,-2.3511,2.4509,2.4487,-3.034,1.2576,3.3599,-3.0985,
-10.2271,0.75836,6.2698,4.611,-0.53602,3.9016,7.7338,-1.0049,6.401,-2.2777,-5.0213,-0.022882,4.3634,4.0765,
-7.9262,-0.97437,9.509,3.6115,1.1834,4.3904,3.6544,0.7426,11.5605,-0.93578,-0.14053,-7.9757,6.2707,6.4835,
-10.3427,-1.3978,9.4208,4.3591,0.63043,4.1274,8.2558,4.0725,7.4929,3.9411,2.7604,-1.2302,7.8227,4.1663,
-15.507,-6.6164,1.1426,0.72287,0.11044,2.4333,10.1709,-3.4025,0.7766,7.5608,-6.0823,9.4487,5.4253,0.5421,
-12.4072,-4.5324,-0.61296,2.3669,2.7551,-2.7741,5.9454,-4.8858,-1.9213,11.6866,-12.2251,8.6406,4.8586,5.571,
-5.637,-0.64527,6.4135,4.8763,1.3848,-1.4026,4.3836,3.8433,-3.0111,5.924,-8.3581,2.0968,4.8083,7.4057,
-5.7807,-2.0524,6.511,2.1736,-2.5547,4.4666,6.5307,5.0589,1.5083,1.7122,-3.0361,0.52474,3.0735,-4.1254,
-10.0136,-2.1706,1.5406,6.14,-6.9812,3.4752,1.5591,0.65805,7.9253,4.7425,-0.68479,3.1444,4.5764,-3.6369,
-13.9925,-5.6558,-0.72142,4.5668,-13.0698,-5.6514,-2.1498,-0.58673,8.6546,-1.5676,-2.8131,0.78653,5.989,9.3553,
-10.0192,-2.1828,4.3838,4.5335,-5.7779,-5.5535,3.523,8.8487,9.8228,-7.017,-3.3672,-0.94766,7.3167,9.5171,
-5.8029,-0.3648,3.3976,3.0565,3.0047,0.80551,2.1066,5.6665,8.5103,-2.0164,-4.3702,0.31427,3.7444,-5.1539,
-3.5268,-1.307,0.7834,-0.98355,5.7162,4.6133,1.0156,-4.3147,3.6611,4.3708,-1.216,1.2595,4.4838,-10.2676,
-7.4123,0.45887,0.013729,2.6911,-0.16966,-3.617,-0.73232,-3.3327,-3.0662,0.011471,-2.3478,-10.144,5.4199,-5.072,
-7.4497,1.395,3.3871,3.4937,-2.0879,-6.2922,1.24,4.5803,-3.3644,-1.4357,-0.279,-11.4638,8.4689,-6.2137,
-6.5206,-2.5449,0.77354,-3.9465,-0.99853,0.83396,1.1654,-0.99744,-0.7522,4.4352,0.70206,-0.65285,6.5147,-0.53849,
-8.7809,-5.5257,-4.3345,-3.9511,0.74861,1.5068,2.3008,-7.9275,7.2467,10.6766,-0.54535,0.10922,5.401,6.9656,
-7.5307,-5.9175,-1.9053,-2.0268,1.4266,-5.0911,2.4037,1.9482,6.089,4.0105,-0.75383,-5.4409,5.3179,2.9323,
1.3571,-0.50053,2.3066,5.0844,0.13593,0.27585,3.9465,8.8209,-2.7123,-3.2198,-2.8778,-3.4275,1.3831,-0.85931,
0.31156,0.97553,0.72216,4.2976,2.5381,7.4904,3.7099,-0.38473,-1.1035,1.7939,-6.5613,-2.2573,-1.5917,2.5669,
-9.1074,-3.1806,-2.9368,-0.057793,5.5191,6.7997,0.836,-3.9773,4.5061,3.3732,-4.4806,-2.363,0.67275,2.6536,
-12.6578,-3.7122,-5.4117,0.1871,3.5007,4.7045,1.5092,0.84109,-1.7894,-4.3005,-3.4884,1.3942,2.3196,-2.5668,
-6.8371,2.5356,-0.98965,1.3807,0.63959,7.5558,3.1054,-1.3785,-6.2617,1.0187,-2.5562,4.444,0.97514,2.6484,
-6.6679,3.5888,3.1675,5.8776,0.36025,9.7535,1.2323,-5.8756,-4.1988,9.8757,-0.71558,1.0439,0.67613,7.0693,
-10.8473,-3.6162,-0.15622,2.8736,7.8102,6.035,-0.52908,-1.9074,-4.67,2.2935,-2.842,-0.22383,4.7327,2.5475,
-6.3401,-1.953,2.2633,0.77302,8.7879,2.2985,1.9128,5.9198,-4.8717,-7.9675,-3.1535,0.27154,7.8232,4.3229,
-4.2729,4.1893,4.7786,6.2698,-1.1399,0.47334,2.039,4.3593,-5.7847,-6.2841,-0.79531,0.014276,4.2203,6.7146,
-7.1496,0.32299,1.3588,4.6888,-2.2763,4.0604,1.6757,-3.374,-1.8222,4.9387,-0.024464,3.1464,1.3155,2.2144,
-8.8898,-2.8299,-0.40992,1.274,4.3682,7.4322,1.8166,-7.7509,-1.9539,6.3301,-0.7459,0.30657,0.5137,-5.3898,
-6.4282,0.71437,1.0609,1.1975,3.6237,6.9862,3.6353,-1.0193,-2.801,4.986,1.2271,0.77011,1.9291,-0.2462,
-11.1042,-2.9439,-2.1362,-2.9717,-1.6554,0.54151,1.248,1.693,-1.4276,2.5176,-0.051865,1.4473,5.4288,1.9377,
-16.9456,-2.5263,-0.32081,-0.62422,1.5774,1.2319,-1.9603,-4.9161,-2.0649,-4.1414,1.1565,-5.6294,13.0568,-0.34769,
-14.4826,-0.44654,2.591,2.3058,1.4828,3.5681,2.0141,-7.5137,-1.459,-6.7849,5.4255,-10.5943,13.7197,-2.737,
-9.0342,-0.66048,-1.6621,3.3725,-3.1857,0.70272,2.616,-1.519,3.69,-4.6908,6.7872,-9.7175,4.4606,-2.8139,
-1.7434,-0.13892,-0.59849,5.0983,-1.0664,3.5531,-5.7357,3.3924,7.8069,-4.8913,9.7544,-4.7961,3.711,4.5857,
-1.8798,-1.8178,0.64271,2.6233,-7.5099,4.0633,-8.5246,4.3941,4.6874,-4.8388,7,1.0353,8.5496,0.21325,
0.40239,-0.021747,-3.493,2.2247,-14.5313,-2.2063,-1.0235,3.4074,0.30855,2.4412,-1.374,4.5888,4.4214,-9.1998,
8.3322,0.70269,-5.4528,-0.56014,-4.7411,0.095449,0.243,0.069668,-1.8789,-0.35664,0.39566,1.6622,-0.42339,-3.5859,
9.5193,0.90172,-5.3668,1.6429,3.0149,6.115,-4.3511,2.2349,-5.8637,-7.3249,3.0232,0.35736,2.2533,4.1008,
3.8864,3.4987,-2.3933,0.33899,-6.566,-2.2056,-4.331,8.1263,-9.6093,-1.8237,-4.1478,0.57689,-3.9074,-3.1351,
9.679,11.2428,7.1501,-0.88641,-4.4846,0.096122,1.9546,11.7363,-4.4532,6.7216,-0.76567,2.2293,-4.3961,-4.634,
12.2315,9.3631,2.1416,0.37184,3.2561,5.6337,-1.7783,3.0782,-3.9448,-5.0101,2.8957,-1.5197,5.2674,-5.561,
16.0769,4.704,-5.4587,-3.7478,5.2299,1.6803,-5.287,-2.1682,-2.9852,-13.6271,1.5167,-1.6695,10.0131,-10.289,
24.0309,14.7861,1.8587,-0.8714,1.7831,0.37464,-1.3539,3.0236,-0.63695,-4.3738,3.1131,3.01,-0.46964,-7.9844,
16.5632,12.2115,2.9522,1.3498,-12.4239,2.5211,-3.4421,4.0472,-1.3219,-3.3882,1.721,2.1063,-7.4311,-7.2642,
14.1232,-0.090392,-6.3839,-2.5876,-15.6558,5.2623,-11.9126,-1.0163,1.65,-8.4876,2.0997,-1.3946,2.1733,-3.4543,
20.7471,3.53,-9.1344,-0.26315,-1.942,6.6334,-15.7776,-1.6782,-1.1006,-12.0757,2.2147,-11.1928,0.8381,-2.5237,
22.3948,11.9953,-3.7656,3.609,4.9234,3.8252,-4.7076,4.689,-5.3729,-9.9049,0.15385,-10.0393,-6.925,-8.6388,
18.6408,14.6498,1.2808,5.3209,0.28946,6.0061,2.8055,3.4435,-4.5683,-3.0443,-1.3016,1.6505,-1.689,-8.6026,
16.7997,10.638,3.8553,4.2785,-0.93298,11.1896,-1.46,-2.7884,-4.5354,-8.405,-0.98235,-5.9201,3.4738,-7.3634,
17.7196,4.2149,1.2136,-3.2088,2.4972,5.2153,-2.3365,1.2351,-9.0838,-16.5776,-2.3697,-16.6524,0.37309,-10.7782,
23.8871,12.6389,2.1049,3.7324,1.3833,1.5282,-1.7146,10.3198,-7.0927,-9.3162,-2.7097,-3.12,-0.13146,-8.6855,
27.0334,17.4239,2.2198,7.6056,-2.3149,6.016,-6.1912,3.6753,-4.4978,-7.5522,-4.2343,1.1648,-2.7749,-4.5487,
22.2783,10.8354,4.7382,2.57,4.3315,8.7885,-5.0964,-1.1245,0.83377,-8.3043,2.0455,-10.7152,-1.4031,-1.6247,
11.5412,5.1231,-0.12588,-2.164,3.8306,-0.17492,-8.8884,2.076,1.9886,-2.2625,3.1276,-8.8675,-0.11409,-3.6963,
5.0644,3.8521,-3.4926,-4.444,-4.1122,-6.9131,-5.9448,3.8794,-1.023,2.6938,0.047918,4.1979,-2.5171,-4.9206,
13.1964,6.7542,3.2243,1.8479,3.6066,2.4195,8.5119,5.816,-1.6848,0.84514,1.732,6.1154,-1.161,-1.9745,
12.8868,0.08221,0.6209,-1.6372,5.8005,1.7922,3.7836,-1.2816,-3.5117,-7.8824,0.66425,-1.0002,-0.60922,-5.7122,
6.5697,-2.574,3.7169,-0.81582,-2.9834,-7.7151,-8.2538,-3.8561,4.653,-3.7943,8.0962,6.5314,5.4526,0.1744,
4.2474,-4.8297,3.9758,1.6433,-9.5533,-16.8932,-6.7947,-4.589,3.4095,-5.4948,7.1283,2.765,2.7154,0.64587,
10.7416,-2.612,4.2194,0.58057,-2.2314,-1.7796,-1.0841,0.50726,2.2408,-10.9495,5.2545,-8.4879,3.5165,0.12495,
-0.74911,-2.6962,-0.61302,-4.0336,-12.4614,10.9807,-6.5627,1.1997,0.9011,-18.7287,7.1084,-14.0041,2.1003,-1.5698,
-13.7198,-4.9448,-2.0227,-4.2737,-18.9448,6.9476,-5.2053,1.6099,1.3292,-13.2664,10.5381,-5.4514,0.52821,-0.51149,
-11.2094,-2.4785,-0.21413,0.56246,-7.4438,5.3259,-7.5441,3.2005,3.4186,-0.66028,7.7369,2.8299,0.73748,-0.23983,
-9.5725,0.56227,0.76304,5.349,-7.9615,11.7548,-16.2505,3.9724,2.2496,3.2357,2.9341,-1.6786,1.1756,-0.22544,
-15.9883,-5.0149,-0.48781,-0.033418,-16.8836,13.7009,-12.1417,2.047,-0.054745,7.1392,2.5171,0.59146,-1.0643,-0.45265,
-20.0902,-7.8474,-3.592,-1.2367,-17.0759,6.8533,-4.4238,3.6114,1.1538,18.039,4.0531,14.2943,-4.6159,-2.5951,
-21.2949,-6.8947,-2.8946,-2.6083,-13.6407,1.1394,-8.0148,1.4666,1.5665,21.295,5.7385,13.919,-4.3389,-2.4389,
-15.9201,-7.6861,-3.444,-6.5494,-10.1714,1.7942,-7.7751,-10.9142,3.6415,8.6889,7.5631,-0.17273,0.98287,4.6966,
-9.1801,-6.7427,-3.2372,0.59225,-7.1508,1.2044,-4.4158,-8.8128,14.0285,7.6858,10.4836,3.2119,4.2981,15.5022,
-15.3782,-14.0509,-7.8636,-5.2279,-15.3986,-4.6525,-13.3099,-0.5713,11.2586,13.9736,7.4444,9.2861,1.1482,14.0902,
-16.3837,-11.2801,-9.32,-6.3605,-18.8132,0.92933,-17.332,-4.8758,-1.9504,6.8682,6.0334,7.2827,0.11496,13.2448,
-11.7855,-3.6132,-4.6632,-1.8812,-10.2124,4.0068,-8.8205,-9.6447,-1.1102,-5.3542,6.877,4.1944,3.2413,13.6551,
-10.8374,-5.0837,3.5703,-3.4556,-2.1283,-0.81333,-0.33709,-1.5942,13.0564,4.367,9.1154,4.1837,8.5905,11.1486,
-10.6688,-6.2247,5.7664,-1.3203,-3.9286,-0.28237,-2.2453,1.8761,9.9833,12.7823,6.6406,3.9329,5.1827,9.0337,
-5.208,-3.4411,5.9024,2.1334,-3.6929,4.0734,-5.4846,-3.5391,0.70724,-0.51811,6.2419,-0.15944,2.4616,11.8661,
-2.0037,0.13962,6.9943,2.9695,2.7955,0.45427,-1.7813,-5.2552,5.0034,-1.9331,6.3493,-3.0426,1.8318,9.2257,
-9.1141,-5.1712,0.30788,-3.9574,-1.7108,-9.2137,-0.22836,-6.3859,6.1492,9.2699,-1.7442,4.371,-2.1343,-0.96904,
-13.8699,-10.6455,-4.0489,-8.0583,-7.8747,-6.7327,-5.0349,-5.5203,4.3344,12.0882,-0.67568,10.3753,2.814,2.9459,
-14.243,-9.2839,-6.4575,-2.9955,-6.1974,-0.3032,-11.2408,-7.3587,4.3149,8.2294,2.016,3.7272,5.7787,7.3485,
-7.3624,-6.5572,-7.2749,-5.9488,-2.692,-2.4542,-7.9148,-10.5322,4.2974,9.9053,-2.2019,13.8679,-0.11166,1.8463,
-4.0286,-1.8255,-3.464,-7.0381,-5.905,-5.1994,-4.5478,-4.1161,-2.7093,6.9004,-3.516,24.1226,-1.0693,0.28885,
-5.4741,-0.99302,-1.5689,-0.10834,-5.3097,1.6205,-4.034,-3.1458,-8.5723,-2.4317,-1.1359,8.5752,4.0566,2.9231,
-0.083741,-0.69225,-0.26971,2.0676,8.2655,6.5847,2.7158,-3.1982,-3.9604,3.258,4.4756,-1.4598,5.9825,4.4347,
-3.212,-1.8558,-3.3868,-0.70782,6.0826,1.1282,1.8297,1.5732,-5.8922,7.1597,3.484,9.9562,1.526,1.0353,
