"AF3","AF4","F3","F4","F7","F8","FC5","FC6","O1","O2","P7","P8","T7","T8",
28.9231,48.2051,33.2615,76.646,-47.7234,-41.9385,-19.7641,-2.8923,37.5998,-6.7487,30.8513,-63.1489,-15.9077,2.8923,
23.3316,40.0103,24.0352,59.514,-37.1467,-44.7247,-22.4344,-5.1291,27.1493,-3.4515,18.8771,-52.1289,-21.22,3.6828,
13.2541,27.9683,15.3622,41.9634,-38.2926,-47.3438,-24.9452,-6.2676,16.3613,0.13007,9.0674,-49.4833,-32.9622,0.087425,
11.495,19.5418,9.6198,31.2509,-33.1025,-42.0928,-21.0379,-8.7836,15.8616,8.317,12.3797,-48.4425,-21.8254,-8.1125,
13.4569,15.7182,8.3197,26.7248,-19.788,-41.7364,-14.232,-12.354,10.8125,7.577,9.9502,-40.4743,-25.0952,-7.3848,
13.3721,13.57,8.0617,14.2752,-7.7546,-38.9913,-6.8704,-8.9614,8.9587,0.61466,-1.0109,-28.1639,-31.5435,-0.43401,
13.0522,8.417,4.6855,0.40331,-2.4691,-27.493,-5.9762,-6.0136,5.5287,0.095849,-5.2891,-21.6536,-19.528,2.0022,
7.9305,4.0558,-3.7901,-4.9233,1.0537,-22.9509,-3.2073,-6.1349,-5.4081,2.5005,-4.4895,-15.5339,-11.6071,0.436,
10.8287,3.812,-6.4557,-10.8949,15.0905,-16.7536,7.108,0.49967,-7.0118,0.90417,-5.6664,-2.0688,-6.5724,1.3737,
19.0972,9.1272,-1.0065,-12.8925,26.839,-7.3125,8.851,5.0497,-9.7244,-1.8014,-8.4597,5.0454,-3.5267,-1.3596,
19.1565,12.1952,2.1872,-15.2522,25.4694,-8.0788,10.4888,4.9874,-15.1667,6.7426,-10.6034,10.2861,-4.0383,-2.4831,
6.9201,6.6425,-2.2826,-23.4963,21.5309,-11.9326,12.7518,2.2778,-15.2208,7.3021,-14.3058,11.1149,-8.6164,1.0401,
-0.48476,3.1107,-5.2789,-21.8454,23.8547,-5.1909,8.3715,2.3824,-10.21,2.7664,-13.6882,8.761,-12.197,4.111,
0.74893,-1.1735,-6.1672,-24.6322,26.5205,2.1102,10.0381,3.9264,-12.2487,8.1438,-15.5182,11.3686,-3.9936,1.213,
4.0787,-1.5848,-9.1714,-34.7232,32.6423,2.4658,18.5951,5.1369,-18.7448,6.6911,-21.3358,15.9894,10.346,-0.7882,
1.9058,-5.828,-12.9599,-43.7271,30.6838,-0.092301,12.6587,1.9366,-20.9941,2.9156,-21.5019,17.9221,11.051,0.22342,
-1.5833,-10.2993,-10.7363,-37.2473,17.2734,-3.4614,5.1505,0.85629,-12.9858,10.4532,-12.0169,15.4007,1.7111,2.138,
1.8866,-5.3426,-4.789,-20.9124,10.9348,-9.0379,10.1446,0.80491,1.2907,8.3802,-5.0289,0.37669,6.4291,4.4203,
3.7014,-3.576,-0.6455,-5.5577,14.1348,-16.6905,10.5,-5.5097,11.3364,-5.6202,-2.7992,-13.7459,0.74095,9.9399,
-2.7872,-5.7715,2.2857,7.5505,5.574,-29.7891,-1.6996,-15.7844,8.728,-12.9957,0.74323,-27.0212,-13.4035,1.1483,
3.4054,2.5287,14.9228,21.1974,-4.1607,-38.7275,0.57174,-12.6684,10.3737,-14.8673,12.5085,-39.4999,-5.4894,-1.5719,
-1.8604,5.9922,16.1968,34.0256,-18.011,-40.5015,-2.1139,-15.5235,17.2229,-23.8574,17.3019,-51.2299,-0.098583,1.6557,
-7.0514,17.6837,20.0453,46.084,-23.7995,-30.3586,-3.9153,-7.3612,30.2895,-12.3026,30.3638,-47.5535,-5.8772,9.2691,
-6.6281,19.5155,23.6631,57.419,-25.2636,-28.0549,-8.0189,0.79299,36.0644,-7.2259,39.5087,-44.7002,-8.4167,4.8568,
-5.7483,18.3443,28.0281,61.2047,-24.7121,-26.8538,-8.5018,0.26325,31.0083,-12.5772,35.2097,-45.3927,-3.0914,5.0476,
-6.6087,23.2692,28.9975,59.2192,-16.2398,-15.8426,-3.4125,1.4527,31.7989,-4.3512,32.3738,-28.5691,-0.25484,12.216,
-7.8994,15.8475,18.34,49.6409,-14.0601,-13.2046,-2.9663,0.64268,31.0962,0.0076918,34.0472,-16.3702,-12.0494,9.3144,
-6.9435,11.5222,16.7572,43.2876,-10.8064,-11.9306,-0.37817,2.5323,29.2304,-1.439,34.4145,-22.1369,-6.9882,11.1656,
-13.9987,7.6974,15.9928,28.3983,-6.5426,-10.9736,0.84935,1.1751,26.7537,3.2271,23.4316,-16.2291,7.5311,15.5569,
-18.2202,-1.6823,3.2228,12.9558,-3.4987,-12.4843,-4.2631,-2.0287,19.1227,8.0949,9.7334,-9.2298,5.5127,14.8647,
-17.3682,-10.9811,-7.8166,5.1888,4.6652,-14.8687,-6.1767,-7.4508,6.165,1.5834,6.98,-11.8093,-3.7359,10.8396,
-18.2541,-16.589,-10.2399,-6.2095,10.652,-15.9046,1.9069,-8.4498,0.49268,-1.4039,7.5258,-3.388,1.7907,8.7432,
-17.8817,-17.2809,-14.2047,-14.2731,5.9156,-14.7093,5.8903,-4.8093,-2.6704,2.2958,-3.772,7.1796,4.3348,7.4952,
-15.363,-16.726,-16.245,-20.1651,11.3452,-9.4884,3.6083,-4.5208,-3.9564,6.0144,-10.2946,13.4973,2.1461,8.4918,
-12.9947,-14.2764,-13.3419,-22.8118,24.7645,-2.1705,2.9101,-5.2136,-3.2369,10.474,-10.1591,23.7747,5.392,7.9825,
-11.251,-9.0813,-12.0592,-22.4072,31.3531,6.6369,9.4841,0.88402,-6.8988,22.3793,-12.9238,34.3995,5.5506,4.6112,
-15.1557,-10.7055,-12.5409,-27.0883,29.2305,9.8538,15.9045,5.4103,-11.5466,27.0616,-12.3893,32.5765,3.048,4.5755,
-15.6923,-11.9916,-14.6808,-27.8734,32.7795,7.3346,13.9861,6.0497,-10.3716,16.7615,-10.1999,23.3913,1.4191,9.6034,
-7.0383,-8.8618,-15.7283,-30.0576,41.8997,11.7148,15.0754,8.0971,-6.857,10.9349,-11.9983,21.5057,3.2619,11.9195,
-10.2312,-10.9814,-15.5078,-39.1002,43.0009,14.1454,17.7861,5.4419,-11.0251,13.4125,-12.9654,23.8305,17.1662,7.5891,
-13.4737,-12.2507,-16.505,-38.6821,39.939,17.1533,17.6832,5.1154,-13.7381,17.428,-12.1875,34.9342,30.2362,5.6875,
-5.9168,-11.0337,-17.9253,-34.9154,41.8809,18.0518,15.176,6.2547,-15.3244,10.5978,-17.7232,33.802,25.5297,8.2383,
-4.597,-3.1404,-9.619,-19.3224,35.0302,16.9692,14.2654,8.2896,-6.6917,6.1055,-13.2849,17.6739,9.898,14.011,
-15.6498,-4.1573,-7.3546,-7.3173,18.8284,7.5149,1.5994,3.6948,3.5918,-0.28637,-5.4984,2.5134,4.3631,6.1805,
-15.9159,-7.5235,-3.7801,3.0039,3.5987,-3.3001,-4.0404,-3.0346,4.5813,-10.1514,1.3392,-1.2525,2.8963,-1.6619,
-16.648,-4.9027,-1.3839,16.9237,-10.7172,-14.9124,-6.4493,-7.9139,1.1732,-18.4601,5.8384,-15.2774,-11.3775,-0.83953,
-12.998,9.4915,10.0274,30.0083,-18.872,-6.0637,-3.4108,2.9248,15.2028,-7.4706,19.5881,-25.3273,-1.4153,8.1289,
-24.0285,15.55,12.077,42.3078,-31.8397,-6.423,-7.3038,0.097958,28.3906,-8.2274,26.0051,-31.7616,10.4799,4.5079,
-26.9251,11.7247,18.1011,53.8693,-44.0293,-12.7863,-3.9732,-1.3539,38.0154,-11.5904,38.5448,-39.4969,6.9588,8.0936,
-16.6327,13.4318,23.2815,64.7371,-33.1926,-10.5729,-4.2168,4.5119,41.0371,-4.146,47.1988,-32.3066,3.649,12.4287,
-18.045,15.0356,18.9922,63.8656,-33.6115,-8.0104,-10.7126,5.6875,33.7543,-5.3437,37.1362,-23.1375,-0.90858,14.5751,
-20.3366,10.2775,16.8887,53.2851,-30.1485,-3.6733,-6.6955,7.2744,36.5496,-6.9511,32.0158,-26.0876,-5.6744,21.4138,
-11.8856,1.9478,10.0906,40.9287,-14.2395,-4.8992,-10.6321,0.57115,31.9463,-0.2673,21.9,-24.5224,-0.51348,11.934,
-2.4956,-7.81,-2.084,24.373,-1.9365,-16.1744,-18.1891,-12.4785,15.9295,-7.964,6.486,-18.7125,4.3378,-2.882,
7.5361,-3.726,-2.6819,12.667,2.759,-11.5885,-10.1079,-4.258,0.87374,-19.7787,5.9761,-16.3847,-0.98414,-2.8298,
7.5661,0.83611,-6.8595,11.4253,4.0399,-4.6264,-15.7681,2.2642,-4.4811,-17.6277,-0.64922,-18.2939,-13.9403,-7.9625,
10.2454,-2.3473,-7.653,8.0884,7.8951,-2.1797,-15.063,2.8515,1.8135,-2.47,-4.2255,-3.4577,0.15275,-0.49507,
12.7639,-11.6067,-11.7733,1.5773,2.8414,-6.6287,-11.9903,3.8855,-3.3572,-8.2273,-3.7312,-2.0454,1.3482,4.5961,
19.7111,-14.2845,-12.513,-7.1942,7.9738,-6.7129,-9.8246,7.0266,-14.7247,-18.8207,-5.4353,-8.6711,-12.8327,-5.8028,
30.5797,-12.9453,-8.388,-15.9213,15.6903,-0.52529,-4.8966,5.1589,-17.2154,-8.5322,-8.9653,2.9364,-5.6751,-4.4901,
36.2165,-10.4816,-12.9461,-17.6178,13.0615,3.1214,-6.2903,-0.69445,-18.8343,-1.513,-16.8638,12.16,8.7655,1.3227,
36.6949,-8.6476,-17.7132,-22.5865,13.0009,6.5493,-9.528,0.55228,-20.3555,-0.69909,-17.5389,13.5997,14.8673,-1.408,
40.2778,-8.1288,-14.2398,-28.4617,14.631,12.9053,-9.4383,4.376,-21.5443,1.7534,-16.4866,17.1221,9.6369,-4.216,
46.297,-5.4716,-12.6628,-28.441,21.2252,22.0129,-6.2207,7.2467,-23.8669,6.7097,-22.9694,24.5307,8.3356,-4.2038,
46.4112,-4.1795,-15.7594,-31.5553,32.0027,25.0304,0.41909,8.7401,-24.363,7.271,-28.8221,29.8077,15.0663,-1.0595,
38.5653,-6.0979,-17.4649,-37.6157,34.6623,25.2163,4.0094,7.4928,-26.0348,5.6299,-30.7078,27.7783,10.5469,-5.0933,
37.6972,-7.6602,-15.9351,-38.2513,28.2438,27.5592,1.8406,7.5247,-22.5445,8.1841,-27.4195,30.4499,7.0215,-6.234,
33.0253,-5.2724,-16.4252,-26.3152,12.5694,21.5674,-3.5725,4.1811,-17.3354,5.7649,-20.9536,29.5868,3.2263,-2.0035,
21.644,-2.3047,-13.2703,-10.6363,-2.2847,15.6938,-8.4196,2.2433,-10.2695,-1.5706,-12.7067,17.4475,-10.2239,-1.1602,
19.381,0.24369,-2.8332,2.6558,-16.2477,15.2346,-9.3607,6.9289,-0.01238,-0.99446,-7.1236,9.1703,-9.6105,-3.0188,
17.9774,4.3267,4.8089,14.7888,-25.1543,4.9203,-17.2349,0.96981,-3.1449,-0.6936,-7.4193,3.0762,-1.0799,-6.9348,
15.2118,8.6466,9.0999,28.0015,-34.0091,-3.8108,-24.6367,-6.078,-5.1256,-5.7134,0.97979,-11.2084,-6.0766,-8.2061,
11.8887,10.0557,12.41,40.4214,-42.0919,-4.0641,-27.0149,-3.7854,8.1976,-13.5656,10.5617,-24.6359,-18.7272,-9.6417,
7.0778,13.068,16.7269,52.0961,-53.6664,-5.9894,-28.5273,-1.8708,21.8057,-21.6697,13.0618,-37.2577,-26.5216,-10.7507,
2.5558,12.5249,19.3387,60.9009,-62.3773,-9.7277,-27.5388,-5.374,23.269,-21.0926,18.7855,-46.9531,-29.0279,-6.4902,
0.95617,10.8091,18.6608,56.7649,-49.4754,-12.0363,-23.4761,-6.4978,19.9446,-14.0423,20.0685,-46.0639,-20.5373,-4.6546,
3.5499,8.9557,17.7821,49.2617,-35.1789,-9.145,-15.0779,-5.385,19.4709,-10.5486,18.1415,-38.7208,-5.5667,-5.0982,
4.7829,4.5618,11.4123,36.6648,-32.1041,2.0088,-11.7631,-5.0617,11.5539,-16.6644,13.1964,-28.2026,-0.89419,-4.7925,
0.3986,3.0828,2.2919,23.1367,-28.4906,4.5396,-14.6727,-4.517,-3.2393,-25.5467,2.0408,-19.5208,0.3643,-3.3001,
-2.0352,-1.4403,2.1541,9.2153,-22.4426,-1.0352,-12.828,-4.2458,-8.95,-17.2648,-0.010115,-14.4929,0.34267,-0.69131,
-0.949,-5.6924,2.989,7.6982,-21.5782,0.47295,-8.6841,-2.0631,-2.6282,-4.178,1.9189,-11.2132,-7.8728,0.79574,
-1.8564,-6.7971,-2.0106,2.4161,-15.945,4.7831,-2.8604,-0.011084,-5.363,-4.4093,-3.4989,-4.7558,-12.2209,8.9432,
-2.7089,-6.3893,-2.3719,-10.7443,-5.8295,5.4602,3.0958,0.47151,-12.2721,-4.6266,-8.5916,1.7963,-15.3441,22.5066,
2.0329,-4.3187,-3.9168,-16.1256,2.9564,12.1223,5.0792,3.0948,-15.6331,-3.6261,-11.6915,3.3757,-17.5569,23.687,
10.5878,-1.1673,-4.164,-20.4605,16.8791,25.4949,11.5231,9.6578,-16.1412,-0.99822,-12.918,10.4038,-2.4035,16.481,
6.0962,-1.0973,-5.3604,-24.5351,22.0123,24.3271,14.2062,7.632,-16.6189,0.50793,-12.6248,17.4926,11.8407,17.4208,
-1.0183,-5.8519,-9.8593,-25.9557,15.8711,17.5646,10.4615,5.2462,-10.3189,-0.48664,-11.8676,17.889,6.5508,14.4471,
2.8994,-5.983,-11.1957,-25.8444,22.1495,26.152,8.8697,11.1977,-9.7,1.9529,-15.4941,21.1542,1.3372,2.9752,
2.4841,-3.4548,-15.1037,-29.8374,27.3284,31.5723,11.471,9.3205,-21.8925,7.8613,-22.5182,27.8387,-0.91217,0.62709,
-4.8954,-7.5859,-19.5001,-41.0625,25.2068,30.1603,14.6392,6.3512,-18.6507,12.6923,-23.0953,31.953,2.9989,3,
-6.2889,-10.7461,-17.1248,-45.1063,28.7556,26.1815,14.0018,11.9961,-15.8445,8.7972,-20.0223,37.5076,11.7371,-2.7236,
-2.2961,-11.7881,-14.892,-45.5334,36.9127,21.4772,15.3308,9.1072,-28.9938,8.5104,-24.8465,42.247,9.828,-0.87293,
-0.71232,-13.4912,-13.5163,-46.6575,37.5902,18.2601,18.7495,1.3297,-33.6412,9.9282,-30.5868,30.5534,7.7918,2.0717,
5.115,-3.5232,-1.1362,-29.7581,27.622,17.6469,19.5528,7.0345,-18.6073,4.5118,-20.0745,14.6202,15.0371,-7.2116,
-0.73552,2.2319,5.4395,-13.8726,11.8647,11.0445,7.0514,5.4076,-10.5014,-8.0515,-8.0238,1.5712,8.1093,-11.3582,
-11.7784,4.5083,4.149,1.0598,-2.9472,7.9714,-0.60276,-0.21976,1.2161,-9.4963,-0.79367,-4.3079,-6.4772,0.89223,
-17.5796,5.925,7.5155,15.0962,-16.5089,4.8416,-6.1097,-1.4114,9.5788,-6.7574,5.2795,-13.9314,-16.8144,0.1158,
-16.5246,6.0517,13.8132,28.2904,-29.6184,0.69494,-9.5998,-1.327,18.6453,-2.4953,19.0627,-22.2545,-10.0207,-1.8196,
-16.2563,12.6782,16.1177,40.693,-37.121,-0.070112,-9.7469,-0.52421,29.8189,1.7515,28.1626,-26.4631,-7.2505,6.2436,
-16.0038,19.8713,17.3198,52.3514,-31.7603,0.17529,-8.439,0.23014,32.1271,5.2618,26.2319,-19.8136,-13.323,9.4844,
-13.5978,19.6433,17.2449,58.0074,-31.7829,-0.31716,-8.4146,-1.2295,28.7532,3.5003,29.4782,-19.1067,-20.7185,5.5409,
-14.4689,13.8848,15.969,54.2858,-30.5992,-1.9856,-8.6331,0.5313,26.3049,0.15659,32.771,-29.2888,-15.86,6.4135,
-14.0829,5.8215,15.0111,42.8342,-19.1219,-3.3123,-3.2944,0.98158,19.9066,2.5576,26.4666,-24.6389,-0.8084,8.9214,
-11.0688,6.6771,12.4232,33.7562,-11.4671,0.01974,5.8211,-1.2465,13.1686,5.5376,16.4425,-9.0606,5.6276,6.2165,
-13.7787,3.8663,3.9651,24.018,-9.8149,4.3569,6.4362,1.2384,11.896,3.7591,14.4921,-4.0579,-0.97706,3.9153,
-18.4955,-5.7657,-2.2984,9.3206,-6.0928,0.96244,-1.9037,0.92317,3.2285,4.2564,9.5252,-8.8761,-9.8363,-1.3808,
-11.8422,-2.7686,1.9369,2.2539,4.6371,3.5558,1.3435,-4.1939,-8.2934,8.5808,-5.1463,5.395,-5.6309,-2.0213,
-6.5524,-2.8435,3.5079,-6.317,16.1695,7.9222,12.1092,-4.6652,-9.483,1.5585,-13.8759,8.205,2.1792,0.75151,
-10.0156,-10.3857,-2.4872,-13.1689,24.3579,2.1442,12.347,-3.4209,-9.3959,-7.2121,-9.6693,-6.3873,3.0123,-3.6319,
-4.5942,-10.7266,-3.7844,-18.6455,33.5015,6.3536,15.4623,-3.6978,-12.2064,-0.51268,-11.0171,1.829,0.42123,-6.3067,
1.707,-8.3958,-3.7983,-24.9986,36.5531,10.0702,19.1138,-2.7531,-18.4639,6.0256,-17.8284,15.8192,-1.7732,-6.6512,
-1.2877,-9.3381,-5.0165,-27.8372,31.9495,5.6094,17.9672,3.1969,-17.3558,6.6281,-15.7941,24.1494,5.5638,-0.94974,
-6.5126,-7.8139,-6.1617,-33.3978,33.407,9.1292,21.2275,6.8615,-9.566,8.1586,-11.4725,27.5211,11.0145,5.8561,
-13.3532,-6.8631,-10.1304,-34.2865,32.3664,13.4022,21.4001,-0.2991,-11.8846,6.7052,-19.4608,33.5826,3.1228,3.0942,
-10.1419,-7.4152,-8.5587,-30.783,27.05,13.5619,20.5981,1.647,-13.0997,13.0514,-18.7755,37.8342,7.7562,3.8729,
-11.7021,-11.5496,-14.0707,-40.2642,23.7402,15.8817,16.2292,5.6456,-17.8569,11.0635,-19.3357,35.8051,11.3882,5.8097,
-13.1695,-6.2773,-14.4317,-41.4638,35.5717,27.7028,15.4964,8.4403,-21.8476,3.8917,-23.7197,36.7903,12.3921,7.1483,
-14.3076,-3.4906,-7.7813,-39.4579,39.7044,27.4869,15.5305,7.9334,-22.9469,1.2481,-23.2604,33.1366,11.1666,3.8269,
-15.6183,-0.62958,-5.6267,-29.6186,23.5838,24.1509,17.7321,10.109,-18.9185,1.8961,-19.2132,22.7127,-1.3135,4.3206,
-19.0197,4.2282,-5.7713,-13.862,8.0688,25.1117,14.2578,12.3947,-9.1065,-1.11,-12.758,12.6726,-10.8759,7.9176,
-31.9785,-2.5327,-8.5587,-4.5944,-4.1052,9.8665,-0.69764,0.32309,-1.5705,-8.5149,-9.3412,1.0663,-8.0539,1.8991,
-37.6521,3.6446,-0.57314,9.7813,-14.223,-0.60766,-4.3919,-2.3476,12.2623,-3.9069,3.9935,-2.6131,1.3471,3.4722,
-39.4901,2.7032,0.66631,22.5715,-27.4696,-3.704,0.45158,-4.8581,17.5523,-3.9132,13.6361,-10.892,-5.7236,2.5412,
-39.7718,3.7463,6.1699,35.3172,-32.4494,-0.34828,-1.7447,-4.3256,23.4891,4.2753,26.0743,-12.8896,-9.4773,7.9323,
-46.3036,7.1365,9.4152,46.5748,-38.9383,-10.2098,-15.74,-8.1634,23.2845,8.1161,30.5354,-22.9625,-10.5959,6.733,
-30.0281,16.8313,22.3477,53.4214,-35.6381,-5.2588,-6.2393,0.52118,35.9875,-0.56566,37.8624,-28.3335,4.1399,12.5957,
-26.2983,9.5548,19.5605,45.3953,-32.5358,-7.3537,-1.5265,-1.4384,32.7436,-14.6317,26.4315,-24.7054,5.217,3.1627,
-31.4689,2.2331,14.5309,35.9232,-32.5116,-13.1788,-8.1834,-1.834,24.9944,0.34619,23.3998,-9.1231,-5.701,2.0095,
-31.268,1.8581,10.0437,29.1885,-37.0688,-8.7728,-13.2362,-1.965,15.0591,2.9766,21.2725,-0.26007,-9.4566,4.5401,
-20.715,5.6028,7.5126,25.0268,-20.7447,4.287,-2.3192,0.080911,8.8527,-11.302,14.6933,-14.3445,-1.6586,3.3036,
-20.9184,-1.0001,6.0978,13.4021,-5.4,-0.30876,0.23035,-3.2982,7.8394,-23.0366,9.9555,-13.3635,-0.59495,0.21259,
-20.3862,0.26518,8.3834,8.9825,-1.2194,0.43313,-5.809,-3.3412,6.6461,-7.5544,8.1533,-0.75115,-1.7641,2.8514,
-23.9837,0.24927,-2.2429,-5.5362,-13.1978,6.1913,-10.2812,-6.0333,-2.4298,6.9988,-6.4359,3.1501,-9.8534,-7.925,
-20.3753,2.8856,-5.2416,-14.6038,1.6941,8.9535,-7.013,-0.60938,-2.0428,5.3738,-12.9191,16.2177,-13.3596,-8.6546,
-8.7887,1.0253,-5.6505,-17.343,15.6924,6.7291,-5.8693,0.15008,-7.9458,2.4003,-14.3131,13.075,-18.5835,-0.66347,
5.8386,6.9893,-4.1061,-21.846,26.8022,12.8328,5.8115,-3.4743,-18.7972,2.0153,-17.0697,9.1575,-19.1557,-4.2391,
19.5883,15.7287,-3.86,-31.1403,24.23,13.5089,-1.7683,-9.0507,-31.7694,5.2686,-29.5431,21.1413,-26.2013,-18.0847,
32.513,28.2826,0.71061,-33.128,30.9711,18.0012,-12.7492,-4.1686,-34.0813,4.4704,-29.6985,25.6576,-31.3777,-20.2534,
44.6622,38.3958,-2.9475,-30.4175,42.3692,24.3929,-12.2252,-0.30356,-30.3492,-3.7516,-25.2655,13.7538,-22.0235,-12.0483,
56.0825,47.6614,-2.2889,-26.1821,45.6119,25.8217,-4.743,-2.6957,-28.5285,-6.4188,-22.7855,7.1438,-7.6866,-12.7719,
66.8175,57.8169,7.0077,-25.5752,39.9829,30.5391,-3.9762,0.84072,-32.1192,-15.6749,-25.7569,0.44889,-9.6358,-18.7543,
76.9085,68.4479,9.4793,-18.2561,39.5121,37.8653,-10.9685,7.5387,-31.6383,-24.3753,-33.3705,-4.3988,-21.1087,-23.4136,
86.394,76.0309,9.6334,-12.5815,44.6127,35.3524,-15.3721,4.9172,-16.9655,-14.9591,-29.6811,0.44445,-18.155,-22.7317,
95.3103,74.3613,15.3222,-8.4524,40.008,30.339,-13.0037,3.1762,-8.2346,-9.2411,-19.7053,-4.4027,-7.9069,-19.9217,
103.6917,78.5768,20.6698,3.6239,30.8586,32.3751,-12.2235,5.8777,-14.9714,-16.8813,-18.523,-16.1896,-11.2889,-21.6185,
111.5702,81.3337,24.0091,13.7711,27.3201,29.2275,-22.3361,3.838,-10.9398,-18.0378,-16.2065,-14.4951,-21.9397,-18.6344,
112.9505,76.6947,23.2915,23.3087,22.5474,16.6276,-27.9858,1.9205,-6.668,-14.7864,-11.6187,-17.2408,-34.7233,-15.8291,
102.0761,70.8882,20.2068,26.4899,11.7946,15.8713,-23.6551,4.4564,-6.9908,-13.1758,-12.6088,-21.75,-33.9655,-20.9049,
82.4539,59.4038,16.584,19.5976,-3.0131,13.4726,-30.4308,-3.0416,0.65923,-14.3137,-12.3344,-21.891,-29.9996,-22.5434,
75.8197,58.009,18.2403,26.3757,-10.6654,11.9411,-32.7025,-6.4743,4.2349,-16.5881,-0.74789,-20.8188,-25.0661,-16.1288,
72.2342,57.9027,18.5919,29.6137,1.0616,17.0094,-28.8124,1.1447,-3.2498,-23.7878,4.117,-27.7646,-18.2597,-12.2688,
58.7411,49.6078,12.1738,21.0879,-1.4127,7.3118,-36.2424,-0.85213,-1.1267,-30.5555,-0.46833,-38.6322,-24.8772,-13.9433,
56.4219,44.4626,9.7566,16.2077,1.3236,4.222,-37.6831,-4.4164,2.5564,-27.0347,-0.1988,-33.1805,-19.7687,-15.2754,
67.1366,50.9534,18.3302,16.1991,15.3442,18.0687,-24.8168,4.5257,-6.2741,-11.3126,2.2233,-17.0897,-4.4825,-13.395,
59.3727,47.6557,12.1687,11.1298,25.6315,24.3356,-29.3536,8.8334,-14.8153,-0.87216,-10.6846,-1.9643,-5.5394,-14.7605,
41.7104,34.1908,-2.6614,4.1953,28.4321,15.6449,-37.7155,6.8574,-9.1059,-12.8712,-16.3103,-6.1848,-19.307,-12.4288,
36.9179,33.5859,-10.5762,1.5332,38.2951,28.8062,-34.0063,6.9281,-6.1492,-9.689,-11.957,-1.4756,-16.5818,-9.2727,
39.0413,33.9806,-10.9057,-7.7176,36.4796,31.7778,-31.9662,7.9584,-8.673,4.9924,-16.0605,12.7129,-6.4281,-10.6448,
42.0015,31.4599,-12.1796,-14.4854,36.7014,25.0509,-22.3352,14.2298,-10.5627,17.1058,-22.8092,23.3993,-10.8627,-10.0056,
45.0248,33.1879,-12.1719,-13.3751,42.4528,35.8401,-15.4515,20.3657,-18.8468,1.9795,-24.5743,7.8953,-11.8982,-3.8619,
40.8773,24.9299,-14.3339,-19.8032,42.7979,34.1714,-19.3449,16.2515,-22.5365,-12.2393,-21.6534,1.0344,-7.81,-0.7379,
44.209,23.9158,-11.5454,-15.2408,45.5325,23.9262,-14.328,18.6506,-15.3999,-9.577,-16.498,15.0723,-1.0749,-2.6221,
45.1721,29.4705,-11.5758,-5.4085,46.4157,30.4446,-6.9606,23.5569,-8.4502,-2.4947,-13.3392,13.8063,-3.1796,-1.7416,
37.6413,25.7743,-13.7736,-7.0124,46.5235,38.7411,-9.4353,21.1798,-4.0865,-1.3809,-10.1285,11.0495,-1.0606,1.2552,
44.7828,20.6124,-10.2961,-8.7608,55.0603,35.6937,-11.5205,21.5963,-12.2775,9.0663,-13.1362,22.6791,12.7416,-1.4712,
56.1958,14.073,-10.6422,-15.9479,56.577,31.1415,-10.829,21.7463,-25.6408,9.4862,-25.3635,28.0668,5.7101,-7.1675,
51.2574,8.4082,-11.9321,-18.3657,48.3619,31.6834,-7.7694,22.8519,-25.4281,8.4349,-26.252,28.3112,-1.8631,-1.9174,
35.6489,-1.7373,-12.6619,-17.7453,46.4245,29.7823,-2.4825,20.5169,-16.6712,9.3755,-20.3381,27.0944,12.3487,0.12625,
28.448,-15.733,-15.0359,-24.6345,53.0388,25.826,-2.0924,12.2958,-21.2147,8.0898,-18.8766,31.9765,21.3692,-0.12252,
21.1975,-25.2739,-19.1955,-26.7719,53.9538,20.661,-8.4748,6.9787,-21.6291,9.7736,-17.9855,36.5654,5.987,3.5002,
10.5257,-32.675,-20.2129,-31.6735,53.8501,15.806,-6.761,5.8367,-14.3058,17.1409,-18.1112,43.7714,4.7842,3.0493,
-0.22898,-38.4275,-24.3025,-37.4856,48.6911,12.4477,-2.9811,2.5942,-13.4472,17.5585,-19.4349,48.3762,15.1027,1.4203,
-12.9897,-39.2549,-24.0497,-23.9083,31.6696,6.6392,-5.4533,0.75175,-10.9532,7.105,-13.689,39.4481,10.5811,5.9144,
-26.3103,-50.6384,-21.4014,-9.6993,15.6694,-7.8592,-16.9365,-6.7652,-4.2704,-5.1314,-8.2884,22.9812,4.8846,0.9802,
-38.8317,-47.1179,-8.5479,4.9826,0.62928,-21.4876,-16.4022,-5.8771,10.0858,-0.485,6.3089,7.5024,17.1247,6.7057,
-43.7324,-44.7728,-9.4813,18.7837,-8.2061,-18.7523,-20.7207,-9.8632,10.324,-11.0612,9.6663,-7.0478,16.5796,7.2677,
-42.7957,-42.8098,-4.8151,24.4049,-7.4727,-21.2426,-20.2009,-5.656,13.32,-14.0129,9.8092,-9.6379,11.0051,3.2162,
-47.2174,-42.8923,1.0174,24.6283,-10.1574,-26.9575,-13.9269,-4.5933,14.208,-0.39772,10.4259,-8.3363,-3.3935,-3.9666,
-52.5795,-43.2113,-2.4181,20.258,-5.692,-20.5198,-1.0402,-8.1746,12.3912,7.3389,15.103,-4.9441,-2.708,1.0921,
-54.4862,-43.7514,-11.1908,17.3556,5.9779,-19.0474,0.22752,-8.8887,9.9608,5.2116,12.0279,-2.478,11.5545,4.1598,
-58.689,-49.0807,-13.1707,14.6268,11.1626,-26.3405,-8.2223,-6.6688,13.9426,12.3705,10.1007,-1.1243,18.9357,-0.66927,
-69.2677,-59.1513,-17.6831,8.9284,-1.5582,-32.9552,-13.9957,-13.4991,13.1061,12.5921,9.0128,-9.252,5.2661,-0.62912,
-68.1242,-48.1302,-14.9347,15.3828,-5.0799,-26.3979,-5.6839,-8.5916,13.5248,10.632,11.6052,4.5598,4.7094,12.1829,
-70.3035,-48.6166,-17.4133,5.3006,-8.6317,-28.1887,-11.6096,-9.5225,8.3747,9.5119,5.6065,15.8556,10.2112,9.5239,
-69.219,-46.9051,-15.6453,3.2956,-1.1242,-23.3641,-11.1542,-10.1563,5.7029,12.0744,2.1364,15.145,11.7674,5.8188,
-56.6295,-36.6188,-7.717,11.0518,13.0433,-10.1519,3.615,-3.0392,0.29925,2.4317,5.6239,13.0312,6.9642,11.4954,
-47.6881,-37.0728,-0.26408,9.1834,24.6737,-7.3737,11.4726,2.6868,0.040324,-11.4525,8.9019,6.7057,4.3772,9.1185,
-50.6112,-37.7407,4.0903,12.0071,17.4089,-8.3773,16.569,3.0077,11.6073,-3.5343,16.5627,3.4115,12.7915,10.0178,
-61.6745,-39.3329,-4.35,9.8402,8.6509,-10.285,18.467,-4.8857,15.2494,9.211,18.9431,4.6524,17.8083,18.5756,
-68.2181,-40.1061,-8.6686,10.9368,11.7475,-9.9091,16.1539,-5.7976,16.5034,13.7198,19.9755,7.9889,12.6427,22.0406,
-68.9455,-48.787,-9.1123,5.9422,11.0426,-16.063,7.4719,-9.7881,21.2982,15.7891,18.295,5.5814,3.207,9.6309,
-65.5317,-51.4032,-10.2526,-1.4039,5.3186,-17.2681,8.711,-14.2623,21.7073,21.3495,17.4385,10.308,7.5946,2.5453,
-70.7588,-46.8729,-12.5302,-2.2838,-0.78529,-19.6067,7.7062,-15.335,10.2817,16.2119,8.6797,15.9562,11.9589,3.8391,
-68.9236,-42.1326,-4.5477,-1.6646,5.0466,-19.3944,6.2795,-9.5944,9.6646,10.4187,7.1943,21.2651,8.8311,12.7671,
-59.7265,-38.3994,-2.5872,-2.2876,7.8773,-11.7228,6.1439,-8.2958,12.7006,9.0707,13.7525,15.8923,7.0964,17.0628,
-54.4557,-34.8903,-8.9397,0.98288,3.3071,-8.8505,6.9803,-7.0749,12.1793,7.8033,14.6148,7.4668,10.7682,13.3881,
-53.1166,-34.2429,-8.4035,0.92368,3.5908,-11.2118,6.5615,-3.7581,11.9307,4.4428,10.8457,10.8754,7.2298,12.1027,
-50.8939,-31.2245,-4.5249,-2.0238,0.9648,-10.5391,8.578,-4.0146,7.3585,5.1401,6.8205,6.8484,3.4215,10.4122,
-50.2506,-30.7973,-4.2534,-5.7592,-4.3957,-11.8349,14.33,-6.6662,3.5425,8.2062,4.4826,3.063,10.4466,4.0029,
-53.2611,-32.5646,-7.1319,-3.7262,-0.99827,-13.7761,13.229,-10.3634,7.4276,10.847,5.4192,16.1354,21.6302,5.4497,
-51.2705,-35.6724,-11.2833,-7.1181,-9.3745,-13.1905,3.9996,-11.9107,9.1511,11.8835,5.335,17.8188,21.5377,7.2923,
-43.1326,-36.183,-9.8831,-13.6806,-17.7299,-14.0861,-2.2659,-8.5448,6.4326,9.0011,5.2561,3.9755,13.7377,-0.13484,
-40.0627,-27.7455,-6.3976,-6.5933,-2.5661,-14.2053,0.76233,-1.7656,4.6004,2.1945,6.3865,5.1828,10.5033,-4.4655,
-43.9257,-28.4911,-4.0858,-5.2336,1.3238,-12.3889,3.1267,-4.07,6.7347,4.4732,6.4855,14.0311,2.642,4.9617,
-42.9774,-33.2896,-2.6354,-12.8733,-12.8556,-10.9226,-3.0867,-9.8513,5.1254,10.2303,1.0347,11.502,-8.3627,7.797,
-26.2987,-21.651,4.2714,-9.2086,-13.1691,-5.4463,2.4014,-2.5116,-2.4128,6.2423,-0.47344,12.7398,5.6366,-1.8296,
-16.4054,-14.8083,5.22,-6.4869,1.721,-1.0222,14.0675,4.6285,-3.4733,2.2523,4.1343,18.4834,19.3984,-1.9613,
-29.5211,-21.3914,-4.011,-6.3385,-12.0001,-7.4686,7.1981,-3.1208,6.6177,2.8403,6.538,8.4565,11.3656,8.521,
-41.8498,-23.2412,-1.601,-3.3068,-25.3801,-8.7075,0.25827,-4.1386,16.1024,3.875,11.6891,-0.96871,3.694,14.9993,
-27.5285,-18.9544,8.6182,-2.6267,-12.4084,-6.739,5.0633,-1.4799,6.9413,-1.178,8.5774,1.9812,16.4875,5.4225,
-19.3693,-12.7557,9.3062,1.1461,1.1104,-5.612,8.8568,-2.1142,0.98096,0.097723,3.9652,10.2983,13.8108,3.4097,
-29.2943,-13.4368,2.4811,0.11322,4.8999,-4.3112,2.0587,-2.9515,9.5994,2.9841,7.1015,6.7881,9.1256,6.5793,
-28.2596,-12.3894,3.5373,-0.13431,-1.9013,-3.3289,2.6583,-0.12308,8.3003,0.15378,5.4708,3.7295,12.1937,2.0875,
-17.164,-11.887,8.3867,-1.8135,-5.8851,-5.2988,15.7552,-1.8029,2.2587,0.38552,1.5267,5.1929,5.9185,1.7212,
-21.1956,-11.8967,5.7143,-3.3919,-2.3985,-5.2218,19.8715,-3.382,7.1849,3.4959,6.9791,-3.0724,-0.94413,7.6435,
-27.1547,-6.8446,3.4428,1.1499,-6.111,-3.9446,7.1099,2.1236,9.1639,-0.57073,11.3806,-7.2264,-0.88749,11.0413,
-25.5252,-9.326,0.82659,-1.8111,-10.0826,-6.6,0.41675,-0.89588,6.6859,-5.3567,6.8414,-2.9364,-5.1726,6.0405,
-20.6195,-8.7667,2.223,0.22551,4.6223,-4.758,7.1404,-2.7706,12.0695,-1.1787,10.2875,-5.1706,5.7429,4.232,
-24.9259,-7.0356,-1.0436,2.8633,5.4296,-6.1595,5.5069,-3.3274,9.176,-5.6875,11.8392,-16.1883,18.1725,4.7012,
-22.4665,-4.6853,4.3212,5.584,-3.5733,-6.7543,9.0327,2.1748,6.6972,-1.9723,10.6469,-8.4685,13.2258,7.7932,
-23.7694,-6.5733,6.7135,1.6336,-2.1536,-8.0358,7.2859,-3.0173,2.198,4.1721,1.5724,1.922,-0.82416,1.3,
-28.369,-0.63529,8.4798,-0.63361,10.7501,1.3644,7.0897,-5.9693,3.271,4.1627,3.1653,6.8679,0.91252,6.7656,
-37.5131,3.9821,8.212,1.5736,12.2742,2.0055,10.7617,-2.9601,2.3518,-6.9333,4.6622,-1.9799,1.5807,8.5289,
-48.5187,-1.3185,9.4065,3.6483,7.44,-4.6228,6.9825,-0.13136,1.4874,-11.579,3.6595,-13.1897,2.6911,-1.8648,
-55.4897,-8.229,7.6371,0.77809,-3.8525,-6.0324,-2.8365,-0.84661,5.9776,-7.2686,4.645,-13.6034,-0.60406,-1.0298,
-51.437,-4.1196,6.4557,5.3114,-8.2004,-2.0548,4.806,-2.4828,11.6452,0.63956,11.3564,-4.3509,2.5659,11.3243,
-52.9303,-7.9698,4.8633,0.41272,0.72754,-8.9216,15.8456,-7.3953,7.8128,-4.9427,16.2184,-11.0794,16.5119,8.4759,
-56.0212,-7.0097,6.4997,2.3162,8.8786,-10.3145,15.8589,-2.6133,9.7541,-9.9487,17.6555,-14.2715,29.6212,6.5206,
-60.3727,-5.1428,2.2536,3.1417,-4.1874,-9.2135,5.2664,-1.4924,14.9537,-6.9415,11.7756,-4.7379,14.3466,8.5402,
-62.7761,-4.1114,3.3232,-1.1446,-12.8542,-7.4559,5.6734,-1.6438,17.1895,-2.9098,18.059,-3.2488,12.2805,12.6071,
-72.266,-4.5878,0.47223,-1.7993,-15.2164,-8.2133,4.6098,-1.3042,2.0581,-8.2788,13.842,-11.9719,12.7485,8.7172,
-77.089,-4.7945,-4.3766,-0.24482,-17.6777,-4.3463,-6.2718,0.70248,-5.8986,-4.4076,0.96011,0.31577,-2.1164,6.2657,
-74.6328,-5.2297,-4.8369,-1.9174,-19.7505,-1.434,-6.1365,-2.4732,0.48131,-0.52775,0.66154,6.8043,-16.0894,6.6131,
-67.5033,-1.3007,1.961,-0.59725,-11.5754,2.2672,8.3317,0.32656,4.55,-3.6293,6.6476,-0.5936,-1.024,5.4932,
-66.5868,-3.3921,2.0843,-1.2843,-12.5685,-1.0023,13.0137,1.9942,3.5537,-13.2937,6.9717,-6.5835,2.2916,4.4407,
-62.5916,-4.6346,2.4414,4.5771,-17.1168,-2.8701,10.3047,1.3924,8.6429,-13.9422,8.9637,-9.563,-9.4153,10.4406,
-56.9079,-10.1413,3.259,4.7846,-14.6438,-4.1444,14.5069,0.34474,10.0522,-6.3572,8.4257,-6.5791,2.7188,8.3681,
-55.9036,-14.3531,-0.79311,0.64094,-14.2469,-8.2338,10.7442,-0.15811,7.0392,-7.4218,5.9922,0.082423,15.5711,3.0455,
-61.2262,-15.4201,-5.0838,-0.36139,-18.2128,-7.7398,0.4586,-0.14862,4.6887,-17.0994,5.1507,-2.8146,14.1549,2.3809,
-58.9989,-13.5308,1.006,0.62439,-18.566,0.43714,0.43108,2.2707,3.4432,-14.6274,6.7696,-4.5741,6.5569,6.0942,
-52.3255,-10.0676,3.1148,-0.61836,-26.3701,-3.6864,3.0565,4.7855,0.10317,-8.6881,6.1225,-1.6481,-4.6828,4.5237,
-46.053,-8.7407,-1.1699,-4.6786,-30.3315,-5.6344,6.9705,6.1856,-0.62592,-8.408,8.4062,3.03,5.9621,3.047,
-50.0382,-13.0365,-5.9197,-8.736,-29.4757,-2.886,1.732,-4.7906,-1.5525,-13.2059,0.18931,-4.8643,18.1381,-4.3665,
-50.8923,-5.9878,-4.1183,0.9472,-19.9944,-0.78464,-1.7464,-6.4314,6.2535,-10.9673,1.1423,-10.8394,13.1934,-1.212,
-47.3566,-5.1464,-0.9789,0.40821,-18.3126,-3.1479,1.2509,0.70366,3.9503,-10.3093,5.8942,-5.8505,6.135,9.9478,
-38.7306,-8.212,4.3825,-5.8828,-16.7315,1.3797,7.9246,2.1072,-10.3867,-10.6548,-4.5828,8.6005,1.4286,5.0126,
-28.9352,-0.2475,5.8063,-1.9149,-12.1126,6.3582,10.5821,0.77551,-13.7406,-7.8466,-8.8871,12.5435,-3.7188,-3.2424,
-24.3066,6.0339,-0.32666,2.0564,-10.4215,0.1921,2.2344,1.6933,0.099231,-10.2678,0.80469,-0.74257,-0.1212,-0.15531,
-19.9559,8.0822,0.1751,1.9333,-8.3502,-2.7117,-4.6483,3.0377,-1.8351,-14.9544,-1.6535,-5.0366,5.6704,2.2644,
-7.1894,14.3459,6.9133,-1.557,-5.9208,5.6459,-0.51304,1.8914,-7.5094,-14.0572,-11.6774,-4.7341,2.4379,-4.1382,
7.342,25.0546,3.6062,-0.98184,-6.5301,13.5021,-2.4105,2.742,-10.9154,-15.6241,-10.4951,-10.7168,-2.5288,-12.0849,
21.0015,35.8434,5.077,2.6925,-1.0766,15.3431,-1.0608,6.6748,-11.9477,-15.4098,-9.142,-10.7972,-3.5824,-11.1188,
33.8414,39.7185,11.2797,-5.423,4.0495,10.8068,5.0284,0.73095,-14.3641,-20.5107,-18.9576,-16.6571,-13.2492,-15.5131,
45.9109,50.592,14.7005,-3.4102,10.7966,12.8098,2.5578,-2.4462,-10.369,-25.3056,-16.6151,-24.5755,-14.6236,-19.1619,
57.2562,52.8592,10.9264,-3.2056,11.1127,13.0055,-2.8983,-2.2994,-5.89,-22.341,-15.6182,-25.5111,-13.7462,-22.8329,
67.6799,55.7132,11.958,-1.808,13.0975,15.3587,5.7113,3.3822,-11.0807,-16.9032,-21.1885,-14.5804,-17.0188,-18.8113,
73.983,63.6986,18.7124,0.95162,19.783,24.801,14.7686,8.2405,-20.2978,-26.2531,-20.6406,-7.1981,-13.3466,-10.2109,
70.99,60.3586,18.5535,0.89452,25.3449,27.6513,13.4005,6.7822,-17.1517,-29.4986,-15.5458,-11.1045,-4.3511,-8.1524,
52.6306,43.4807,9.4865,3.9739,19.2444,13.2182,9.463,1.3136,-11.061,-15.4364,-16.3002,-18.8739,-8.6693,-8.3862,
35.3728,27.374,4.5786,3.2535,6.0387,1.8198,6.4851,-2.6216,-6.5409,-13.5462,-10.5015,-24.4904,-20.2004,-7.4011,
20.7174,20.4294,2.3761,0.64817,-1.5545,-3.592,-0.17052,-4.3925,-4.2203,-23.3384,-8.9076,-27.8415,-18.9882,-10.8134,
6.9409,13.4188,2.7152,1.0914,-0.49711,-12.5353,4.1783,-4.6111,-3.4849,-21.9381,-10.3011,-27.617,-3.8694,-8.7186,
-6.732,1.7677,2.7935,2.713,-5.0468,-13.9526,11.3991,-2.647,0.3394,-13.632,-1.729,-23.3089,5.2806,1.6867,
-12.1126,-3.1587,-3.6406,9.2991,-18.844,-11.1872,2.5205,2.8145,7.5499,-8.9577,5.1232,-12.7513,10.2664,8.3344,
-16.4473,-8.031,-8.4836,8.4999,-26.0285,-16.0594,-3.6563,4.3326,11.1945,-5.7689,6.9852,-1.6219,14.7119,5.665,
-13.0501,-8.513,-1.7081,8.4723,-22.0562,-13.1676,3.7937,5.037,10.0409,-2.5305,7.048,2.8137,5.6345,4.8431,
-7.9288,-10.8948,-3.5338,6.5173,-25.5536,-4.6648,3.0839,4.7343,3.6534,-3.343,-0.12381,8.9116,-2.4166,2.6244,
-1.6685,-13.1334,-6.696,3.2344,-19.6818,-6.7953,5.7912,7.343,3.9163,3.6065,1.3301,18.982,8.3337,2.9491,
-0.36333,-11.6223,-0.75084,10.9939,-9.1011,-13.8591,12.4333,5.2149,11.6353,8.4516,11.132,6.0327,8.5568,7.3512,
-4.1977,-16.2273,1.2224,16.1193,-11.9291,-10.6175,6.3852,0.081786,17.2037,4.0883,16.2491,-8.4292,-0.63348,9.8026,
0.39261,-15.2538,-2.2253,13.2238,-12.6597,-6.6061,7.4482,3.4512,13.7613,2.3969,13.3459,-9.7311,7.1172,6.8042,
3.7434,-10.4823,-6.9124,11.4662,-9.0079,-11.5122,14.2318,7.1002,9.0793,3.699,10.617,4.3503,13.4389,3.986,
-1.5429,-10.0943,-3.3641,13.9114,-8.2263,-11.0625,11.2087,8.8436,16.0061,8.0566,16.4877,5.7765,12.8736,14.1109,
-14.4657,-15.7554,-3.6444,12.5946,-16.41,-9.4349,4.7516,4.4563,11.6715,4.1987,13.0881,-2.2831,13.5474,12.7821,
-15.0438,-17.7024,-8.2463,4.6083,-17.3534,-7.9047,3.5024,0.81473,0.84811,4.429,4.1079,0.74615,11.7705,4.7841,
-10.0438,-14.4711,-10.4028,5.0549,-19.4454,-4.7791,2.087,1.9709,7.7869,13.0811,6.5127,9.1373,8.4129,7.1484,
-14.5029,-14.8079,-6.1635,10.2948,-29.6069,-6.6615,4.1309,4.0218,16.7197,13.0193,11.6651,4.0095,10.0773,7.4424,
-18.4532,-19.2221,-0.49077,5.8207,-25.9023,-13.9748,5.3293,1.3704,8.0037,3.5611,10.4833,-0.56959,9.9546,4.5857,
-9.6332,-10.8379,3.877,14.1486,-13.7433,-10.244,-0.775,2.7344,8.4873,4.7937,11.7825,9.1056,5.019,8.1669,
-8.8139,-3.6798,2.9214,25.5921,-20.3902,-5.5317,-4.8257,4.7399,22.0781,11.978,20.4759,5.9082,0.13847,7.4363,
-18.6492,-4.6641,2.5051,29.118,-32.9053,-6.887,-0.43884,3.2499,31.2386,10.5362,26.7189,-1.9181,5.6735,3.8569,
-18.7354,-5.1075,3.56,35.8067,-34.0644,-10.5712,-3.064,2.8141,19.482,7.7347,21.5005,5.6687,4.128,7.2405,
-8.6932,-5.5239,6.9616,33.8995,-32.7436,-11.624,-3.1209,5.2966,13.2516,11.3682,15.6309,7.0158,-10.2197,9.4574,
-1.6639,-2.0592,13.5338,30.1783,-33.9123,-5.8651,0.19966,6.1841,18.0001,10.4451,19.2728,-3.7692,-8.5217,8.649,
-3.7336,-0.7305,10.0703,30.5369,-37.421,-2.3798,-5.3561,1.7153,21.4995,6.6851,21.7315,-4.2661,6.0896,11.7456,
-6.6428,-1.4098,-0.41586,33.7663,-39.2731,-5.3703,-5.7576,1.8534,22.8611,10.8635,25.9712,1.5335,12.8344,11.7638,
-9.1367,0.12094,0.57307,38.9709,-40.2913,-11.7969,-3.4841,4.6343,20.5252,11.1757,28.7514,-7.2355,5.3156,1.4171,
-7.1423,1.5598,13.0721,43.8633,-37.3918,-11.5713,-0.38284,2.9104,23.6319,6.1667,31.8469,-14.9964,3.5505,4.224,
-4.7854,0.50214,15.6624,46.0525,-34.6661,-12.3231,4.9428,0.32539,27.0345,5.3147,32.8284,-15.5427,4.3016,18.0706,
-5.9445,-1.4562,10.3841,36.0583,-31.6221,-11.5837,8.5026,3.1982,17.6994,7.8879,27.0021,-10.7537,5.9717,27.9533,
-3.9006,-2.0919,6.1454,19.7948,-21.2888,-3.4169,4.377,9.514,11.0941,9.1019,16.4641,0.2556,6.3365,29.4094,
-2.7025,-3.8946,-0.97197,6.4353,-11.3344,0.16261,-4.5625,4.1227,6.5723,10.9661,6.3175,6.507,1.6178,18.486,
-7.6019,-11.1326,-7.4213,-7.6893,-12.8236,-5.8728,-0.19125,-3.5966,-2.2583,11.0312,3.2872,6.8396,8.5105,3.2768,
-11.2432,-11.6699,-11.0734,-17.11,-10.3671,-3.3514,8.7382,-3.1395,-9.1123,7.2359,-0.52557,8.1163,15.4715,-6.4407,
-13.702,-12.1748,-16.4347,-24.5189,3.9934,1.4293,3.6345,-0.78187,-10.2527,3.1865,-8.4477,8.3528,5.1433,-15.9361,
-10.9517,-15.7827,-14.4845,-25.9401,13.395,4.2359,4.8624,6.0137,-7.2272,9.262,-3.1203,15.0823,1.9424,-8.7132,
-13.9098,-18.4511,-14.3386,-28.4815,8.4935,5.187,11.0784,1.0732,-17.6398,6.5369,-9.923,13.454,0.62061,-5.0569,
-18.1369,-15.1749,-14.6833,-35.2085,10.1532,7.5271,10.1725,-5.4989,-18.2689,1.5652,-18.2454,9.5135,3.2347,-9.3335,
-19.2181,-14.5056,-15.4896,-36.2295,4.0004,3.942,4.9829,-3.4818,-10.6648,5.5686,-16.4278,9.1836,2.3177,-8.5325,
-9.1469,-17.7326,-16.7293,-34.7786,1.1089,4.4284,11.6738,1.7888,-13.1584,10.7781,-15.6831,13.6943,0.49142,-1.9945,
-0.16219,-27.0328,-22.7155,-46.7919,15.1423,6.3318,13.6244,-4.3445,-24.179,7.9623,-23.1782,18.4163,6.9694,-4.5264,
4.668,-23.0004,-23.2805,-56.1562,28.3338,12.2189,15.6995,-2.6376,-25.6208,11.3409,-23.7155,25.0241,16.6746,-2.8086,
0.53155,-27.8872,-27.1863,-66.8868,34.3465,12.9316,20.5421,-0.068758,-29.8681,8.7323,-33.862,26.4147,14.7098,-7.9427,
3.8743,-33.4445,-29.8934,-76.9736,39.0351,16.4944,20.7558,0.4173,-39.6448,9.6546,-45.9303,37.8457,10.9352,-12.7683,
8.7033,-29.7506,-33.6435,-86.4552,38.8619,18.1561,12.0384,0.63346,-45.2203,15.583,-50.0434,45.939,3.7713,-11.761,
0.7091,-29.1709,-33.3123,-82.3525,25.202,8.6306,10.1108,-4.9482,-38.4095,15.8533,-41.9793,35.2285,4.268,-13.225,
-7.5282,-25.9744,-24.5647,-63.3113,15.9769,0.88215,12.8789,-3.2052,-28.8743,12.9737,-33.676,26.3661,13.1711,-13.8775,
0.63608,-13.8111,-15.8602,-45.4126,2.0029,8.0596,10.6599,3.7355,-20.8753,12.1953,-22.9788,27.1943,7.5602,-6.2964,
14.6979,1.1176,-2.8572,-28.5879,-7.7583,21.676,12.4304,6.4039,-9.4994,10.4997,-10.5124,21.7067,-1.5705,-1.5799,
12.9727,10.33,-0.99858,-13.4955,-6.0875,14.2297,6.141,-3.3803,-11.581,2.8799,-14.4614,6.3043,2.1391,-13.2957,
9.5427,6.577,2.6765,-5.2142,0.30308,6.8682,6.0137,-0.52618,-8.2348,6.8042,-11.4248,-4.5588,12.8568,-11.2928,
5.596,5.2183,4.4444,6.1861,-13.8151,-0.29259,5.1707,1.4334,-7.2586,-1.7985,-10.739,-12.9621,2.9266,-11.5794,
3.332,9.7259,7.0698,13.0453,-27.0862,1.6532,3.4142,-1.0628,-3.931,-6.9933,-6.2383,-18.4514,2.751,-13.7767,
-0.0011727,9.8652,9.2971,12.0216,-25.4608,8.0614,-3.2981,-0.75804,0.88459,-0.066199,3.0541,-12.7645,9.0939,-6.9245,
1.4452,9.7555,11.6316,18.5314,-24.8972,9.9886,-2.1361,0.73393,3.2419,3.7944,3.8349,-5.7319,3.7278,2.1683,
5.6968,9.6523,11.8978,20.7937,-15.2085,10.3529,5.2227,4.0641,10.7599,6.459,4.087,-4.4239,-4.6909,4.93,
1.0166,1.8423,1.543,10.3871,-15.7422,5.3934,-2.3211,-0.99998,7.2222,5.1076,5.7699,-1.2664,-10.194,-1.6323,
-4.347,-1.1607,0.0043484,7.3535,-28.7772,4.1057,-3.6283,-3.8327,2.4504,5.2829,9.2799,9.897,-8.6182,-0.57027,
-7.9428,-3.9834,-1.4424,8.3583,-30.4248,5.7873,-0.51832,-2.1567,6.1595,7.3762,8.7233,7.8567,-9.5476,1.8743,
-2.1636,-6.6367,-4.7303,6.411,-18.9583,-0.34449,0.47665,-1.5449,4.8261,7.8975,2.8973,1.1188,-6.5647,-4.0227,
4.7151,-6.7202,1.8203,-0.24038,-14.9286,-9.4826,0.44828,-2.8983,-5.1047,3.5675,-2.579,0.087566,-0.8679,-11.0124,
2.504,-0.050438,10.8701,7.0049,-14.9967,-0.23657,0.90331,0.16768,0.98616,6.2455,0.94977,-4.256,8.3432,-4.5671,
-6.0821,0.19355,8.5309,12.6104,-22.0509,5.321,0.60838,4.2552,12.2554,4.1838,6.9186,-9.0621,8.5657,3.1789,
-6.4405,-1.0234,8.7419,11.6123,-31.5743,0.422,2.741,8.5792,12.7249,0.79929,8.1907,-4.9034,-0.86627,2.2649,
-2.9206,8.9202,12.7971,16.9416,-29.4387,2.0844,3.2995,7.3415,8.8284,5.813,9.3865,-0.99379,-4.9116,1.4061,
0.38787,12.0002,8.4137,15.2015,-22.129,5.5745,0.45018,0.87526,4.683,10.0437,11.9565,1.2352,-4.3762,2.0448,
9.2829,8.6291,7.1859,15.9771,-19.5955,2.5889,0.6646,0.099843,2.7153,9.6821,8.1061,0.92015,-8.2105,1.1992,
9.4488,10.2805,13.2623,23.9365,-24.9277,-2.1462,0.86569,3.7093,9.0599,6.4501,8.3426,-10.4633,-17.1181,-1.0419,
1.892,11.8331,14.6359,28.5257,-33.3144,-6.5969,0.57255,7.1019,16.9522,4.3756,16.7599,-18.2716,-17.2963,-1.703,
0.33224,13.0513,10.3833,31.1524,-36.618,-8.1293,-0.90806,7.1577,13.5245,-0.22548,14.3081,-15.2471,-8.5458,-0.15452,
-0.16963,8.4118,11.6885,26.3912,-33.4566,-2.3389,0.11075,-0.98451,11.7491,2.1984,6.2192,-10.4757,-3.6943,1.7834,
-10.0414,3.8095,10.2641,23.6027,-38.439,-4.8499,1.7911,-8.397,12.7316,6.1641,9.9432,-17.3189,-11.4266,-2.4212,
-4.1363,11.7759,12.541,36.2865,-41.4351,-7.4512,4.094,3.6762,21.1265,7.2407,23.4466,-23.9926,-14.5974,-0.34749,
5.271,12.9975,12.7524,44.1118,-37.503,-8.9323,0.95606,5.3838,21.3052,-2.8349,33.0065,-24.4812,-15.1675,0.1553,
3.0263,12.6998,11.5051,41.4648,-29.4682,-8.8785,-1.0295,-3.6165,11.3496,-7.9677,21.3849,-19.6381,-16.1859,1.592,
-0.52953,12.9019,12.7432,38.0133,-30.5924,-10.2738,0.4783,-2.9174,8.2587,-5.5612,14.3175,-24.2444,-21.9634,-2.3601,
0.70708,13.3329,10.2911,33.0807,-39.6031,-12.7911,-0.75546,-2.0192,8.0039,-8.8432,13.2173,-29.7796,-23.7791,-11.6187,
3.316,13.256,8.4686,32.7833,-32.6474,-10.8181,-1.4333,-0.693,10.6574,-1.3227,17.4857,-16.1825,-11.0242,-2.4853,
-3.1493,4.2657,6.5145,26.9602,-26.832,-13.5434,-5.2034,-0.65119,13.3922,12.7362,21.2575,-9.4267,-5.542,9.7152,
-5.3709,3.5279,8.5337,22.932,-28.1146,-9.3566,-8.2659,-0.13018,14.5168,12.4539,21.4278,-10.7895,-10.9943,3.3472,
6.0386,6.6904,9.9497,17.2175,-14.8585,-2.5285,-1.0213,-0.60454,16.0562,3.9939,18.6961,-6.2858,-4.5501,-0.70976,
11.702,0.26345,4.7736,10.6411,-4.0849,-7.9204,7.4761,-4.1835,14.8516,0.13909,18.2975,-11.452,6.5692,2.9485,
10.7586,-2.4038,3.282,12.1719,-8.9013,-7.6862,13.0532,-1.2812,14.2016,2.7817,20.8147,-16.3086,5.934,1.5659,
8.6669,-4.6698,0.19271,-0.60987,-16.5621,-1.4404,6.0032,-2.6505,4.1906,-2.6877,6.5505,-9.0635,-4.5451,-2.3843,
12.4857,-1.979,-0.30079,-7.3217,-6.8912,2.0205,3.7148,-2.9734,-6.6661,-2.526,-6.8575,2.5676,-8.6107,3.5433,
14.6286,-2.8249,-1.2468,-10.739,2.681,-0.029143,11.2049,-4.2415,-11.5686,2.4456,-6.4463,6.7518,-5.202,2.3666,
14.474,-6.2706,-8.6441,-19.4945,-0.61309,0.2138,11.7377,-1.3357,-14.9721,1.5762,-5.8183,14.3007,3.0643,-1.8725,
18.4261,-6.8584,-16.8023,-28.4479,-4.4329,1.1651,2.3566,-1.7377,-19.8581,-5.7495,-14.1465,14.4067,0.4701,-1.7604,
31.4205,0.06103,-7.358,-29.8745,9.9331,9.0489,14.0253,-1.874,-13.123,1.5854,-10.6462,7.9987,4.5393,-0.44945,
43.6353,-0.42479,-8.363,-34.8307,23.4371,-0.1709,18.0043,-6.5825,-17.6385,0.044234,-16.2741,-3.0863,2.3385,-14.5225,
55.1172,9.7236,-6.8969,-32.259,34.0822,1.7675,13.55,1.5253,-20.9185,-2.369,-21.0823,3.8478,0.26997,-14.0126,
65.9101,23.2402,-2.6267,-34.1798,45.0527,15.7615,11.7727,0.46988,-24.966,-3.6727,-27.0482,2.1707,-7.9409,-11.726,
76.0555,35.9458,0.18221,-36.2266,50.7854,27.4698,18.5379,-9.9224,-33.8322,-9.96,-33.3793,-9.7699,-15.9004,-18.0121,
85.5922,41.7428,3.3045,-35.74,46.0508,14.9751,22.4871,-8.6044,-32.0434,-13.46,-30.6534,-9.9068,-4.5823,-18.1364,
94.5567,50.8078,1.1781,-31.6674,34.1292,15.5229,10.533,-3.7494,-25.3001,-12.1705,-26.886,-8.83,0.031453,-19.4584,
102.9833,56.677,1.3483,-30.0083,31.3585,27.3659,4.8398,-4.2473,-27.8795,-12.6451,-26.9596,-4.2029,-6.9603,-19.0138,
110.9043,50.8662,2.7137,-34.4743,35.2616,22.3495,9.3697,-3.0286,-30.545,-13.3326,-28.2345,2.7977,-2.2044,-14.499,
118.35,50.2246,-0.3414,-28.0678,34.11,12.8141,6.3971,-0.43651,-23.8918,-8.6765,-27.5046,3.594,2.7484,-13.6288,
112.6953,45.5239,-2.0081,-24.6965,17.9634,13.2501,2.3979,-4.9901,-20.7716,-8.3969,-22.2389,-1.6833,-7.7809,-14.4983,
106.6567,35.3204,1.7275,-22.4916,5.4365,14.1421,4.4234,-5.4133,-23.1405,-15.3649,-19.2175,-10.0178,-12.3755,-13.8696,
108.2108,34.4063,-0.063116,-20.419,13.5462,11.6065,2.9525,-0.50948,-24.8853,-15.6483,-24.0903,-16.4068,-7.5353,-19.5451,
107.262,41.7421,-0.78246,-18.4707,20.6874,18.8641,2.0527,7.4751,-16.4025,-6.273,-18.5473,-6.5041,-0.57551,-14.7568,
97.2111,33.6942,-4.3507,-19.5318,7.1539,22.3118,-2.65,5.8215,-19.0336,-8.066,-16.7113,-1.5344,2.5923,-10.7381,
99.8141,23.2364,-1.4386,-19.0828,11.7863,23.1422,1.1244,5.2312,-22.4713,-4.931,-15.4676,3.6189,11.8367,-9.3709,
98.4048,18.2266,-0.62912,-23.4817,25.1791,15.246,6.6003,7.0868,-19.918,-5.8402,-16.709,6.535,12.3316,-8.5675,
83.3414,13.2771,-8.7861,-29.3032,19.4505,10.9568,9.5788,7.6254,-16.7942,-7.418,-21.4908,3.2509,9.6635,-6.1252,
71.8335,2.1161,-11.8743,-29.7141,9.8474,12.4685,12.1375,5.9631,-20.3663,1.9452,-23.8168,2.3329,8.3608,-5.0348,
65.836,-1.1441,-4.1722,-20.4597,7.0871,8.5872,9.7218,7.7742,-20.3496,5.9256,-18.2904,11.5927,5.6898,-2.5633,
48.3885,-5.8957,-4.8858,-14.8938,-5.8711,-1.569,-0.020071,5.3796,-12.3795,-3.1066,-11.8903,8.969,-0.4362,-2.4095,
31.3852,-13.4964,-8.2083,-5.5643,-13.9547,-3.6443,-3.1526,-3.3791,-0.79071,0.21307,-5.6335,-1.9335,-0.65123,0.38636,
19.2585,-18.471,-6.7517,6.8209,-18.4199,-7.7637,-6.8196,-9.4431,7.4517,4.0569,3.3818,-10.4941,5.1727,1.8092,
6.0516,-15.4347,-3.4543,20.5116,-31.4147,-18.3853,-16.5335,-8.3944,12.7889,-2.9354,12.3377,-21.4339,8.2365,-4.0842,
-4.4344,-6.3135,5.4301,33.3809,-43.6298,-17.2822,-20.362,-6.4444,26.0013,-4.6873,23.1666,-30.7529,2.9221,-4.803,
-14.7734,-11.2373,6.0681,45.4781,-55.112,-14.3171,-25.407,-7.986,35.5285,-7.2985,30.9356,-32.282,-6.8942,1.7517,
-16.7793,-9.599,5.2221,56.8494,-64.9414,-15.3863,-24.3648,0.20619,36.2891,-2.5221,35.8282,-18.2939,-8.4088,10.3235,
-18.4239,-4.4434,8.5241,67.5384,-73.8193,-18.0784,-21.6977,9.1118,33.3887,7.5113,37.7762,-3.4576,-10.5557,10.4273,
-20.9338,-12.6128,8.2537,65.2941,-72.5235,-17.2348,-18.7087,9.77,38.8568,7.7836,42.0172,-4.4556,-2.4506,14.3811,
-19.6778,-14.2664,6.3122,59.4478,-54.0721,-14.7544,-13.7298,6.7735,36.5254,-0.87832,41.9063,-15.2753,8.3017,20.2671,
-20.1843,-14.1336,6.6566,49.3732,-48.2969,-14.5923,-9.2906,5.6441,23.9698,-0.58466,32.8842,-12.1896,2.7419,19.7742,
-24.9988,-18.8289,6.0163,38.9392,-58.6555,-10.5835,-7.5279,13.7414,24.701,7.8866,25.8497,0.35216,-2.4841,16.4184,
-28.5606,-17.4582,3.004,35.3978,-41.8798,-5.8509,-4.4251,17.4964,25.8703,12.4748,20.6831,4.9105,0.79825,11.3357,
-29.0162,-19.5441,-1.7559,24.8382,-25.267,-2.8486,-3.4366,14.7593,22.1488,18.7161,18.2371,11.1235,5.3298,13.7889,
-35.9521,-32.351,-14.1838,12.2606,-31.3434,-1.7136,-10.461,10.9812,16.9635,20.0032,18.5892,17.6869,1.1536,21.1568,
-41.0257,-36.6766,-15.2611,5.2581,-27.5347,-3.5391,-4.5308,14.1789,16.9096,15.9109,19.4017,18.0716,6.8691,23.2615,
-40.2513,-37.6093,-9.7658,-5.4216,-12.1439,-11.7626,4.659,10.6771,14.6899,7.9665,13.6584,6.6234,19.7134,15.358,
-36.3902,-42.5834,-13.5182,-11.3625,-12.3794,-10.5749,3.8975,4.7336,11.8805,9.8986,9.4647,7.1901,22.387,14.4367,
-42.4017,-47.7414,-25.7225,-19.8401,-25.7366,-9.4582,-2.6031,2.5214,10.2036,16.5355,6.0043,19.7741,7.0643,15.9809,
-44.437,-44.6358,-26.3484,-24.1932,-27.6873,-15.3983,-3.6521,5.9857,6.4578,15.3025,2.0287,23.6492,1.5788,11.8884,
-36.9502,-48.2243,-20.4291,-29.9723,-14.9389,-19.295,1.8696,4.6623,-3.5705,9.5638,-5.8059,14.9995,6.7866,7.8008,
-36.4203,-50.3924,-18.9622,-36.1278,-12.3555,-12.5938,5.8549,0.28535,-9.8641,10.6771,-9.555,15.7867,2.2822,8.5381,
-41.4659,-38.2098,-22.645,-33.9601,-18.8448,-1.7151,0.6831,5.0885,-14.5747,17.7495,-12.3559,28.9395,3.1094,8.9897,
-37.7729,-32.3018,-22.4916,-37.9481,-10.2423,4.8958,2.3293,10.8092,-15.8696,19.8175,-10.4095,35.0366,12.805,9.6556,
-36.9527,-40.9689,-25.9625,-48.6867,-1.9151,-1.1829,6.0458,2.9294,-17.8096,15.7365,-13.1593,26.6675,11.0722,8.1121,
-30.6381,-40.6799,-23.6816,-48.4166,4.7075,-1.3529,10.7448,6.3693,-16.5001,21.782,-18.3955,33.5034,19.8079,10.2767,
-20.846,-39.9265,-22.9839,-58.7684,17.6814,4.754,11.3053,8.6381,-21.5357,20.234,-29.102,43.3032,25.6092,7.0089,
-13.3286,-40.423,-24.0151,-66.3294,27.2257,10.7353,12.5548,3.7817,-26.0283,13.7174,-35.5507,40.7051,17.3238,2.2497,
-13.0107,-35.5874,-20.164,-60.4213,21.7358,7.199,16.6221,0.18018,-20.6101,12.8942,-29.0792,29.586,12.9103,0.66877,
-18.0148,-27.1855,-12.2054,-42.696,6.4523,-3.8381,16.1071,-0.79461,-10.2146,11.1566,-16.7293,16.2416,13.5818,1.1105,
-25.8521,-22.9032,-6.8936,-26.0343,-8.0348,-16.8643,7.1866,-7.7367,-4.058,-0.35894,-7.2898,1.1671,-0.97175,0.32059,
-22.8546,-8.5135,7.4996,-10.3722,-21.6527,-14.8882,5.7914,-1.97,10.2855,2.5548,7.2476,-7.7003,-3.8056,12.8352,
-28.7141,3.5665,18.1366,4.3501,-34.4536,-16.8872,1.5875,2.4868,23.7684,1.4374,20.9128,-21.3383,-2.6132,12.0648,
-34.222,9.6191,26.6895,18.1891,-46.4864,-25.0329,-0.91798,-1.5187,36.4423,-4.9155,33.758,-34.158,-3.9025,10.377,
-30.7225,16.7549,33.7651,31.1978,-57.7972,-30.2797,-3.2731,-2.8739,48.3558,-9.4411,45.8325,-46.2085,-1.2581,19.8771,
-32.7357,21.534,35.5957,43.4259,-68.4294,-30.8732,-7.4152,0.67283,59.5544,-13.695,57.1826,-57.536,0.74565,19.1668,
-30.2895,21.2062,40.2085,54.9204,-78.4236,-27.0927,-4.56,4.007,62.6095,-9.0171,67.8516,-59.8684,-0.2633,17.0528,
-21.4824,20.1749,39.9653,65.7251,-77.6952,-22.8157,-2.5993,3.5255,58.1299,-5.8246,67.155,-47.8405,-10.1295,19.163,
-20.1933,18.9643,30.8186,75.8816,-61.4642,-15.1801,-2.4432,5.7242,51.2673,-1.6189,51.0742,-34.3649,-10.0038,18.4953,
-24.2844,10.5956,20.2926,81.6927,-58.7407,-12.8233,-2.7788,0.5603,35.1758,2.8168,38.3688,-25.0724,-0.24456,11.1186,
-18.7299,6.8266,16.9057,64.981,-50.6367,-16.6334,-0.92486,-4.535,23.1833,0.96058,31.9693,-12.2399,-3.3634,9.2462,
-12.3035,2.5606,11.553,49.5128,-34.1011,-11.779,4.433,3.4499,24.2027,-2.9534,26.677,1.028,-9.9102,7.7273,
-8.914,-7.9571,3.388,32.442,-23.137,-6.9747,9.2287,2.0378,12.8686,-0.60707,13.7481,4.5818,3.4588,3.1663,
-7.8972,-20.4951,-5.9743,16.3955,-17.8924,-10.4126,7.7109,-12.1844,-2.0035,-2.4988,-1.1767,0.9324,11.9282,-0.39789,
-4.7719,-16.132,-5.3748,1.6736,-3.5624,-2.7981,9.8995,-5.3072,-12.6092,-2.1078,-6.5294,12.2048,5.1868,3.2413,
-10.9934,-18.2975,-13.9702,-10.2373,2.1949,-5.2816,9.5466,-2.8195,-13.0578,0.66985,-8.7891,22.3186,-2.1142,0.39583,
-16.6005,-31.179,-26.1473,-23.7231,-2.2752,-15.0878,7.5276,-9.8811,-22.3971,1.5939,-21.277,18.0871,0.9051,-7.341,
-10.7837,-22.5596,-22.6503,-36.3997,-0.21054,-0.082495,8.0403,-1.5754,-26.8379,-0.91212,-26.2669,18.9301,4.7072,-9.3107,
-5.7985,-12.0471,-19.8451,-39.7593,6.0687,14.0225,8.5216,-1.481,-27.6379,-1.3394,-25.1732,25.025,4.9066,-11.1623,
-5.9326,-17.109,-22.0288,-51.4738,11.0071,14.8683,13.3131,-9.5868,-28.3901,3.5615,-26.555,32.6826,12.3251,-11.4568,
1.8951,-12.949,-19.02,-51.398,22.639,11.8068,18.0577,-3.9501,-28.3737,11.3013,-30.0233,44.8217,18.0933,-4.2617,
6.12,-15.0643,-18.8429,-53.6168,29.9578,19.2936,15.528,-0.33865,-34.8664,13.9977,-36.4167,54.7859,10.7412,-5.4522,
7.9219,-15.8477,-18.4353,-55.9434,30.8116,24.1615,21.5862,2.3328,-35.4255,19.1839,-33.5085,58.4886,10.3377,-6.8123,
11.303,-14.4146,-20.7036,-57.8892,32.8193,20.7836,23.1835,3.6391,-34.7462,18.5148,-30.5339,55.4617,13.5738,-2.5472,
17.8558,-17.4063,-17.5331,-62.1287,42.4194,21.9469,19.382,2.4565,-35.0717,15.9577,-34.9685,58.4006,18.0621,-0.46605,
17.9895,-18.5311,-13.83,-58.642,45.8998,22.3173,23.7627,3.9963,-37.0648,15.2412,-40.3422,59.4759,21.0757,-8.8738,
14.2589,-13.3217,-9.8668,-45.2414,40.0124,19.7731,30.7728,6.8897,-31.2256,15.5317,-30.45,45.0612,25.8369,-6.6544,
2.3163,-9.63,-6.3824,-28.4269,23.5117,12.3198,19.2855,1.1742,-21.157,5.4409,-19.4638,28.2575,10.1866,-4.8088,
-9.8741,-5.1959,-0.69693,-12.6213,8.001,-0.95251,4.0284,-5.6452,-9.2826,-2.5985,-13.9576,12.462,-4.5246,-14.1614,
-16.2716,-0.3049,5.8526,2.236,-6.5791,-14.6339,-3.0823,-13.2605,1.6384,-4.6115,-1.7922,-2.3857,-8.1097,-14.9987,
-16.0183,8.6313,15.8654,16.2018,-20.2843,-16.4071,-3.1387,-12.7057,15.6401,-6.0221,12.4154,-16.3425,-1.5975,-1.8066,
-16.9854,15.3443,24.0725,29.3297,-33.1673,-15.9048,-5.3605,-7.605,28.8017,-12.8914,25.7705,-29.462,-13.5527,1.1943,
-15.7253,25.7518,31.0641,41.6699,-45.2772,-16.1556,-7.69,-7.8716,37.4376,-11.877,37.9627,-36.4917,-19.2472,-1.0469,
-17.1919,27.5812,35.9491,53.2697,-56.6606,-16.1504,-14.9416,-10.2919,41.9403,-3.4516,42.4338,-31.8919,-12.3078,0.94407,
-18.8116,23.757,32.1051,64.1735,-67.361,-16.3865,-20.0707,-7.0229,50.2698,2.7812,47.8416,-29.2553,-11.3283,5.9492,
-19.3701,24.0188,20.2966,74.4231,-75.1297,-21.4289,-23.928,-6.8427,40.2639,0.92709,45.6943,-26.295,-20.0488,1.4947,
-10.4951,25.47,21.0072,78.7553,-56.5219,-16.7687,-13.3332,-4.9859,26.7611,-2.0208,38.6141,-18.9325,-16.4353,-0.52297,
-7.214,18.8802,19.9874,59.93,-39.0306,-12.1473,-5.0616,-6.3739,15.7555,-7.4431,22.1972,-21.412,-8.4597,-3.143,
-6.0584,12.2037,11.3163,42.2342,-23.4321,-8.2853,-9.3373,-10.0889,2.0356,-9.6479,6.7654,-18.9221,-2.8905,-13.8008,
4.9104,10.9895,7.2631,28.8537,-21.5443,-1.0395,-7.8129,-4.6631,1.4313,-3.7666,11.4209,-3.6868,-2.2349,-11.5263,
9.9182,7.9198,3.935,18.9275,-6.1516,-1.9412,-1.5598,-1.0091,-0.5825,-4.9867,7.3614,4.6089,-5.4755,-2.6402,
10.5282,0.93691,1.0476,3.6919,8.3175,-0.13751,2.6314,-3.1179,-10.4297,-5.8925,-6.3369,4.0911,-3.4595,-5.6151,
9.8965,-7.314,-5.2818,-10.6297,17.9416,4.2093,-0.41904,-6.7868,-21.3731,-3.1289,-14.1514,10.5946,-6.6264,-18.2936,
10.508,-7.5981,-10.9904,-24.0919,12.2858,4.6801,-2.0807,-5.6567,-24.67,0.6743,-14.0252,21.2871,-1.1671,-12.6162,
14.698,-13.8911,-11.2953,-31.9259,25.6486,1.5068,2.8644,-5.3173,-26.5642,1.5982,-21.3788,24.3482,11.4359,-6.5566,
25.6265,-10.4063,-3.6277,-31.6971,38.2097,7.9238,16.7926,1.0273,-22.8012,10.9023,-20.3371,26.9846,17.7396,-6.4042,
24.3299,-10.9872,-8.9537,-42.0876,47.2451,10.0997,17.1108,0.24255,-21.1924,11.4532,-18.8757,28.9812,10.6495,-2.4047,
22.8701,-15.1482,-15.6471,-53.6623,42.0003,11.9041,11.2637,-2.1819,-21.8488,11.2482,-23.5279,34.4729,11.9389,1.5962,
20.2928,-13.0343,-12.5391,-47.671,37.3109,10.9487,9.8647,-2.2922,-20.2967,9.3682,-21.3931,29.7532,10.9814,0.29487,
17.629,-10.8062,-10.3407,-41.9184,33.144,9.81,8.3087,-2.6368,-18.5972,7.3596,-19.6274,25.5577,10.3228,-0.68691,
15.3662,-8.9528,-7.5511,-35.7879,28.9862,8.9802,7.0871,-2.7193,-17.2402,6.1949,-17.7266,21.3729,9.4622,-1.8508,
13.4801,-6.9693,-5.1696,-30.2662,25.801,7.9595,6.1799,-2.5562,-15.7238,4.8594,-15.6991,17.6804,9.3769,-2.2217,
11.4662,-5.3459,-2.6901,-24.835,22.0836,7.2407,5.086,-2.644,-14.5392,3.3627,-14.0341,14.4507,8.573,-3.2934,
9.332,-3.5791,-1.0826,-20.4526,18.8304,6.3241,3.8167,-2.9675,-13.1847,1.7149,-12.7098,10.6913,7.5765,-4.0599,
7.567,-1.6771,1.1513,-15.6098,15.0492,5.7039,3.3465,-2.5483,-12.1529,-0.075407,-10.7422,6.9161,7.845,-5.5038,
7.1132,3.2442,5.421,-0.57324,0.046262,-7.1716,-7.4591,-4.8055,2.6763,-3.9273,3.4002,-7.5988,-6.7257,-8.0656,
8.1325,10.2802,13.7728,13.5612,-14.0565,-13.9721,-9.9041,-5.4815,16.6157,-7.0656,15.7292,-21.2429,-9.0939,-3.7253,
8.6084,17.8581,21.1407,26.8475,-27.3131,-13.6159,-14.6125,-7.5627,26.947,-10.4985,27.3184,-34.0683,5.5517,-0.12731,
13.8765,24.4994,25.6568,39.3366,-39.7743,-14.7274,-20.4844,-5.1808,25.8121,-5.5303,36.7666,-42.7498,5.5798,-1.5659,
18.5876,25.6808,29.1794,51.0764,-51.4879,-20.3511,-22.3885,0.67356,38.3634,-3.5111,47.3349,-53.9232,-8.855,-1.7131,
22.775,30.8887,36.1055,62.1119,-62.4986,-18.166,-22.4914,4.0076,50.1616,-10.0492,55.5823,-49.7237,-17.1207,6.1027,
30.0855,34.82,35.3851,72.4851,-58.2665,-13.2197,-21.1418,0.87474,43.2957,-11.8564,51.2831,-42.4019,-13.2013,12.9671,
34.0647,23.5718,23.6211,82.236,-46.5758,-15.3188,-19.8735,-3.5163,26.598,-11.6272,34.7088,-43.232,-8.0706,6.4045,
33.9491,13.9627,16.9013,72.2401,-30.7657,-14.8818,-17.2348,-2.8233,19.3379,-13.8218,22.9854,-35.3355,0.12626,1.1996,
36.9737,13.366,17.5745,53.8057,-18.0737,-6.5169,-6.8008,-1.9306,17.9368,-7.4487,21.8474,-21.8871,-4.4607,8.1176,
39.3347,11.3589,11.4585,39.1287,-13.3739,-2.5106,-6.1517,-1.0918,9.8708,-1.4583,20.7771,-17.9227,-12.6289,6.4254,
36.0107,2.4823,0.1658,23.7656,-5.3408,-1.396,-11.5673,2.3481,2.5297,-4.2632,12.2998,-12.991,-2.2303,0.25538,
35.7781,-7.7897,-8.5211,8.2397,9.0797,1.0982,-6.0526,-0.68522,-2.4426,-7.8637,-1.9354,-5.4628,7.0627,-1.2061,
36.2828,-8.0453,-15.9637,-6.3547,21.1889,0.3091,-4.4845,-6.6695,-16.3961,-10.0433,-15.9193,-2.4838,-2.761,-9.5697,
43.2649,-4.6701,-15.4876,-20.0734,23.292,7.0397,-4.215,-0.96672,-29.5123,-4.6198,-28.1002,11.7652,-3.5596,-14.7801,
45.0071,-12.585,-21.3075,-32.969,23.3405,10.9554,-3.4804,-0.90895,-34.9725,-4.8252,-32.199,15.7591,1.4744,-18.7138,
44.4763,-13.035,-23.6442,-40.1499,31.8222,10.0571,1.3082,-2.5416,-35.5253,-7.6687,-37.2564,11.6805,2.1093,-16.8681,
48.3152,-5.7452,-17.1641,-43.2845,44.0129,14.9973,7.2552,5.5651,-39.9012,-4.0751,-37.1902,23.7541,6.5621,-5.4917,
46.8625,-10.2212,-22.4008,-54.6667,51.6157,17.4719,4.8917,1.8567,-51.6072,-3.8311,-43.6359,31.9699,5.204,-9.0186,
47.4252,-13.4638,-22.9849,-62.474,53.3395,16.9055,8.4546,-5.0036,-51.7645,3.1477,-45.838,33.908,4.8922,-17.1545,
44.5795,-15.0666,-23.5343,-69.3306,53.5134,12.035,10.3577,-3.2574,-50.587,2.4767,-50.3188,35.2478,0.74207,-15.6431,
42.3869,-18.5012,-31.7632,-75.776,62.3534,14.2048,9.2541,-2.5798,-53.3364,-2.0105,-55.9765,36.0252,-2.6767,-14.2224,
41.2897,-21.7294,-36.1241,-81.8345,67.2895,19.6192,11.1087,-5.3173,-50.1362,3.895,-54.0642,32.8996,5.6784,-16.2618,
32.3046,-22.5948,-32.2694,-74.7553,49.1522,14.3449,9.2371,-4.2751,-45.923,6.3126,-49.1331,30.2025,3.1688,-15.0449,
21.9304,-20.9981,-23.3432,-56.17,32.103,6.9765,1.6933,-3.2955,-34.7317,1.8363,-37.2668,28.1496,-2.0828,-11.9728,
26.1585,-5.6383,-7.8426,-38.6998,21.0176,4.8705,2.7967,-1.4107,-18.5478,1.9673,-20.9308,15.1322,8.8882,-7.1573,
27.481,8.8,6.728,-22.2778,5.6565,-8.4372,2.147,-3.2543,-3.3349,-0.56135,-5.575,0.12428,2.0879,-10.5842,
16.9141,8.0308,18.1342,-6.8411,-8.7828,-16.8488,-4.9717,-7.1564,10.9652,-6.5532,8.8595,-13.9832,-12.1373,-1.0311,
10.5968,18.6362,26.2049,7.6693,-22.3559,-11.9815,-6.1194,-5.7629,24.4073,-9.0523,22.4279,-27.2442,-24.0628,13.1307,
2.248,26.6771,28.0073,21.3092,-35.1145,-20.4216,-10.5727,-6.8632,32.1016,-17.668,29.7587,-39.7095,-11.0499,17.5248,
-0.297,28.4509,33.0753,34.1306,-47.1077,-25.463,-12.3485,-4.5232,40.7808,-17.572,37.6141,-51.427,-10.8689,18.8839,
-1.9663,32.2876,38.5627,46.1828,-58.3812,-18.8735,-15.7051,-2.5647,51.1085,-10.0101,49.4573,-46.2926,-21.5448,23.2942,
-2.8123,32.7603,38.6594,57.5118,-54.1552,-15.813,-16.2091,-1.4468,48.0419,-7.9633,56.7335,-45.4431,-14.9496,13.2198,
-3.3667,30.0716,34.1705,68.1611,-47.2905,-15.1052,-12.5853,-0.63687,40.5799,-10.6188,51.6425,-45.85,-4.6526,2.5444,
-4.8518,24.652,21.2739,78.1714,-38.9095,-9.6195,-12.5532,1.0885,37.4221,-11.6688,38.1799,-36.1092,-12.3273,6.9714,
-3.3557,16.665,9.1515,65.1657,-28.6211,-4.9448,-14.9333,-0.1818,26.741,-6.8712,22.6326,-19.8427,-12.3107,7.2763,
3.5943,9.8808,6.1921,47.1558,-12.8038,-4.6481,-13.0732,-7.4015,11.0365,-5.977,10.6696,-10.3366,2.528,-6.1759,
10.8504,5.1906,6.0615,30.2264,2.0644,-1.236,-5.299,-7.1988,-3.7257,-4.4133,9.3065,-2.7267,5.871,-9.4208,
10.1996,1.5049,-1.5328,14.3129,12.0639,4.1408,-4.4989,-0.50017,-4.9484,4.0467,0.5532,11.5369,-8.5813,-6.4452,
11.0339,-2.4422,-4.8153,-0.40495,9.8938,10.6413,-4.2289,2.9043,-15.7387,10.5523,-13.4597,24.9447,-14.6944,-9.4329,
12.5408,-6.3928,-5.2495,-14.4806,23.0385,11.2079,0.12192,0.56065,-28.8944,5.8221,-19.1599,26.3405,0.2873,-14.4103,
12.9937,-5.7683,-9.9957,-27.4706,35.7562,8.8482,2.2842,0.28604,-30.4147,-3.4453,-19.2151,18.2521,14.3701,-11.8585,
22.8193,-6.3865,-11.8066,-31.125,46.7467,12.1737,9.8599,2.6795,-20.877,-6.1311,-19.5085,22.4596,22.9076,-1.9879,
27.9579,-6.7262,-9.4107,-34.319,54.7882,18.4329,20.5963,4.6876,-22.7577,2.1907,-22.9175,35.2121,20.3281,5.6029,
14.4698,-13.7947,-16.8003,-46.3598,55.5982,13.7115,14.2988,1.2729,-35.4922,5.1927,-30.4605,32.4969,16.9393,-3.1689,
12.1558,-16.3412,-19.1663,-52.8578,55.6368,16.2633,9.5845,3.1252,-32.5191,6.3274,-31.5249,29.1008,14.4766,-13.1021,
15.5234,-20.9046,-25.9705,-60.5326,56.3959,18.9029,11.1786,-1.6421,-42.8605,7.1526,-43.7334,38.2006,2.7618,-22.6803,
10.7358,-29.291,-35.0173,-71.0006,55.4225,13.9121,13.8826,-6.364,-54.3888,11.544,-55.2094,45.0678,10.791,-22.2836,
6.2353,-29.9437,-34.3621,-80.8406,50.6509,8.2571,14.014,-10.8025,-51.9686,8.9231,-55.2713,35.6153,21.7132,-12.7514,
11.8869,-20.1933,-22.4186,-63.9388,53.6376,13.7875,15.3421,-9.9136,-38.0045,4.7725,-40.1449,27.4526,15.8304,-8.3712,
9.9684,-13.4384,-16.0118,-46.0025,44.3934,13.6831,10.8061,-5.2214,-25.8423,6.6554,-26.408,20.2618,16.5678,-10.038,
2.3807,-0.33977,-9.0256,-29.1423,27.6298,1.0518,4.6139,1.1177,-10.1918,9.3893,-10.7235,4.9461,23.5277,-3.41,
-7.8851,7.3938,0.19327,-13.2938,11.872,-13.1113,-4.3396,-4.2521,4.5197,-1.7789,4.0199,-9.4506,10.5469,-5.1336,
-7.1714,15.3859,12.9557,1.6038,-2.9403,-11.963,-6.2484,-5.6842,12.6842,-7.6982,10.7683,-22.9836,1.4779,-8.441,
-10.1152,18.8011,15.5528,15.6076,-16.8639,-9.317,-11.1761,-6.7894,21.0822,-6.7543,19.2813,-25.0995,-1.9852,-6.4883,
-14.0878,22.2525,22.0917,28.7712,-29.9521,-14.3016,-13.6388,-5.6584,33.9173,-4.1797,32.2244,-31.5473,0.78571,2.3369,
-22.1606,24.0508,27.2732,41.1449,-42.255,-23.8078,-24.6311,-5.5603,42.3671,-15.2573,41.7396,-43.7544,-1.4311,1.9553,
-17.4567,30.8023,32.3855,52.7762,-53.8197,-19.9692,-21.225,-0.88817,44.6455,-15.306,47.4302,-55.2292,-6.6476,9.551,
-8.4553,30.6418,37.4327,63.7096,-36.4905,-16.1195,-6.6949,0.37019,51.8487,-4.9874,55.9125,-52.1566,-7.4538,12.5933,
-10.1172,19.4031,27.7147,73.987,-34.0598,-24.0704,-9.9086,-9.052,35.4816,-13.1241,40.7474,-51.6786,-4.8374,-0.45455,
-8.0639,12.9363,16.8928,76.2967,-34.4264,-22.6262,-12.2064,-9.9552,29.014,-19.0855,28.1797,-46.1677,-0.69079,1.9828,
-7.8211,10.9551,13.7101,61.8366,-18.2608,-15.2427,-1.592,-4.7782,33.2992,-6.6119,27.2119,-38.818,-6.675,9.8177,
-7.1109,6.2005,11.2003,44.8701,-3.0652,-7.8205,9.8318,-4.2503,19.9731,4.1489,25.8206,-26.6068,-5.5514,7.0595,
-5.7203,-4.2948,0.40528,28.0779,11.2188,-7.8333,9.2422,-9.78,4.6747,-7.6693,12.7021,-18.7437,8.2794,0.8517,
-1.5207,-5.9653,-3.4754,12.2932,24.6456,-8.3276,15.918,-5.8188,-2.7165,-14.4399,-0.59349,-10.8704,17.4231,1.7645,
0.25804,-8.2585,-3.99,-2.5444,36.4233,-8.5509,23.8813,-3.7826,-5.6867,-11.4042,-8.5119,-9.0129,2.2778,-0.0284,
12.0527,-1.2555,0.82866,-9.2608,47.0123,5.7005,29.9197,1.506,-9.9248,2.5362,-2.9399,0.92763,7.0823,5.9989,
13.9808,-6.7238,-4.2825,-18.5873,51.6632,7.5279,23.5455,-3.1639,-15.837,4.5532,-10.717,6.4156,20.7574,-0.86879,
14.588,-7.7666,-1.6152,-26.1489,61.0966,5.6297,33.7017,2.8103,-11.5126,12.475,-14.8945,15.6714,23.0066,0.62937,
12.9898,-8.5055,-7.5438,-33.4976,66.3494,5.0514,36.7413,3.847,-20.2216,11.4855,-23.8828,14.9725,11.7447,1.7969,
16.7897,-12.5746,-9.2606,-40.406,75.6243,12.2197,34.7778,2.8933,-23.1059,11.5193,-23.6551,21.546,18.0295,4.8221,
14.0954,-18.81,-14.2486,-50.2742,71.81,8.3532,34.3781,1.0322,-25.335,12.5156,-21.9948,30.1349,31.0477,4.292,
5.7778,-22.7431,-26.1681,-61.3578,65.3322,3.2728,31.5925,0.72932,-27.4303,12.0056,-27.665,27.6039,28.1,3.3112,
2.0567,-26.199,-33.7571,-71.2941,68.1608,7.4147,26.8044,-1.2426,-27.7127,13.2135,-33.2357,26.4296,16.2911,5.5226,
2.8974,-29.4476,-33.1777,-73.2832,67.9277,7.9339,29.5347,-5.9886,-35.2089,11.4566,-37.5083,33.0388,23.5086,-0.11115,
5.3749,-26.9573,-23.233,-66.2347,64.0933,7.6991,38.6091,-2.0136,-30.927,10.528,-30.1961,32.7439,36.1981,2.5468,
6.0166,-13.7706,-7.8597,-48.1606,48.1965,9.1652,36.2925,1.9635,-14.9714,7.9682,-14.2844,16.6793,32.2184,14.9274,
-8.0831,-10.2932,-1.8443,-31.171,31.2047,-5.4847,20.0149,-11.8928,0.026893,-4.3201,0.19053,1.5785,16.1853,10.8984,
-11.6954,-0.27559,11.0405,-15.2007,15.2324,-18.5326,11.2218,-9.9741,14.1253,1.9649,14.2791,-12.6162,6.1757,11.4495,
-14.1271,4.8023,13.5115,-0.18866,0.21844,-17.1796,9.3431,-12.0271,27.3778,-2.7327,17.6405,-25.9592,-3.1125,10.5215,
-14.0025,4.2733,13.4238,13.9227,-13.8947,-24.5846,2.7571,-19.2591,30.0736,-12.4507,20.6796,-38.5017,-9.4336,9.1674,
-17.7418,5.7039,17.1979,27.1873,-27.161,-28.1712,-2.9522,-15.9344,29.4743,-9.0524,30.7668,-49.8096,1.4965,7.8942,
-26.5593,8.4951,19.2993,39.6561,-39.6313,-26.7219,-8.3184,-11.3629,35.6598,-8.7502,32.054,-48.0261,-2.2085,7.1794,
-20.8684,11.1187,24.649,51.3767,-51.3534,-30.18,-9.0246,-17.1889,37.1356,-17.6252,33.7462,-52.6164,-14.3685,6.9901,
-5.5163,10.2105,21.9651,62.3941,-48.8751,-42.4692,-13.5445,-27.4858,23.0968,-26.9319,30.0341,-61.2698,-22.4243,-0.41934,
2.6481,5.7415,12.934,59.0118,-44.4966,-50.1648,-15.1424,-29.2111,15.9264,-26.2801,19.5554,-59.5218,-28.3097,-6.1788,
5.8635,2.9867,10.2301,46.7943,-31.7035,-49.083,-13.2696,-27.4584,16.8994,-23.7391,12.1154,-55.9504,-28.0573,-7.7363,
9.1272,1.6025,6.9647,36.5149,-23.7755,-46.8611,-15.6069,-27.4981,5.0391,-28.8224,5.8449,-56.691,-21.7941,-12.3338,
5.687,-4.2785,0.28035,21.3085,-18.9748,-41.6393,-12.7423,-24.4022,-4.9046,-27.0933,1.6378,-49.4331,-16.1481,-14.4859,
1.4896,-4.5037,-1.6644,10.8708,-5.785,-35.2846,-7.1568,-20.0455,-6.0564,-13.8983,1.0574,-33.4517,-11.3231,-11.2064,
5.2566,-6.1617,-2.5289,2.5058,-2.0634,-29.3111,-6.2455,-15.9505,-4.7287,-7.2798,-0.45231,-18.4292,-7.2692,-7.16,
14.5822,-10.6125,-6.2335,-3.9111,-2.4218,-19.8395,-2.4963,-10.173,-0.58857,-4.9149,-3.3172,-5.2721,-4.9049,-2.8735,
26.7225,-1.2988,-6.3417,-2.7123,11.8235,-5.1517,4.8841,-0.4038,-0.071092,3.575,-4.0823,9.1442,5.0306,2.6013,
33.555,-1.4619,-7.1663,-10.9855,24.2502,-0.74505,5.7961,1.3079,-10.4309,6.0118,-11.3094,21.2495,8.3439,2.6864,
45.6417,-2.5795,1.2177,-12.9777,30.2668,6.2891,13.4023,10.6292,-10.5282,15.0511,-11.8359,27.9281,9.5303,7.5862,
56.7625,-6.0399,0.90366,-19.6708,33.0305,9.0452,13.8035,11.1967,-13.03,21.6198,-17.6335,33.2422,8.718,4.9623,
56.972,-3.9904,-4.2121,-21.6237,33.2178,10.1898,11.7698,7.8737,-17.3095,22.4917,-20.6727,37.7555,11.8102,3.9416,
52.5895,-3.2687,-8.2978,-17.4341,24.9578,9.5783,12.51,6.9192,-19.6453,19.2141,-20.3965,34.526,10.6193,3.2228,
52.5677,-7.1703,-4.1847,-19.0393,19.3631,11.6548,14.4106,11.5654,-13.8872,23.1226,-17.4856,38.4801,11.1876,6.1626,
49.8953,-6.7402,-4.4159,-15.4869,14.827,9.5094,9.2073,11.3535,-6.3054,15.9508,-14.0263,33.2789,9.0697,6.7568,
47.6248,2.1003,-2.4636,-0.45771,7.4296,8.6978,7.4499,6.5749,0.58077,2.7013,-1.8564,17.1822,4.9104,5.1465,
48.6236,6.7949,2.0229,12.7057,-7.1162,6.2478,-2.1562,-1.0504,-0.90046,-3.2452,-3.6733,9.7642,-5.5072,-1.9109,
58.4806,16.7513,5.9989,22.7896,-11.1482,2.7397,-12.3907,0.69989,-0.12307,1.0468,-8.9965,13.2757,-11.2023,-0.59095,
63.6486,19.1204,-1.1097,21.4224,-12.8896,-6.5837,-18.8783,-4.1626,3.7405,-5.7646,-2.6719,-1.6208,-16.7969,-9.2328,
73.0861,29.3014,0.1617,26.1626,-11.8751,-3.0554,-17.5042,-7.0461,1.3469,-8.552,4.4783,-15.6236,-14.1019,-18.5608,
82.8009,41.6433,8.3472,26.5211,-6.3421,8.6973,-14.5258,-5.1771,-12.2313,-6.5926,-4.4675,-8.9013,-12.7738,-15.5189,
91.9329,53.2447,16.7642,21.3146,1.0281,16.1292,-11.0033,2.123,-11.2562,-10.2947,-6.8508,-16.3212,-8.3922,-11.9365,
100.5169,64.15,22.748,29.4355,4.0997,20.2229,-12.994,9.4676,-5.0375,-12.3283,-3.3065,-19.4393,-10.5395,-14.3536,
108.5859,74.401,27.4089,35.1414,13.7359,30.8199,-7.6349,10.587,-3.5297,-5.0807,-0.93871,-4.173,-18.825,-12.2873,
116.1707,77.1676,20.7027,25.0787,14.117,32.5861,-6.4539,2.4795,-7.8976,-10.3197,-7.3903,-6.9356,-25.6497,-13.2373,
114.1417,83.3838,24.5222,27.6714,7.7259,37.1384,-3.4155,10.7664,-3.3264,-6.0853,-8.6341,-5.3144,-17.6032,-6.8994,
103.6778,81.5142,27.1482,28.6622,-0.20946,36.5973,-7.7904,14.7002,-0.95769,-0.6585,-11.7315,-0.89817,-16.3061,-8.6546,
103.2419,78.0694,25.5195,27.907,8.4804,38.2581,-6.8403,14.3004,-1.8643,0.8275,-3.3146,4.9405,-14.3632,-10.0638,
95.6011,63.7443,18.6857,12.1326,12.3099,31.1419,-10.2867,6.2115,-11.3934,-5.0072,-6.0078,6.0904,-11.0912,-15.7264,
83.5983,54.1348,19.9745,5.2581,8.1971,27.8274,-12.0799,2.4641,-10.7101,-3.2607,-13.8427,4.7608,-7.0515,-13.8188,
74.4851,52.092,19.4994,15.7889,4.0899,27.363,-8.7035,9.3061,-0.18506,3.4429,-10.3606,1.3417,-13.6183,-5.0359,
57.7237,42.9412,10.3754,10.2625,-0.25265,22.106,-14.2066,8.989,-3.3072,-3.7534,-3.7132,-4.7641,-14.0058,-4.0106,
41.0041,37.2314,9.5122,5.5492,-3.3712,22.9486,-18.8981,4.3525,-10.0984,-5.2154,-5.1774,-5.6836,-1.3556,-4.975,
30.8309,31.1409,12.3157,9.5548,-9.4357,23.982,-15.3538,4.5731,-3.2262,4.2566,-5.3489,-0.52206,-7.541,-1.3023,
14.881,20.1135,3.382,8.0172,-15.1361,18.6867,-15.3969,4.2987,-0.14014,3.0373,-1.1716,3.8478,-21.1885,0.70448,
2.2983,14.3274,-3.8108,4.4026,-4.8279,14.432,-15.196,5.728,1.0731,-1.2427,-0.3784,10.1244,-5.8172,-1.5074,
-8.2035,4.5497,-9.6077,-2.369,-1.4047,9.4688,-19.3459,2.7332,2.6959,0.51905,-4.453,10.7223,8.6318,-4.55,
-21.8113,-0.54404,-11.9237,0.18328,-15.4204,10.8288,-23.9698,0.1591,2.0523,3.3804,-4.1859,4.2943,-2.1292,-0.90254,
-34.6026,-4.3676,-8.798,3.0646,-28.5952,14.5172,-21.0856,-0.815,1.447,6.0699,0.40384,5.9646,-9.2326,3.4897,
-46.6264,-15.4337,-10.4392,-0.73473,-23.0233,7.6206,-20.0614,-0.042745,-1.291,8.8387,0.13864,9.2222,2.1677,1.1112,
-46.1187,-17.4,-9.8131,3.166,-20.6776,3.7892,-21.75,5.2622,1.6788,6.8624,2.0583,7.7048,11.1964,0.080395,
-53.9567,-21.1764,-10.1884,-2.3264,-33.537,-1.7406,-22.8549,-1.8022,6.8805,4.0403,0.48876,4.8326,1.3658,0.55773,
-58.1913,-19.1832,-8.854,-0.49982,-35.984,-1.3954,-15.9402,-1.4528,7.1908,9.8236,3.5927,13.9424,-4.7419,1.7293,
-58.315,-20.6831,-8.0816,1.6996,-23.4606,2.7859,-16.6708,4.1777,-1.6766,0.31638,6.0285,18.6492,2.0503,2.3487,
-58.1906,-23.7809,-7.1147,1.5976,-26.8737,-1.7198,-16.6349,3.927,0.35222,-1.631,9.0412,13.6739,15.4246,8.4743,
-58.0736,-28.1386,-6.6878,4.3938,-33.4562,-12.7039,-9.8524,0.31697,9.0077,10.036,12.3547,3.6944,18.8375,8.9297,
-58.4454,-26.4502,-6.2867,7.0228,-29.0384,-5.1926,-4.9226,6.0826,13.2881,10.8802,15.9523,3.4731,9.9946,10.3222,
-64.821,-22.6939,-10.007,4.9139,-29.9475,5.9651,-9.2069,8.3689,6.9473,4.2015,11.8618,9.2901,4.3333,11.8722,
-63.824,-23.2607,-10.8526,1.7267,-30.0786,5.125,-7.2082,8.3489,5.5664,12.1446,9.704,14.5175,15.6427,13.0883,
-65.056,-32.2291,-13.3349,-2.9564,-33.3358,-0.24416,-13.7656,8.5711,4.0269,9.2465,4.5418,15.3335,13.0167,8.6873,
-75.2527,-36.8031,-21.4529,-3.9843,-43.628,-0.47071,-26.678,6.3696,6.9187,1.2197,2.1001,16.5826,0.42558,5.515,
-74.4734,-32.4257,-20.4067,-6.3966,-41.7332,-0.20127,-20.98,4.3,16.8677,11.0289,13.7845,14.3826,9.7998,2.0508,
-64.7024,-26.1416,-12.9155,-5.0484,-35.855,-3.5636,-12.4903,0.66777,14.4094,15.1874,11.9935,7.7351,16.9246,-4.3392,
-62.9896,-19.0295,-9.0073,1.7622,-39.7292,-1.6626,-17.7664,2.7969,13.3041,14.5174,5.2482,9.4404,4.5812,5.8033,
-65.477,-19.334,-10.3951,1.1745,-43.13,-1.0807,-21.039,7.4498,16.8442,14.1283,11.6822,11.2841,-5.3347,14.1322,
-58.6558,-21.548,-7.3608,1.5862,-35.7215,-3.9079,-14.4738,7.9669,10.0492,9.9063,12.4273,7.7147,-3.0862,4.1255,
-52.7261,-24.1117,-5.9553,-2.3656,-30.2042,-7.0481,-10.2314,5.0785,2.6971,11.2399,3.4867,8.2157,4.8115,1.4671,
-54.1421,-22.906,-8.2491,-1.0186,-34.4173,-6.384,-6.9659,5.9791,7.5972,13.2173,5.4469,9.8922,8.1385,14.6357,
-52.0986,-20.3263,-7.5131,4.5861,-35.9677,-4.3138,-3.8967,10.6818,10.7568,3.9881,10.1818,10.0218,3.5528,14.9629,
-49.937,-20.0711,-5.1342,0.93675,-32.3636,-0.68071,-3.6631,11.9693,11.0754,-0.5897,7.1605,13.759,5.2676,9.2446,
-56.0997,-23.2052,-7.7185,-3.4581,-33.7961,-2.086,-4.4073,6.9125,8.4824,2.3381,4.3204,12.9336,4.4693,12.5464,
-57.0722,-27.1155,-9.1837,-1.3223,-30.8044,-5.3352,-2.6969,6.0157,12.7943,10.3926,9.8459,4.9266,2.2731,10.3471,
-43.7658,-21.3911,-2.6068,2.8545,-18.5919,-2.8458,0.59826,9.2701,22.3906,20.1333,18.6552,-0.43055,14.9112,7.0753,
-39.2117,-14.8052,2.852,-3.1011,-12.6559,-4.1213,5.3831,3.4114,14.2985,12.6585,17.5357,2.4876,20.2833,11.4712,
-43.6076,-14.3988,-0.21139,-8.2177,-14.7888,-2.9099,8.4343,0.79639,6.2097,1.294,10.217,9.087,9.4249,15.1213,
-45.3296,-14.0169,-8.3935,-0.97609,-22.5783,4.0134,1.1797,8.4615,9.6936,4.1085,4.7834,3.7214,-4.1559,7.9476,
-41.1638,-9.8017,-5.9617,1.4928,-21.7057,5.2189,-1.3014,12.2921,12.4863,6.7543,5.4605,-1.8045,-5.3526,4.5784,
-35.0786,-4.1519,-1.5064,-0.7659,-10.5212,-3.0482,5.2844,8.4213,4.7477,2.2517,6.8201,4.8115,-1.8979,5.991,
-34.9018,-6.7951,-6.2365,-2.166,-12.7822,-3.3472,1.5931,5.024,-2.7683,1.1525,1.1085,5.4869,-1.3019,4.1855,
-37.3874,-12.4132,-7.0676,-3.2415,-20.4514,2.8791,-3.5642,8.8197,0.049154,2.7706,-1.6094,3.4704,-3.8756,4.657,
-36.3493,-9.499,-4.9564,0.086441,-14.1627,-2.837,-2.6272,8.5319,1.7334,1.8812,-2.2357,3.9853,-5.3298,4.6186,
-30.5529,-6.7599,-2.9717,-1.1238,-8.2515,-8.2106,0.18174,4.4044,4.7627,4.9016,2.4775,0.61296,3.9078,6.9928,
-27.0325,-5.6312,1.3039,-0.81541,-11.8537,-4.1026,1.3759,3.8991,6.6461,4.3665,5.9443,-2.5571,3.4324,9.2248,
-24.9287,0.0092479,2.6718,5.9823,-8.2503,0.96396,4.6677,8.4856,8.1754,2.6584,7.0338,0.48852,-9.7891,5.2967,
-25.361,-1.9195,-0.38077,1.767,-3.8987,2.8345,3.9055,9.9046,11.0593,2.981,10.9505,1.4233,-8.7196,6.4252,
-27.4548,-2.5276,-0.11685,-0.99071,-7.2803,4.8335,-1.3904,9.5514,9.1908,2.5611,8.1242,2.0609,2.6495,13.5113,
-24.1203,0.2754,-0.83296,0.27426,-6.1204,2.8565,-2.5121,13.5579,5.0237,3.6125,4.0211,0.73221,8.0344,12.9419,
-24.6012,-5.0437,-5.1214,-0.22448,-2.3788,-3.0996,2.4593,11.7802,5.6867,3.8778,9.5645,-2.6861,11.8907,7.8267,
-32.0431,-9.8024,-6.0193,1.9585,-7.7796,-3.6366,3.0347,6.494,9.4428,2.9221,13.0884,1.0904,10.9362,9.0442,
-31.3259,-10.9016,-5.4173,-4.1851,-12.8565,-5.5877,-0.28074,2.9709,8.1532,1.5416,7.2413,2.2302,-3.82,5.3684,
-21.4922,-9.0423,-1.9587,-3.6925,-7.9877,-7.4215,1.9054,6.4082,9.8333,4.5825,6.084,-1.519,-10.2189,2.3949,
-25.9874,-12.8382,-3.7695,-0.096598,-1.7237,-6.9763,2.2731,3.1313,9.2432,2.8614,6.2008,-1.4279,4.4942,7.0718,
-26.1155,-10.3808,-4.7485,-3.2244,0.066827,-1.0142,1.8956,-2.1181,3.6272,1.4845,5.1057,1.7911,11.0935,8.3346,
-11.2921,-0.35783,-2.2943,-6.1641,-0.17826,1.2159,3.4692,1.6245,-5.0262,1.1544,1.6658,-0.0034651,-2.3462,-1.0832,
-5.0707,4.2432,0.4947,-6.0352,1.0377,2.8302,5.4302,7.0706,-6.8938,-1.0841,-1.0853,-2.6546,-2.9284,0.669,
-9.8283,7.1217,3.1162,2.2808,2.1804,5.7935,3.8993,3.995,1.4732,0.18617,1.1491,-4.6646,8.0932,9.0646,
-12.8538,4.0433,0.76009,2.8668,5.665,3.7589,3.4243,-2.2703,4.0364,0.41597,2.7674,-5.5898,8.8129,4.9053,
-15.457,-2.9482,-3.6241,-3.09,7.7355,-4.6616,9.0035,-0.20609,-1.9906,-5.3936,-0.29093,-6.7006,-3.7672,-1.1738,
-15.4937,-0.36094,-0.5141,4.8084,5.3431,-4.3819,12.8018,3.6629,-0.42466,-5.07,1.6545,-10.6369,-11.7361,6.6096,
-18.9025,-3.7136,-3.8578,2.5916,2.6123,-3.1548,5.2849,-1.3775,4.9033,-2.3555,4.4476,-17.2297,-12.478,4.2848,
-19.6967,-2.5269,-5.0726,0.025968,8.7221,-0.55534,2.0755,2.5616,5.573,0.6781,5.627,-8.4831,-8.8371,-2.2388,
-24.7815,-3.8214,-6.6964,-3.35,6.2706,-1.4861,-3.8336,4.3363,-2.4741,0.63742,1.433,6.1259,-4.9324,-1.6226,
-32.6945,-14.4382,-13.7664,-12.067,-0.61326,-5.4944,-14.9319,-5.324,-5.941,2.2865,-2.2683,6.843,0.42488,-3.6943,
-26.6355,-12.8489,-14.1456,-6.2814,13.5235,-1.0673,-7.5284,-4.2816,0.44089,7.6926,0.51881,5.7094,1.1226,-0.82163,
-19.4938,-14.2471,-14.9838,-9.5199,26.8121,-3.6546,-2.9791,-3.7837,-2.2367,5.0619,-1.6815,8.9823,-13.0447,2.3612,
-21.2165,-14.3564,-16.013,-12.8051,22.5522,-1.0249,-13.8876,-5.0027,-4.0306,-0.06232,-0.13433,8.4433,-12.8647,2.2195,
-11.9896,-4.0949,-4.2061,2.0632,35.2991,10.3649,-11.8491,6.1436,8.0214,-1.7457,11.684,5.7675,2.0072,8.5939,
2.8298,-0.47487,2.3129,5.9165,47.2811,9.2607,-0.051085,12.5236,11.3964,-5.0153,10.9828,1.083,14.0586,10.9707,
16.76,2.928,-0.71825,-0.2232,58.5442,7.2591,-3.4224,9.3621,0.58962,-7.1246,1.1652,-2.3563,-0.88494,6.9383,
17.6826,3.4752,-2.8443,0.031159,69.1316,6.5824,-10.2067,6.631,0.31328,-5.4921,0.37189,-5.3484,-11.0753,2.9062,
15.4165,-10.8333,-14.4838,-5.5143,79.0837,-7.9126,-13.2097,-4.1309,-5.2491,-12.6344,-6.1579,-19.1275,-5.3494,-11.0065,
26.3018,-10.0627,-15.3021,-5.9063,88.4387,-11.1736,-7.3555,-4.6061,-12.8878,-13.0812,-11.3319,-24.1258,-13.9464,-12.9971,
36.775,-0.78187,-4.2608,-6.034,97.2324,-2.7904,-7.8783,0.97291,-11.6328,-6.994,-11.1342,-10.145,-17.4479,-5.4686,
34.0865,-7.9659,-6.8976,-8.0822,103.5701,-10.3359,-18.0108,-5.3521,-14.7914,-10.4308,-17.6971,-10.5005,-11.0987,-15.7459,
43.1285,-7.0058,-8.8939,-2.777,109.8894,-9.2335,-12.1096,-6.4772,-16.314,-9.3228,-16.1533,-6.496,-5.6121,-16.2474,
48.2533,1.6093,-5.9501,3.1744,117.2751,0.47927,-5.5985,2.1063,-11.4786,-8.2815,-10.3636,5.9448,-15.8807,-1.1726,
45.3583,1.995,-1.7366,4.4298,119.8801,3.8251,-5.7446,4.8721,-5.0051,-15.0153,-9.7417,2.214,-19.7482,1.6699,
41.914,-5.1145,-1.8735,-1.8614,115.8204,-0.50189,-7.569,-2.41,-4.9462,-20.622,-8.4337,-12.0188,-10.6094,-8.7945,
38.4349,-5.7718,-5.1354,-1.2677,100.1942,-4.8104,-10.9714,-3.7115,-8.0237,-17.9385,-10.8201,-14.3107,-8.5267,-10.1949,
31.7899,-7.836,-12.5402,-5.53,88.3979,-5.968,-13.2055,-4.9352,-8.9887,-16.8623,-15.9556,-7.1854,-5.123,-11.9939,
33.2572,-8.3297,-14.1981,-8.0905,87.9145,-2.2354,-10.9669,-7.049,-9.8954,-18.7429,-12.5884,-10.6107,-3.8515,-15.1304,
39.2156,1.088,-5.8743,4.6871,81.9164,2.9603,-4.2834,1.8098,-3.7579,-11.1107,-9.1814,-5.3946,-9.646,-6.7507,
35.6573,2.2277,-0.46029,7.0573,68.5656,4.4698,-3.3032,8.209,6.3494,-1.5261,-8.3897,6.2574,-9.3081,-0.3202,
31.831,-1.5213,-3.0841,3.0183,66.1388,2.0323,-6.2384,0.24453,0.42513,-8.9063,-5.7172,2.7485,-9.9548,-4.8804,
34.2594,1.9445,-0.97064,4.2835,62.1709,-0.017606,-0.079264,0.22986,-5.385,-15.1206,-1.9997,-3.2007,-9.3575,0.23315,
24.7323,-3.7158,-5.9739,-1.9993,44.3407,-6.5243,-7.0644,-0.024667,-4.8207,-11.562,-6.9412,-7.1063,-8.073,8.1731,
18.6687,-3.7339,-9.7129,0.77187,27.5802,-0.10714,-12.6662,-1.7108,-3.8084,-7.7349,-5.8017,-4.0287,-6.3834,17.0824,
21.1641,0.58756,-5.5148,0.0027711,29.2999,6.4069,-4.9165,-4.2593,-7.6776,-19.0811,-2.802,-0.65336,-3.3492,20.1549,
20.3763,-1.8579,-2.7737,-6.7462,21.7569,-0.24439,-4.1394,-6.414,-10.5913,-29.5057,-8.9007,-11.2196,3.1184,4.8456,
15.5381,-8.7361,-6.7046,-6.1007,9.1231,-4.809,-11.3629,-5.788,-7.3045,-17.8532,-10.0541,-13.6796,5.5826,-9.5451,
14.1241,-4.3555,-7.7486,-1.878,3.2733,2.2282,-9.2351,-4.959,-9.2766,-7.1408,-8.0044,1.2411,-1.983,-14.7569,
18.0972,9.8851,1.3932,5.9472,-1.2616,9.8073,-3.3783,-0.80483,-5.3458,-4.3022,-3.668,7.3127,-7.6488,-11.9435,
15.0829,5.4356,1.3096,0.28795,-11.3091,6.8085,-7.9961,1.6538,2.2061,-4.0441,1.3726,-6.1415,-11.0462,-11.2267,
6.9473,-0.19297,-7.4458,-8.8881,-20.2713,2.5436,-13.7831,0.1081,-6.6032,-6.6937,-6.9047,8.327,-5.0808,-8.1432,
8.6996,5.8439,-3.8658,-6.1857,-19.7784,3.1141,-9.8228,-0.62129,-14.1612,-9.4256,-12.9979,21.9274,4.1416,-5.003,
8.6596,0.67304,5.5251,-2.4401,-22.93,-3.8214,-4.4127,-2.9941,-1.26,-7.4138,-1.6127,7.1144,-2.3734,-8.5592,
3.3194,-3.2238,7.6039,0.5985,-27.8206,-8.8947,-4.63,-3.7787,5.5642,-6.9689,8.1247,-7.4125,-1.2668,-12.8663,
1.6746,1.3082,4.2555,-4.2576,-29.5257,-4.0223,-9.1726,-3.0699,-8.8696,-12.3352,-2.4856,-12.6316,5.558,-15.4686,
2.7787,9.6657,10.9896,-1.3512,-27.9953,6.1007,-3.561,4.5858,-9.9041,-5.0876,-6.434,2.2263,0.64503,-13.8174,
-0.52117,8.8446,13.4638,1.3813,-31.3772,7.9042,2.1966,8.4084,2.0187,1.7255,0.94176,0.043931,2.2934,-11.3012,
-7.9618,3.7343,4.2199,-7.1374,-40.8229,5.7426,-7.3355,6.6985,-1.236,-1.5114,0.64417,-0.68195,13.4839,-9.418,
-11.0993,7.1257,1.3156,-8.8785,-47.7733,8.0494,-18.7055,8.9484,-9.1158,-1.6617,-6.8661,13.459,5.6852,-9.576,
-5.3721,10.7955,7.262,-6.1767,-45.6302,11.1818,-12.5218,12.0264,-6.8817,6.3917,-7.6594,22.6538,-6.9484,-8.7605,
-4.0852,10.148,2.9701,-4.842,-42.8922,13.8851,-7.9138,7.4487,-7.4329,2.6338,-6.7177,20.8129,-6.0493,-7.2708,
-1.9119,12.9136,2.31,2.1975,-43.2109,19.319,-7.9212,7.0017,-8.9151,-2.3447,-7.2789,20.528,-4.722,-5.3883,
-3.0025,8.5233,7.2331,0.86032,-49.0542,14.0625,-8.1688,9.2327,-5.2467,-3.891,-7.0832,11.825,-4.1978,-8.198,
-8.1248,3.6734,6.3169,-1.1193,-53.3418,5.9877,-5.7507,7.2327,-3.4859,-6.0679,-3.2839,1.4743,5.6953,-7.2244,
-8.8428,4.658,3.7683,0.15249,-48.4543,5.3872,-1.7902,4.6294,-3.9998,-3.0528,0.52874,6.4473,6.0763,1.163,
-9.5171,-1.165,0.89111,-1.0615,-48.1981,0.96664,-1.9238,-0.70959,-5.4471,-2.1462,-2.6365,9.1939,-1.2777,-2.0402,
-10.1511,-0.37202,4.4531,4.0637,-47.4756,-0.29642,4.2172,2.9482,3.7976,0.63363,2.5832,5.991,-0.96033,-2.641,
-13.6393,2.3017,2.9809,2.1327,-39.5653,0.92654,7.5797,6.8687,7.1853,1.8008,6.5261,5.8724,-1.1436,4.5075,
-15.4726,-0.96996,-6.1161,-3.539,-37.9146,-1.7805,-0.82918,0.9129,-3.1279,-2.8867,-1.3374,3.8329,0.61216,3.996,
-11.6516,-4.768,-1.8926,-4.7723,-35.1577,-5.0478,3.0773,-3.4801,-0.52998,-2.7136,0.67117,1.1927,9.7346,1.8281,
-10.2296,-5.6872,7.6207,-3.2811,-26.5405,-8.3606,15.6667,-0.62018,5.5274,1.0644,6.1741,-2.0124,11.3197,-0.45119,
-13.2314,-1.2483,2.5843,1.4954,-30.4916,-4.2434,13.5217,4.4786,0.13438,2.206,0.26034,1.7239,4.6148,1.7454,
-14.8477,-1.6555,-1.4273,0.92358,-37.821,4.206,6.9257,4.2098,4.9469,1.1094,1.2089,6.4409,-3.8569,7.9071,
-10.8234,-2.2793,9.9865,5.9296,-31.4544,0.82042,16.3923,1.3061,16.9424,2.7301,12.9463,5.8134,-3.3845,12.9765,
-14.7536,-3.3477,10.1104,4.8506,-28.3622,-7.1827,21.4345,-2.8698,15.2026,1.3611,15.3031,-1.0432,6.2184,11.4746,
-13.6273,3.3608,9.2627,10.5855,-31.2398,0.23806,19.9073,6.2204,20.7983,8.2692,18.9641,-1.2215,12.8351,16.3297,
-12.5687,10.149,12.8045,17.9038,-32.9809,5.2852,17.5078,15.2472,24.1299,11.3884,19.0318,1.9851,8.4498,18.0012,
-18.5633,4.7196,12.0362,9.1171,-33.4122,1.1117,18.8675,9.5118,18.3436,2.0283,14.5152,0.90189,8.9069,12.1007,
-17.6904,2.7492,10.1088,6.4006,-33.5768,0.80406,16.0482,3.3975,14.5916,5.0398,15.3317,5.9095,8.1313,13.0621,
-13.2547,-0.30818,4.6819,4.0888,-35.9004,-3.1007,5.4444,3.676,2.1468,9.0759,4.2888,8.4471,-2.4796,7.4575,
-8.603,4.5308,6.8111,7.2172,-32.3006,1.4237,9.938,12.1318,5.8746,2.7467,5.9594,3.1198,1.5256,11.8306,
-10.4971,9.0795,8.8127,14.0154,-28.4342,4.7128,16.5727,8.9939,16.6093,-8.0232,16.689,-7.6726,4.8084,16.4233,
-8.6621,3.9554,9.4891,10.523,-26.4871,1.2967,14.3732,1.9467,13.4437,-4.4085,14.9649,-6.0071,2.8328,11.8226,
-10.5526,3.7179,12.2941,11.3378,-32.1286,1.219,9.6545,5.6861,9.2625,3.5689,8.2823,-2.2723,1.2166,11.5955,
-17.6323,5.9051,12.5206,14.0318,-32.6111,-0.30029,8.5932,5.827,12.0811,3.8368,13.5698,-9.8489,-0.78466,16.2023,
-16.3335,3.8637,11.5283,5.2363,-19.8083,-2.9337,8.8006,-1.5124,10.151,5.2937,18.7813,-9.499,6.2522,14.025,
-10.0506,3.6319,8.9084,4.9219,-12.3531,-2.7575,10.2008,-0.93946,6.6497,7.3865,12.352,-1.2161,14.5541,6.9167,
-12.0989,2.2089,8.6149,8.7242,-21.976,-2.8332,9.3478,1.2861,12.7584,9.1124,7.9952,3.9183,-0.4191,9.635,
-12.3372,5.4507,16.2928,12.5389,-20.1754,-2.1812,12.6432,0.24492,15.3672,10.0118,11.8539,3.6834,-14.494,17.7339,
-15.4533,0.7851,12.9051,6.9663,-14.1444,-8.317,10.4385,-4.1083,1.4298,-4.6889,6.3222,-10.6376,-6.8758,7.9932,
-19.3467,-5.5286,5.8642,-1.1645,-19.5626,-8.3001,7.8839,-7.2362,-1.0662,-14.8922,4.0146,-24.0994,7.6368,-0.68168,
-21.0782,-4.715,4.0661,-0.13057,-24.1734,-4.9098,8.8571,-10.6584,3.8182,-8.6961,2.8096,-17.5921,4.6479,2.2515,
-17.6443,-0.33462,8.8837,5.9029,-13.3229,-3.41,12.9051,-8.3318,8.6507,2.1897,4.8103,-10.9928,-9.731,9.1064,
-20.924,-0.79659,8.3505,4.1024,-13.4877,-6.0978,6.8283,-10.2421,7.1674,-2.7621,6.45,-15.6358,-5.4112,5.1855,
-12.4379,1.6614,12.1882,4.3385,-17.4988,-2.8395,5.9365,-10.1096,11.558,0.778,7.027,-3.1286,6.0005,2.4641,
-4.702,-5.91,8.3234,-1.9473,-16.6901,-7.7306,4.8572,-8.7799,5.8028,5.3108,-2.3122,4.049,-1.3491,-3.2274,
-6.83,-0.73496,4.9317,-0.86664,-11.8321,-5.3386,3.1197,-5.3608,-7.0786,1.6177,-6.9942,-2.4607,-1.2682,-2.0694,
-11.7228,7.9862,9.4563,-0.33248,-13.0506,4.6227,3.4145,-8.4136,-9.5462,-3.782,-4.1644,-7.1335,2.6643,4.8034,
-9.5732,3.6504,11.2993,-0.79469,-13.2316,5.7914,5.1378,-8.3908,-2.2247,-4.5192,-3.9146,-6.2234,-4.7264,5.4793,
-8.9987,1.0214,12.5496,5.5198,-10.5094,1.5876,3.3834,-3.5489,3.6935,-3.2838,-2.7155,-5.3679,-3.4786,5.1505,
-19.546,-0.48614,10.8325,1.8144,-14.6993,-4.2922,2.2163,-5.2641,3.954,-3.5687,2.2679,-9.3844,-2.3058,6.7698,
-23.4348,2.1942,6.5671,-0.46394,-17.9148,0.062775,5.2167,-2.7792,4.4398,5.5634,3.819,-4.2419,-5.3008,6.1223,
-21.7877,2.7857,2.5576,-0.67684,-16.5988,8.9768,3.2165,1.4851,4.4146,6.9168,0.93873,4.9307,-3.2955,3.5861,
-14.6959,2.6186,5.7786,3.7019,-9.3363,8.4382,0.61335,2.3601,5.5957,7.9478,5.7029,10.9016,-3.58,11.0835,
-3.6911,4.3895,10.2523,12.6389,-0.58132,4.5576,3.9509,4.1466,8.1522,15.1836,10.1811,12.1755,-17.3446,16.6851,
-8.5311,0.99291,4.5757,5.3726,-3.6797,8.8637,4.9189,0.28235,4.5298,9.6933,4.0266,6.8655,-15.581,5.3201,
-18.3835,-1.7179,-3.1706,-4.8316,-11.4128,9.537,-3.3301,-7.2063,-4.178,-4.9883,-5.6149,-0.53619,-2.3537,-4.8814,
-5.7111,4.6519,4.2505,0.76099,-4.9434,6.5544,-1.2021,0.45693,-0.55288,-6.2556,-2.8676,1.4244,-0.76626,3.6067,
-0.78911,7.5061,10.9851,3.8484,-1.5136,6.4021,4.4136,6.4551,1.1675,-0.81883,-0.52641,1.5799,-3.8538,5.5594,
-14.8418,6.8146,5.7466,0.96625,-6.9662,7.7054,1.4976,-0.92177,-4.9282,-3.9031,-3.146,0.27994,-2.8993,-2.728,
-20.0974,6.1648,2.7505,-0.29679,-10.1637,7.484,0.20247,-3.0359,3.3212,-1.0176,2.5861,5.3246,-5.3767,1.0509,
-11.4196,5.5538,4.2726,-0.037674,-10.2769,7.276,0.91357,-1.1664,4.8095,-1.6795,4.1183,2.8361,-7.2233,1.2291,
-5.4318,0.40011,1.1239,-6.7843,-5.8039,7.8036,-2.5157,-4.4708,-5.6024,-3.9891,-2.8777,0.25555,-2.9335,-9.4499,
-4.1418,-3.4803,0.0924,-8.7876,-3.0453,4.4431,-2.8469,-5.6488,1.0005,8.7835,0.66963,10.8453,-3.7216,-6.9545,
3.0965,2.272,4.6663,-1.2706,2.1988,0.56095,-0.98876,-4.5867,7.4483,11.872,2.3166,10.9178,-2.7753,-2.44,
14.9619,3.5821,3.4223,-7.4608,14.6004,3.4197,-3.3397,-6.2398,-7.0986,-2.9403,-6.9814,1.1038,7.0323,-10.0062,
14.3051,-2.6586,-4.2548,-11.5926,11.555,4.9017,-9.647,-6.5885,-17.8803,-15.8997,-11.6239,-2.5778,3.4771,-15.9136,
15.1341,-1.2938,-5.6868,-2.4612,2.4258,2.9204,-6.899,-3.5419,-4.0332,-7.4739,-4.4188,-0.73593,0.1352,-9.8973,
25.5543,1.435,-3.6585,-1.5907,-0.37094,1.54,-5.2799,-5.9806,-0.65788,-0.035927,-7.2872,2.4414,-1.5602,-11.4727,
30.7697,1.3489,-4.4031,-3.9052,-4.2051,1.4476,-12.6759,-3.2116,-12.6697,0.44839,-17.4551,8.5616,-13.0358,-14.6405,
30.6109,-0.90128,-5.826,-4.3941,-5.6399,2.5659,-15.0487,1.0785,-11.1865,2.1086,-12.7922,9.735,-15.869,-5.8083,
36.0046,2.527,-4.5123,-2.6842,0.48286,4.3402,-8.8434,-1.8785,-7.1409,1.4999,-6.2401,7.2227,-3.8298,-2.0858,
35.0496,4.0626,-3.0363,-4.6928,-3.1615,0.46434,-9.5178,-4.4171,-13.2204,-2.6874,-12.3737,6.5482,-2.395,-10.3963,
32.4647,1.8907,-0.44399,-5.857,-5.382,-1.4917,-10.875,-2.2239,-11.4628,-1.0802,-11.1493,3.7452,-4.6614,-12.665,
33.1679,2.9825,0.30578,-0.4439,4.341,-1.161,-4.1967,-4.2596,-5.7134,3.0825,-6.3825,0.86936,0.19781,-12.628,
34.3112,2.5625,1.4924,-0.17642,8.178,-0.8505,0.15259,-4.2451,-2.7196,2.6562,-2.8662,4.9144,0.42702,-7.7731,
32.9756,2.1677,-0.28427,-1.8529,0.69753,-0.076227,-7.8104,-1.3389,-0.38714,-1.6004,-1.4893,0.040171,-8.5166,-4.6551,
30.0333,5.4119,-3.6416,0.18654,1.6199,0.89233,-10.2342,-1.2587,-6.1484,-3.4327,-7.1844,-4.7826,-14.2722,-11.1245,
27.508,6.2924,-4.6282,1.3803,3.6917,2.044,-3.1123,-1.9062,-10.841,-4.4319,-8.4404,2.0119,-10.7646,-11.1803,
24.6523,5.1917,-4.1093,6.3592,-0.14496,3.1264,-2.2027,0.37732,-1.2725,-2.4788,-0.9446,2.1322,-8.4315,0.8187,
21.4859,2.7111,-3.1399,3.808,2.5148,4.626,-6.1679,-1.3325,2.9012,0.80322,0.7993,-4.0215,-0.93601,-0.43572,
19.4737,3.2714,-3.6745,0.44637,3.0872,2.1792,-5.0748,-3.9038,-8.6012,0.032013,-5.7563,1.7635,6.5921,-8.8454,
14.9313,4.0392,-5.8642,0.41959,-4.3289,-0.84384,-3.806,-4.6337,-11.9415,0.51225,-8.3029,12.263,-7.9034,-4.9402,
14.2764,2.1096,-3.3432,-3.221,-0.45373,0.89401,-1.8906,-2.6684,-3.2713,5.543,-4.1898,13.2144,-11.8883,4.7562,
15.5889,2.2241,-1.4555,-2.3045,6.0811,3.4916,-1.0542,-2.7494,-4.2799,1.1129,-6.5896,2.5393,2.925,-0.10855,
17.3049,2.3317,-3.0554,0.48509,5.9572,3.5231,-1.2319,-2.8254,-2.3362,-6.9076,-4.9892,-6.5309,4.0752,-4.6816,
10.9638,0.74562,0.98447,0.9378,7.5281,-4.8832,-0.19399,-1.2097,0.69642,-4.0829,0.13077,-4.6931,-2.9181,-3.4365,
8.619,0.45992,3.0946,0.64034,13.5841,-9.1697,0.54078,-0.89618,-7.2993,-0.22273,-4.9385,-4.1703,1.3543,-5.3997,
10.9942,1.8785,-1.4295,-3.2541,9.8766,3.9139,-1.9019,-1.8066,-5.4152,-2.1374,-6.0886,-6.8125,-6.9218,-6.0397,
-0.75252,2.2478,-5.2,-1.613,-4.816,12.838,-8.5364,-2.6622,3.1045,-1.045,2.472,-4.4755,-18.5577,-1.3388,
-13.964,-0.53838,-7.5396,2.5814,-14.2886,10.3805,-7.3013,0.63078,6.0515,10.3457,7.3851,2.3005,-7.5623,7.1774,
-14.3313,-2.6754,-11.6666,-0.70686,-1.1388,7.5884,-4.6939,-0.61224,1.1092,15.2687,-1.9762,2.8857,-1.565,5.5416,
-12.5073,-1.5505,-9.0382,-5.9669,4.7143,7.1335,-8.2687,-3.9497,-6.6703,7.6039,-11.4986,10.9078,-2.9169,-3.4678,
-14.6492,-0.97554,-2.7113,-7.0549,-0.87121,8.1515,-3.434,-2.7487,-4.8236,4.7375,-4.5419,19.894,6.4169,-1.8137,
-14.4934,0.28805,-3.2718,-0.12411,0.86806,8.8673,4.7258,-1.8606,1.4913,0.83761,6.0945,6.4081,4.8268,4.8026,
-13.3827,3.4041,-0.42426,5.4266,10.2161,9.5404,6.6115,2.3485,7.4275,-1.8639,11.7545,-5.3047,2.8499,7.6481,
-16.6773,1.5127,-0.64,0.5215,8.3978,8.2449,2.5994,5.3408,11.5609,2.8275,11.7723,-3.2992,6.7765,5.9841,
-14.4714,4.0732,-1.8064,-0.23247,5.7248,7.0273,1.7203,3.3332,7.734,7.2374,5.5226,-4.7885,3.7185,4.9019,
-9.2648,1.9006,-0.73419,-4.5573,11.6481,3.7131,2.5812,-2.6514,-2.371,4.8747,-2.5215,-9.3216,-2.7713,-1.6592,
-8.2267,0.82251,-0.20797,-3.3195,19.626,5.9007,2.4263,0.39997,-3.1926,12.2952,-3.8165,-0.5674,0.76942,-3.9697,
-14.2407,-0.43202,-4.7749,-5.7718,12.905,1.4492,-1.3346,-2.7574,1.5784,14.6909,0.50997,4.5282,4.3386,-0.59795,
-10.9761,1.0402,-1.1142,-5.4253,11.6485,1.3622,-0.2904,-1.6279,7.268,10.435,8.6743,3.2924,13.2373,5.7042,
-7.1842,0.73667,-0.80624,-3.4129,13.6008,3.9317,-3.8885,1.121,0.32457,9.0859,-0.28216,1.8897,3.5251,-1.1454,
-6.03,-0.5126,-0.03474,-6.3413,17.3645,3.9372,-4.8603,-0.63323,-1.8643,9.2638,-5.8086,2.9814,-10.7864,-5.6562,
-5.4273,-0.24087,1.1724,-3.3093,16.5636,-1.3607,-1.4352,-2.2825,3.7912,-2.1383,-1.8447,-1.7768,-8.0906,-0.25515,
-4.3785,-2.8777,1.8252,2.4326,11.9544,-2.4843,3.2302,0.023641,4.7688,-2.2509,0.91686,-1.9114,1.3129,1.4472,
-5.8031,-8.2488,1.4746,-6.1493,11.478,-2.0942,0.86714,-1.6649,-2.0252,10.6585,-2.7535,2.7827,-7.684,-7.0757,
-5.9369,-1.4871,-1.0242,-11.0828,15.6098,-1.9685,-5.4514,-1.5652,-7.688,9.5368,-7.8907,6.4721,0.0078675,-8.0972,
-8.2318,-0.19284,-6.5064,-10.6588,14.4322,-2.5733,-5.3653,-0.26602,-7.9501,2.939,-9.1045,4.3966,14.1074,-1.5858,
-9.9074,-4.7607,-2.0185,-5.4396,15.2536,-0.24989,2.4283,1.4371,-2.8935,3.4857,-3.9786,1.9637,15.5507,-1.7317,
-10.2768,-0.13648,3.4052,-2.7029,19.1589,2.6574,0.8366,2.7971,1.1368,-0.097653,0.59871,1.8459,0.63838,-5.484,
-10.3834,1.5588,0.5497,-7.6025,15.3581,3.2212,-4.7573,2.3884,-1.5827,1.1134,0.80364,4.3864,0.359,-0.57578,
-6.8681,0.019257,-1.4115,-2.8078,12.5085,1.5819,-0.13334,1.7629,-2.9342,3.4567,-2.6188,6.0514,-1.1088,9.1,
-2.8406,-0.22309,0.84237,1.9399,21.1577,1.2456,4.9361,1.8981,2.7855,-0.84828,-2.7031,2.555,-0.80131,8.7949,
-3.8752,-1.4148,1.515,0.61847,23.0218,0.44792,1.9886,-0.38491,1.4133,3.7824,0.11041,0.71451,3.8263,1.7595,
-9.4273,-4.7041,-0.50413,-3.2748,14.4096,-3.4353,0.42328,1.0844,-6.8664,10.786,-2.7885,5.9745,0.70442,-2.2022,
-9.1026,-3.6987,1.6953,-5.2477,17.6426,-2.0242,9.3159,3.1888,-4.2851,1.7032,-7.2003,7.785,2.3494,0.099321,
-8.5565,0.37958,3.5218,0.85175,17.5482,-0.93861,10.203,-0.37724,-0.65351,-4.6657,-4.8403,-2.3231,2.2084,1.0572,
-11.1767,-3.2587,2.5874,3.9338,7.5771,-1.1234,2.1189,1.8147,2.5188,7.9064,2.4399,0.94967,-2.0216,1.7168,
-11.4701,-4.9913,-2.3884,-3.051,5.1944,-0.57393,-0.90039,4.5982,0.92156,4.5398,-0.5989,6.6772,1.9562,2.0959,
-7.4074,-0.35349,-3.2092,-1.4215,14.0418,2.835,3.4922,2.3939,-2.508,-9.8326,-5.3834,-7.7028,10.0338,5.8267,
-6.2401,-2.0195,-2.2935,-0.13113,16.8147,2.4239,6.8978,5.8657,4.6322,-10.3272,1.9292,-13.7483,6.2983,9.5742,
-7.5529,1.2351,-2.879,-0.36423,17.9749,0.59124,4.3148,9.6111,8.4516,-1.7538,7.839,-0.14919,6.1614,4.9024,
-7.5816,2.1251,-2.7063,-2.2708,19.7887,0.0736,3.574,1.8038,-3.1425,-6.4691,2.5482,-2.0684,12.5406,-2.6223,
-7.3678,-3.0642,0.58945,-0.44721,12.5758,0.7922,5.0464,1.4545,-0.30297,-2.9478,4.5646,-8.4521,2.388,2.5963,
-11.9873,-0.71104,2.7234,1.2665,5.3134,2.9139,2.5746,3.5365,6.705,4.701,5.4961,2.4192,-8.1195,5.0918,
-14.8834,0.5368,-0.09148,-6.2809,9.5742,-0.39427,2.179,-3.6655,-0.68686,-1.6067,-2.7875,1.551,6.4677,-1.7213,
-13.2674,2.1919,2.0833,-4.2172,18.8818,-2.5397,7.1099,0.16978,1.5236,2.1052,1.4772,-5.5318,18.0107,1.0332,
-14.6405,4.2296,3.1633,1.0975,11.2412,-2.1463,6.4423,8.5955,11.7961,6.0763,13.1987,-0.13844,2.8301,8.9249,
-19.7877,-1.5677,0.32234,0.30864,-3.5333,-0.81235,3.4046,4.4645,13.2578,-4.1704,16.9864,4.4495,-4.4502,13.9334,
-18.1183,-6.2941,0.303,5.1106,4.7531,-5.5841,0.78993,-1.588,10.5339,-1.5098,10.6643,4.1825,9.9168,12.6152,
-9.5595,-1.819,0.5259,4.081,18.5679,-7.9003,-4.801,2.1228,8.215,7.4988,5.9272,3.6905,5.586,4.3864,
-2.4783,3.8336,1.2174,-1.2255,25.0461,-0.91865,-5.7181,2.2363,1.2143,-7.0512,2.9204,-5.931,2.1175,-2.3846,
-5.7039,-1.699,1.1443,-5.9727,24.0255,2.0288,-5.8572,-7.0569,-6.5714,-20.7281,-1.5936,-10.8776,10.6675,1.1329,
-5.6025,-2.802,-1.5755,-9.7115,25.2352,3.1124,-6.2287,-8.8025,-7.8642,-15.869,-5.1133,-1.307,4.484,0.34214,
0.7591,1.9455,-4.6144,-4.0673,31.6749,5.0945,-3.2038,-2.2489,-7.6334,-8.8914,-9.3859,-0.50556,-7.1136,-3.2939,
-0.73271,-2.5098,-1.4452,-3.8235,37.9694,1.4146,-2.0475,-1.1499,-6.2115,-11.7322,-6.4126,-2.8854,-5.7227,2.6881,
-6.2321,-6.4566,-2.0814,-10.5835,37.3784,-1.3216,-11.8066,-4.2142,-12.8285,-10.7873,-8.1968,-0.060907,-1.7639,-2.0525,
0.4082,-0.76663,-6.7774,-11.8768,36.5819,5.5065,-14.9547,-1.5513,-15.9153,-11.1042,-13.0077,3.799,7.0187,-14.4625,
0.14297,-2.4079,-9.0218,-15.7435,34.146,-0.3675,-12.8521,-4.1093,-13.7551,-13.0891,-14.3964,7.1865,4.4284,-19.1384,
-7.8197,-2.0223,-3.9011,-8.2913,28.9638,-4.4429,-10.3939,-1.6935,-7.8684,-0.49349,-7.0251,11.8166,-9.9373,-8.5904,
-10.4837,-5.0343,-8.2464,-10.9274,28.4312,-0.56081,-17.2422,-1.833,-12.4577,-0.22303,-8.2909,2.6719,-23.1999,-8.3161,
3.1606,5.3906,-1.003,-4.9689,36.3661,13.4519,-15.7255,5.5076,-11.228,-2.6198,-5.3831,2.0294,-7.7079,-2.5142,
-6.67,1.693,-0.46086,-3.2247,20.0841,8.7886,-17.1923,4.2131,-12.0008,-5.3551,-7.4705,-1.4666,1.7931,-5.2557,
-8.6802,-0.33681,-2.3614,-3.0314,8.3945,5.851,-7.9658,5.4068,-6.4603,-3.1056,-7.5039,-0.89667,-1.6891,-3.9762,
1.9637,3.54,-4.6298,-4.2954,21.9908,5.9818,-5.0775,0.74359,-7.5185,-4.3653,-11.3925,-0.36071,2.2686,-4.2196,
3.051,-2.6982,-1.7007,-13.4379,34.7714,3.4535,-6.9423,-5.3268,-8.2729,-1.9342,-8.5395,2.3123,6.2301,-6.1358,
-2.4343,-13.1413,-0.63436,-16.488,40.88,-5.9123,-6.0433,-6.453,-5.8479,-1.8179,-5.6166,4.1017,2.9642,-9.624,
1.0858,-12.3531,-4.4531,-8.2681,37.945,-13.7527,-1.8248,-5.1017,-4.5334,-4.6014,-5.7622,6.2655,0.85794,-10.4931,
-2.1125,-16.6732,-6.355,-7.5307,32.5352,-14.1322,-2.4381,-7.929,-1.6099,-3.6021,-2.765,5.649,4.4218,-8.6579,
-3.1907,-16.3959,-3.3223,-5.3915,26.9678,-11.115,-4.4611,-6.2481,-0.78986,-1.2167,-1.3937,4.1048,6.3257,-8.8616,
9.775,-9.3868,-0.47207,-3.8634,28.0006,-10.2074,-4.4346,-3.2219,-7.7326,-5.2412,-3.9619,2.1711,-0.079586,-10.4993,
21.2396,-6.4132,3.4129,-4.5955,25.3567,-6.2205,-3.6864,-3.0286,-12.5713,-6.855,-6.6162,3.4871,-0.55674,-6.4949,
25.0269,-8.6795,1.0389,-5.5246,23.1124,-0.78559,-6.1163,-2.1239,-16.3963,-3.3102,-10.7985,4.9655,4.5383,-9.2382,
30.5151,-8.8819,-1.1926,-8.8085,25.3411,-0.49749,-6.4724,-1.7555,-18.546,1.4677,-13.2841,4.9086,-0.79564,-15.1919,
35.9151,-1.1181,3.2173,-4.4236,20.4461,1.4606,-0.78145,0.27845,-15.987,0.41579,-12.969,8.4705,-8.4607,-11.3879,
30.6267,-1.7739,1.8194,-4.8816,10.3013,4.5064,-0.49359,-0.94355,-12.3762,-1.7785,-11.468,8.2032,-1.9275,-9.4998,
26.6199,-8.1754,-2.8695,-6.2759,11.3705,2.0664,-6.0076,-2.5742,-7.0543,10.6205,-7.1645,7.952,4.6961,-14.4734,
32.7355,-5.7567,-0.76911,-1.0786,15.0265,-0.46771,-6.6112,-1.4558,-7.113,17.2141,-7.2165,9.885,0.075555,-14.5688,
39.6892,-0.34941,0.9645,-0.77272,11.4741,3.176,-1.1529,0.80089,-6.9274,9.1916,-7.9886,9.5331,-3.5442,-10.0795,
36.344,1.5993,0.90663,-0.24443,5.9649,0.092926,-0.60177,-3.1035,-0.7272,7.1938,-6.5454,9.443,-3.8135,-8.5104,
32.7168,-0.90703,5.1903,-0.71192,4.6429,-10.9996,2.8086,-6.2916,0.76246,11.5827,-8.0807,8.3943,-0.21042,-11.8564,
35.5746,-2.2984,9.2177,-1.1511,8.2207,-9.3758,8.9066,-3.5039,-6.5141,6.5494,-7.1139,6.4444,10.4075,-9.2168,
34.163,0.97253,9.8695,2.5333,7.4865,-2.3053,10.0594,-2.0884,-9.7382,0.13089,-4.9998,4.8529,10.9879,-9.8691,
31.6313,4.2886,13.6161,0.45315,4.1453,-1.6851,13.3127,-1.4812,-3.8513,7.3539,-2.2897,6.9718,4.0621,-9.7589,
27.8054,5.9597,15.2095,-0.0562,3.8963,-3.5119,12.5137,-4.2846,-3.6204,9.3225,-3.1164,3.6612,0.92608,-4.8348,
25.8954,4.3966,10.6812,2.598,7.7597,-1.1323,7.1833,-6.1969,-6.5369,3.2193,-5.0988,-0.65603,3.5218,-7.1961,
28.4393,1.9639,11.2454,-1.173,6.571,2.0689,8.9213,-1.7275,-5.9035,4.2317,-1.1772,2.5166,6.9257,-14.2363,
26.9741,5.4613,11.2938,-3.272,2.5615,-0.22461,13.4474,-0.41879,-5.7905,8.0749,0.098449,4.535,5.3051,-8.3207,
20.7764,2.9644,7.0008,-3.3167,3.6131,-6.2367,8.5432,-4.0091,-4.7197,6.3856,-2.0766,2.0937,-0.55681,1.579,
21.6988,4.9559,10.1959,4.3543,4.6014,-4.175,4.4155,0.32904,-2.2671,7.2075,-0.26502,-1.1652,-7.995,-0.68513,
24.7354,6.1046,8.6205,3.129,-2.4234,2.3422,3.1864,3.2016,-5.9877,6.2929,-5.5515,-5.4338,-18.6025,-7.3927,
18.672,1.641,4.9698,-4.0486,-4.9295,1.9603,4.2005,-1.0879,-3.9412,3.2642,-4.9775,-1.0104,-8.0866,6.3073,
10.5618,-3.0372,1.5381,-2.6004,-3.9104,-5.1472,1.7789,-4.1561,-5.8739,-0.065099,-2.9916,-0.22689,4.6911,15.3288,
14.7488,-1.4087,0.48199,-2.9263,-2.2295,-2.9097,2.6365,-1.4966,-9.3779,-0.061193,-7.1504,-3.5873,3.4453,6.6963,
12.8993,1.0862,-3.4036,-6.1254,-7.3986,0.63907,2.9605,1.0036,-7.3692,-0.53968,-7.686,-1.926,0.82826,-5.7568,
4.8947,1.0208,-2.7172,-2.8656,-7.9188,-1.3277,1.8187,0.46119,-2.5885,-0.50707,1.4525,3.01,1.2607,-7.3398,
7.0114,1.4421,-1.1081,-0.28286,-3.1051,-3.6579,2.1918,-2.4583,2.3873,3.38,4.7396,3.3116,-4.5993,-1.5965,
14.7857,7.1395,1.3683,3.1079,-2.919,-0.064233,4.4702,2.0273,1.28,7.5153,-2.2935,6.4871,-6.7337,2.3554,
7.1496,4.3015,4.1792,0.029346,-1.2976,-0.060379,6.6125,1.9056,-3.6171,4.1723,-4.566,5.134,-3.4371,-2.6062,
0.45412,1.6328,7.3024,0.027586,3.1185,1.8714,8.6259,-3.0294,-0.99038,-2.345,5.3485,-5.7793,-2.267,-3.8961,
-1.9835,2.017,7.8284,2.9182,-2.371,-0.65121,4.7341,-5.2575,-0.93073,-6.5426,5.5102,-8.3248,2.2075,-1.7339,
-8.3722,-4.6117,0.36901,-1.8364,-10.1822,-5.1912,2.7631,-5.1833,-0.15175,-7.8371,-0.36425,-3.2458,7.6189,-1.3886,
-9.0751,-4.0941,-2.3047,-1.9672,-4.992,-3.193,8.1405,-4.6313,4.9186,-5.6801,1.3448,-7.1489,8.3666,-7.3313,
-4.915,3.6236,4.3418,-0.16214,3.7434,-0.83198,11.7496,-1.7021,4.3827,2.6149,10.182,-5.5144,12.4441,-8.0965,
-12.815,-3.3425,-1.7036,-6.9006,-4.1937,-8.4946,2.3678,-2.5641,-8.8954,1.9759,5.7149,0.11931,7.8413,-8.0929,
-11.8052,-7.2398,-3.7705,-3.3536,-9.4862,-8.7083,4.3949,-1.205,-4.7463,1.1344,0.79226,2.2808,1.3449,-3.51,
-3.1431,-6.0822,3.9275,-2.9114,-7.2298,-4.5704,11.603,-1.3736,3.9742,-1.103,3.3963,-4.3635,-2.8332,1.2804,
-0.062002,1.0314,8.0302,0.15536,-1.0114,0.042168,12.835,-1.7736,0.84319,-2.4831,7.0484,-5.5479,-5.0738,3.6137,
-4.879,2.4158,2.7281,-0.81783,-1.4327,-2.3705,7.7266,-4.5592,-2.5814,0.55815,7.1079,-2.3225,-3.3231,-0.94145,
-8.6838,-2.7911,2.3228,-6.7945,-3.0342,-8.7364,2.683,-7.4194,-6.5241,-3.091,0.65567,-2.4244,1.4558,-6.9107,
-3.1007,-0.93595,5.3174,-3.2534,4.1382,-4.1144,5.1736,-4.8046,-6.8555,-8.9308,-2.0348,0.37263,-0.8007,-2.3987,
-2.1917,0.80743,-0.063349,-2.8172,1.7203,0.71172,8.4786,-0.90092,-1.8649,-8.154,1.7027,-2.3013,-7.7425,2.3249,
-5.9168,3.6508,0.42216,1.6904,-3.2034,0.66925,8.934,2.5274,1.6212,-0.91611,4.4924,-5.0555,-3.4214,3.1491,
-12.5515,-0.18342,-0.32584,0.86582,-4.2163,-2.0222,4.7827,-2.6857,1.2832,3.7186,8.8028,-4.511,0.39911,-0.17313,
-13.9678,-2.8237,-3.9219,-1.8375,-3.2402,-4.0703,4.7365,-2.7658,5.7857,7.5926,11.4079,-3.0352,0.13442,-6.1881,
-12.1654,3.6127,-1.7584,3.0935,-5.9378,-4.308,5.8986,2.7028,3.9923,7.6194,2.5287,-2.3712,0.60829,-7.263,
-12.3998,2.9135,0.7572,1.4616,-8.4741,-1.6394,2.6521,0.61245,-0.58601,5.716,-0.5155,0.66314,-6.659,-0.56074,
-11.8968,-0.87627,0.47126,-2.7234,-6.7603,1.5925,1.2882,-5.4498,1.1368,7.5422,6.0234,0.38238,-4.5723,4.5346,
-13.8338,-2.5111,-2.6903,-6.1752,-8.0422,-3.0826,0.0058261,-6.8099,-3.029,-2.3101,-2.292,-2.7738,2.2098,-1.2809,
-7.7014,5.8345,0.84491,1.9079,-1.7748,0.47657,3.8616,1.7932,-1.4012,-5.5462,-4.0829,3.1774,0.63115,3.6165,
-6.5164,7.1716,-2.8207,3.9625,1.4647,4.0634,3.389,-1.4474,-2.522,-2.0799,1.7057,0.33522,-3.0221,4.1224,
-9.2587,-0.24832,-7.231,-6.6393,4.5105,4.5427,2.9444,-8.3507,-4.54,-4.1245,0.39828,-1.8538,4.6308,-1.1864,
-9.1851,1.6948,-5.8333,-4.7947,6.65,4.2702,0.83957,-4.4752,-1.3756,-4.8411,-2.0357,0.66753,0.97847,-1.1152,
-4.7778,4.9673,-3.0729,0.31348,7.2151,4.4961,4.1639,-1.3144,1.5993,4.1264,5.317,0.14532,-9.2029,0.39771,
-4.4911,-0.15144,-0.96037,-7.9005,4.3716,2.2982,8.7343,-6.0562,-2.3531,4.8427,4.0337,-4.2017,-5.7587,-2.5187,
-7.5959,2.268,2.9534,-3.5699,-1.675,3.1244,6.7642,-1.8362,-5.1042,-3.6428,-0.064516,-5.878,-6.8592,-3.8136,
-10.7558,2.855,1.0892,-0.2224,-3.262,4.142,5.1533,-0.52099,-2.6285,-5.5931,1.1444,-9.1405,-12.4734,-4.7898,
-10.3512,0.99675,-0.66314,-4.3062,1.5137,-1.168,8.9417,-7.4794,2.5906,-0.67804,-0.12931,-8.3509,-7.1455,-2.3331,
-7.8019,2.8651,-0.14142,-4.0478,1.9048,-4.9543,6.477,-7.5125,3.8814,-1.6017,-2.0497,-6.886,-9.1269,0.69899,
-6.1287,5.3441,3.0003,-3.5642,-0.86078,4.2608,3.919,-2.0003,3.8893,-2.7106,1.2065,-3.8215,-12.1949,-1.0299,
-12.7509,4.7825,-0.31318,-5.0376,-4.9069,5.6924,3.9248,-4.0495,-1.4053,-0.86078,-2.9632,0.50513,-9.776,-6.5118,
-8.8526,5.7006,-1.9814,-6.4223,0.93131,4.6277,4.8944,-2.1195,-5.9005,3.7704,-3.9905,6.0182,-13.769,-5.3979,
-1.8137,3.6716,-0.17505,-4.8319,3.0448,3.145,4.36,-2.2331,-9.1616,-1.9992,-3.028,-0.3682,-26.6811,-3.3871,
-3.1507,0.55921,3.6918,2.2069,0.45155,-2.3464,6.9904,-0.17091,-2.3454,-4.2899,1.492,-4.2025,-21.7058,0.67256,
-9.7106,-0.9206,2.9879,0.14629,-0.057478,-2.6875,5.6072,3.2133,0.68735,-1.1399,3.8126,-4.4323,-11.7266,1.5965,
-9.6101,7.3296,0.39876,-2.2728,-1.5001,10.4889,1.896,2.0564,-8.9946,-5.4101,-2.2005,-5.1304,-25.0025,-4.2841,
-10.9614,12.1922,0.37461,-1.1724,-13.9433,21.9109,-2.5563,2.8976,-8.4552,-5.0853,-3.9969,0.96174,-33.1433,-4.0268,
-19.7035,6.3992,-1.3349,0.58543,-27.2067,19.8736,-6.0181,7.7852,2.4167,2.6914,3.2331,-0.30103,-28.5034,4.6507,
-21.8962,6.4972,-0.77284,2.96,-34.3719,19.645,-3.2469,12.6203,5.1637,9.2784,6.4131,-4.6213,-23.419,7.2637,
-20.1003,8.0358,-2.6549,-1.5557,-22.6684,20.3943,-6.4263,8.4888,-1.8948,6.3118,-1.6843,-0.0054626,-12.3729,-1.849,
-16.9661,15.2664,-0.56695,3.8403,-15.5237,28.3297,-6.5226,10.3901,-1.2991,10.2714,-2.5475,12.046,2.349,-4.1482,
-22.9375,10.735,-3.1845,0.47637,-22.546,28.7995,-4.9264,7.1151,-5.3185,10.3785,-2.6356,10.1179,-11.8919,-3.1764,
-20.5976,5.7524,-3.9575,-2.9269,-22.6397,20.8043,-5.595,6.2061,-5.964,5.4168,-1.5134,9.0287,-25.2784,-1.5398,
-12.8538,11.4328,-1.5509,4.2386,-16.7016,16.423,-6.4641,8.9672,-0.54401,5.3332,-3.5918,13.0667,-23.5205,-2.1703,
-12.324,10.0234,0.22938,2.297,-17.3872,14.2324,3.3233,4.8137,5.9961,9.1105,-3.1353,2.4003,-22.3507,-2.281,
-11.1022,5.0842,0.21562,-1.6972,-16.3435,10.0044,6.9807,0.66853,0.81563,8.5639,-1.019,-7.3842,-26.794,-1.6622,
-7.5438,7.671,2.1306,1.297,-11.0248,12.296,-0.18724,1.5925,-7.4282,8.5322,-1.9219,7.1588,-13.6172,-0.11646,
-13.5989,4.0774,-1.6124,-1.9141,-15.9067,13.2457,-0.41674,0.2919,-5.2951,3.9227,0.36277,15.0447,0.45643,-1.3145,
-13.7473,2.8689,-6.8183,-1.3173,-14.9523,11.9686,4.9109,0.75632,2.7354,-2.5796,7.0894,4.5006,6.2136,-0.27134,
-10.0297,5.5891,-5.927,1.6545,-10.1985,7.8762,1.724,2.157,6.4279,4.3243,10.5207,0.37442,5.841,4.0835,
-19.0689,1.8793,-7.4996,0.10893,-21.638,0.6552,-5.1279,-1.8284,4.5959,15.634,4.1049,4.2083,-8.6094,0.46403,
-15.7556,-0.88456,-3.4342,-0.62051,-21.0628,4.7132,-0.24096,0.93242,6.9713,15.4193,2.6533,11.9096,-9.6596,0.19522,
-10.2309,-3.0007,-1.5409,-4.1992,-13.2916,4.1895,-0.94986,1.5994,2.4557,9.9144,-0.63939,15.2924,-2.5725,-0.53985,
-12.5092,-0.41048,-2.4123,-1.0547,-13.4579,-2.3284,-4.2669,1.5034,-0.10181,14.1403,-1.5649,16.3035,-14.9514,-0.025067,
-7.1795,-1.109,-3.4731,-2.1969,-12.4097,-2.4304,-4.7344,4.5465,0.62697,11.6044,-1.2303,11.7096,-18.6341,-2.193,
7.3512,-0.078349,-0.85437,0.3457,-8.2905,3.9827,-6.3783,6.2021,-2.7849,4.6414,-5.0126,11.0073,-3.4161,-5.9175,
12.8154,0.64948,-0.079982,2.4939,-4.6598,3.5025,-8.165,0.28613,-4.3048,4.1222,-6.8812,11.5519,1.2482,-7.2499,
14.6978,-0.59501,-3.6908,1.6211,-1.2469,2.0873,-6.952,0.51016,0.53257,4.1156,-1.4069,8.6894,-4.8527,-2.2354,
18.6369,-1.041,-5.8793,4.4166,-10.8129,0.51603,-6.5346,3.3718,1.4652,-0.46945,-1.3223,7.2039,-7.4534,-1.1372,
18.7235,-4.112,-5.7679,1.982,-16.1901,-1.2026,-5.4197,1.4823,2.5821,4.138,-1.002,6.5307,-9.6577,-2.7562,
17.8413,-6.0342,-9.0371,0.65801,-10.1568,-0.40687,-6.7815,0.67023,-4.0801,3.6485,-0.70065,-0.36883,-18.4783,-2.3496,
28.581,-1.0929,-5.3614,6.1621,-6.4143,4.1968,-1.3129,4.7278,-6.4868,-2.5959,-0.41765,0.85859,-18.0925,-0.039491,
38.1938,0.6599,1.4678,4.1052,-4.3423,2.2578,5.7553,1.3102,-5.3747,-4.6098,-2.0798,3.4577,-2.9069,-1.7243,
39.2769,1.5844,3.7901,4.823,6.0414,-2.2162,6.3741,0.26797,-11.3185,-3.3687,-4.3654,0.35842,9.4391,-3.0669,
38.1253,0.28427,1.3938,6.2211,6.4021,-1.8421,4.3046,4.8314,-6.5418,-1.9615,-1.4521,1.542,8.15,-1.6778,
37.0431,0.50818,1.0692,4.1606,0.95671,1.402,2.3591,2.8543,5.1789,1.2897,-1.606,2.1728,2.5994,-3.2644,
34.5793,3.6109,4.1378,4.6336,4.0321,3.9687,0.53011,-1.8965,0.28817,4.8275,-3.679,-7.3578,0.75594,-3.7917,
25.9971,0.7432,1.7204,5.0789,-1.7534,-0.36677,-5.0453,-1.0598,-2.3802,0.44051,1.1215,-14.8705,-9.6535,-0.43067,
24.1961,2.868,-1.998,10.318,-1.889,-0.10357,-7.3935,-0.27307,5.7166,-3.2011,3.7055,-2.6499,-9.315,-1.128,
34.0725,6.7933,2.2192,8.9756,11.4808,4.9643,-0.44237,-3.3897,1.7582,-0.35795,-3.5067,8.3554,5.3439,-4.1938,
35.1614,4.6982,7.1475,2.8937,12.4789,-1.8412,1.7536,-4.3919,-3.8912,-2.9878,-4.5014,-5.8845,2.9743,-5.6291,
23.6517,0.31897,3.1032,4.8892,3.7764,-9.2026,-7.2697,1.4153,0.92204,-7.3883,2.2762,-18.3059,-3.2299,-6.4967,
19.8223,-1.1462,0.024752,5.56,1.6214,-1.4198,-4.9056,5.6689,-3.4718,-4.0527,2.1399,-3.7099,-2.072,-3.6965,
20.3206,1.0917,2.1929,3.0572,2.7294,4.6914,3.8249,3.6415,-12.6635,-2.1218,-5.4603,4.9488,-10.3834,-1.3056,
14.5216,0.78526,-2.0365,-4.598,8.1093,3.2046,-1.4658,3.664,-9.7346,-11.3945,-6.338,-5.7125,-6.6271,-3.8783,
14.1323,1.702,-4.8064,-3.3583,8.5866,4.4581,-8.6092,6.8186,-6.258,-12.1571,-2.5833,-5.3697,7.8705,-4.61,
14.0077,3.2871,-0.42064,2.8692,3.4921,3.9501,-5.4411,6.1685,-10.9442,-1.0634,-7.4895,2.9067,3.6626,-5.5382,
7.6236,-0.043594,2.2557,-6.221,3.0416,1.0616,-0.052923,-1.6734,-11.0104,-1.241,-13.0661,1.0446,-10.6571,-10.7495,
10.7814,5.5029,6.2179,0.17758,2.6179,6.0593,2.1192,-1.3318,3.7502,-4.2998,-3.3643,-0.70508,4.0823,-4.5612,
13.268,2.5216,3.6757,6.1929,-7.4211,-0.81171,-4.5154,1.3992,8.2254,-0.90831,1.8992,-8.1346,2.6321,-0.67208,
11.5078,0.92381,2.973,0.51848,-4.0835,-4.6196,0.57596,4.2076,2.911,5.8949,1.3031,-10.0569,-7.649,-2.5597,
4.0687,4.2426,3.7587,-0.95866,2.4282,-0.48583,7.772,2.991,-2.5661,-5.0644,-0.22112,-5.5968,-0.44138,-2.8883,
-2.4422,-0.35004,1.6052,0.062956,-2.538,0.025482,-0.40685,-2.0089,1.444,-15.3651,1.2382,-5.7432,0.5492,0.65923,
-1.3318,1.5992,0.54459,1.9874,-0.45748,0.023494,-3.275,1.4861,6.66,-4.8027,0.68195,-5.3986,0.034081,0.13774,
-0.28733,4.3955,-0.93412,-1.5061,2.9442,-2.8697,5.1165,5.253,-0.9702,2.2346,-4.1794,1.674,13.0477,-3.7271,
-3.1626,1.7216,-0.39614,-2.3796,-1.5708,2.1227,3.3637,6.3841,-2.8402,3.5468,-0.55423,7.8405,16.1212,1.7991,
-9.2398,-1.7561,-0.37237,-2.7192,-10.1536,5.3698,-8.4078,3.1086,0.22229,5.2617,0.44289,3.5132,1.6564,2.1731,
-10.6134,-0.68665,3.0242,-7.3765,-9.0623,-3.6293,-2.1185,1.476,4.5475,1.5718,-0.54778,-2,-4.2276,-1.3315,
-12.6279,4.8979,6.4584,-3.3188,-1.5289,-4.6166,3.0701,3.0749,-2.715,-4.5483,-2.6838,-2.1212,-4.6971,-3.421,
-15.2442,7.4966,4.1427,0.25482,-0.47281,9.6397,-8.6833,4.3367,-12.1931,-6.6855,-6.3792,-0.54763,-9.2355,-3.6977,
-15.5349,2.949,2.6888,-1.4477,-5.0242,9.7842,-12.2601,2.8712,-5.9179,-8.4535,-5.2735,-0.27381,-6.5124,-1.7886,
-12.4336,2.0491,4.6967,3.2185,-8.8201,0.2791,-3.0884,1.0117,-4.358,-6.2591,-3.7523,0.46552,0.38601,-1.4403,
-9.0363,6.9881,5.138,1.8207,-6.1215,1.4679,0.71259,1.6741,-8.1936,-0.33972,-3.7679,1.6431,-1.3241,-2.077,
-8.9763,10.425,5.3119,-1.1808,0.51253,2.8258,-3.1868,1.5734,-1.9176,0.16237,-3.5416,0.098495,-5.1011,-2.9165,
-11.5707,8.1122,6.1985,1.0592,3.1329,2.4153,-0.34402,-1.1721,3.7415,1.3579,-2.1243,-1.5946,3.1589,-2.9825,
-11.8408,3.2872,1.0058,-1.8969,1.0167,4.1986,4.0149,-1.1017,0.14255,4.6509,-0.068615,0.91116,14.5386,0.089003,
-11.8535,2.3664,-1.7058,-0.57798,-6.0344,3.7055,2.5685,2.0976,-0.10765,0.27426,-1.2696,5.9179,5.2299,1.7707,
-17.4088,0.29665,0.80665,-1.0252,-7.1181,4.4475,1.9325,2.9361,1.8275,-2.6347,-3.6035,5.5629,-9.1839,-0.74571,
-19.9799,-3.3368,0.51751,-0.72253,-1.6296,2.4932,3.0216,3.0007,7.7436,3.0672,1.6741,-3.6887,1.8519,1.9504,
-19.9862,-4.8236,-3.6111,-1.4023,-3.2188,-5.128,2.1172,-0.79457,14.7505,3.1239,10.4915,-13.8315,15.8408,8.823,
-18.0639,-5.2573,-1.707,-5.8977,-1.8206,-5.0615,2.2313,-5.3264,9.286,2.2138,7.2107,-1.6732,11.3957,6.1242,
-16.9803,-3.0134,-0.64094,-4.0978,8.4117,1.5089,1.1334,-4.5247,-2.3582,5.9371,-3.3451,11.4424,2.517,-0.99192,
-17.6485,-3.5558,-4.2177,-3.6107,8.1482,1.1776,-1.586,-3.0481,0.43465,9.1966,0.4713,-0.57258,3.571,2.2009,
-14.6614,-2.8605,-3.4827,-5.8047,-1.4997,-1.3036,-0.044551,-2.8652,4.265,0.4496,4.7813,-14.6382,-1.9456,4.9613,
-6.792,4.3008,0.34147,1.0513,3.6517,4.318,7.9116,2.3681,1.8397,-5.6032,1.8431,-5.2033,4.1966,1.5299,
-12.1689,0.18658,-3.0532,1.9523,5.843,5.0235,6.9552,-1.1482,2.2115,-2.8566,-0.67781,-0.55257,14.5499,-1.9361,
-11.4387,5.96,4.3608,6.6559,1.1536,3.7577,7.0198,-1.0793,5.9352,4.5456,1.7734,-5.8221,8.8567,2.0365,
-2.076,11.3867,12.2941,6.7383,-1.8079,0.15806,6.1165,3.3236,2.2044,5.237,-0.26138,-4.5086,3.9867,2.3964,
-1.9514,2.5088,6.7357,2.96,-2.6637,-2.262,5.2676,1.196,2.0721,3.4765,-2.1739,-2.3099,9.0497,-0.15748,
-10.2698,1.1532,0.30626,3.5055,2.558,1.9717,5.6746,-0.080409,3.6352,2.5452,0.60786,-2.8945,3.9277,0.093168,
-14.2331,5.6635,1.9749,-0.32002,5.0558,6.9149,2.2009,3.0577,2.694,4.0795,0.81259,5.7151,-2.8157,2.2565,
-11.9331,3.3958,-2.4817,-3.1931,-2.96,3.6077,-3.2336,-0.9824,-0.84187,6.727,-2.6104,8.7469,6.0301,0.67509,
-9.7711,-0.6646,-5.2255,-3.0018,0.10939,-1.4297,-2.0759,-2.8519,5.4754,0.53862,1.4024,0.026675,11.935,2.0806,
-18.8256,-4.4813,-4.4299,-3.7857,5.8876,-3.2719,-0.50486,-3.6449,8.0391,-9.6168,4.2105,-7.2055,-0.35045,3.4018,
-18.1782,-0.83777,-0.78938,-0.66631,4.5703,1.7449,0.97146,-2.944,1.772,-4.2189,0.58368,-0.98839,3.5272,2.2341,
-6.7234,0.89949,-0.98321,-4.2415,6.4655,1.399,2.1182,-3.9724,0.94254,3.0239,-3.067,4.6143,17.4156,-3.4438,
-4.6328,4.4609,-1.1652,-4.7104,13.0669,-2.3003,1.7502,-4.9394,0.16309,3.0834,-3.1239,5.5427,12.8757,-8.7808,
-9.6572,4.6754,1.3146,-3.4637,14.6933,1.6943,4.0555,-1.7507,-2.2571,3.3806,-2.4543,8.5844,-1.9969,1.3872,
-12.9344,-6.6925,-2.6204,-9.5226,3.6886,1.1105,0.9199,-1.6455,-4.0501,2.6956,-4.7174,1.3206,-9.4696,7.5703,
-8.061,-1.2293,-2.7042,-3.8896,1.78,1.7668,2.0695,3.5145,3.1828,5.1849,-0.33703,0.51805,1.9449,3.983,
-6.3723,4.3878,-4.7113,-1.0049,2.8783,-0.50818,4.1148,2.0986,-2.5515,2.7049,1.3706,-0.7181,8.3359,3.9848,
-5.7487,3.8838,-3.2236,-0.70337,2.4648,0.72737,1.2165,-1.6425,-10.8343,-1.555,-2.3272,-3.3259,0.84609,17.0023,
-5.4036,1.7228,0.82648,-4.5178,1.8348,4.0584,-3.6765,-2.5081,-7.7739,-2.9077,-8.4539,5.5505,-1.1326,23.2133,
-8.2131,-1.5142,0.53569,-7.8619,0.51964,-1.247,-0.80502,-1.1525,-5.1386,-0.5643,-7.7059,11.2428,8.817,15.3123,
-7.7201,-0.4593,-1.4244,-0.64152,0.97062,-5.0283,0.20738,-1.5656,-5.3124,0.91605,-4.3513,0.44513,0.093067,9.5731,
-4.3646,1.9786,2.9991,-2.0495,6.6967,3.9502,-0.76916,-1.4714,-1.137,-0.10301,-4.5724,-6.8122,-6.1793,2.25,
-10.1282,2.1009,3.0606,-6.5058,8.4645,13.1132,0.00034915,5.1248,0.13647,-3.2303,-5.5029,-0.85984,7.9303,-7.285,
-18.4386,1.7338,2.1536,0.392,2.895,14.4956,2.1695,9.8786,2.7794,1.5428,0.37093,5.2173,8.6593,-4.6787,
-23.5988,-2.709,3.9526,0.85041,-2.5813,16.5179,1.075,8.3215,3.5769,5.789,3.7227,4.9043,0.42696,-3.9156,
-31.8241,-4.9566,1.3053,0.31791,1.4299,21.7938,3.903,9.7509,1.4341,3.0315,2.5354,7.9845,13.8992,-2.7168,
-43.8942,-11.89,-8.414,0.29838,0.86219,20.0038,5.1146,9.1658,5.2045,4.7774,1.419,10.8798,20.7775,5.6409,
-41.7427,-11.6588,-7.9094,5.101,-3.5281,19.2857,-0.012728,10.5438,9.7127,13.1676,2.2979,12.6374,14.2285,11.5692,
-33.4533,-9.0308,-1.65,3.8313,-1.8704,17.1645,-0.011735,10.8753,-0.99321,10.4496,1.1964,12.3613,16.267,5.0907,
-34.8208,-13.7918,-3.4794,-3.1477,-0.31212,10.8322,5.2914,4.9199,-1.8982,5.0021,3.0526,8.7269,14.3269,1.8925,
-36.3467,-12.2407,-5.922,2.585,-5.3548,6.0847,1.3587,1.0095,4.7239,6.8714,6.4846,2.178,3.5851,2.9845,
-32.4787,-11.7475,-3.3973,1.2248,-10.5769,4.9965,-6.1948,1.1902,0.8248,4.2897,5.8548,-2.5322,-2.6553,-0.32785,
-28.843,-12.7301,-1.9884,-4.8745,-7.7734,4.9379,-1.7256,2.3238,2.4623,2.8273,6.7086,1.2349,4.4937,0.41449,
-38.9225,-17.5097,-10.305,-4.8232,-12.3684,-3.7943,-4.2734,-4.3233,7.3765,2.4164,2.6904,-5.8288,1.0903,0.14888,
-39.9616,-16.9413,-6.7944,-3.5697,-14.0367,-2.6025,-4.4991,-2.6179,7.898,10.4664,1.5649,-8.8533,-2.8312,-2.2704,
-23.4639,-6.2836,2.7725,0.50109,-2.107,7.6767,5.412,5.2522,2.1217,17.0695,0.024987,4.6931,11.4386,-3.0983,
-13.9816,-7.3526,-5.1068,-2.4213,-1.9808,3.3595,4.1232,4.4549,-2.8261,10.2605,-6.2433,5.8575,23.1651,-1.9483,
-14.5888,-7.8755,-8.657,1.0982,-10.0569,4.122,-1.4266,7.0799,4.5741,12.0552,0.39808,3.5781,14.5446,5.8816,
-14.4366,-9.0905,-8.8607,2.7193,-14.9969,5.5617,-8.3311,7.3782,5.9866,18.3216,2.5436,10.353,5.236,5.2875,
-7.3039,-9.9911,-5.9187,0.14582,-10.2409,-0.074401,-5.4209,4.0432,5.6277,15.7758,2.3907,21.7832,6.3679,4.0062,
-1.563,-6.9815,-6.0455,3.9935,-12.5185,-4.8902,-3.1674,1.3905,4.3257,3.2601,3.2116,17.1017,1.1651,3.7658,
3.1103,-4.8754,-5.4418,5.4415,-14.9009,-1.4638,-7.5567,1.0661,5.2714,1.8596,1.8136,5.7118,1.3366,-1.0394,
11.1186,-4.5828,-4.151,2.7049,-8.2218,-3.3037,-7.5852,2.9303,4.4732,5.6044,1.2229,2.4765,11.3793,-1.459,
18.6464,-1.4156,-4.3841,6.3988,-3.8723,-7.9264,-5.6841,3.7186,-1.0981,2.8578,0.66735,2.3282,11.1787,-1.3717,
29.0966,-1.3309,-3.157,6.979,-2.6759,-3.1123,-5.3433,0.60275,0.89625,5.5786,1.1095,-0.22232,6.1694,-3.6997,
37.9561,-3.1788,-2.0032,4.1501,-3.9616,-2.4431,-6.9509,-4.2537,2.2887,7.1721,1.0429,-10.8138,2.4248,-3.4778,
38.0891,-2.0244,-1.8833,3.4189,-1.796,-6.6355,-5.5697,-2.0705,-1.2233,3.3671,0.49816,-10.1652,4.6897,-2.7869,
32.9117,2.9182,0.15794,4.66,2.1687,-2.8625,-3.3073,2.3925,0.29639,4.1294,-0.01366,3.4606,7.3008,-2.1378,
33.1061,5.3942,1.8357,5.5853,2.7614,0.44228,-2.8679,1.0437,-3.3368,8.4614,-3.6283,6.386,-4.9478,-3.6967,
40.2786,4.1065,1.7253,3.3222,3.0779,-0.066422,0.19644,2.9095,-8.439,9.3997,-0.51827,7.4488,-8.0252,-2.5108,
29.185,-0.96038,-3.6806,1.6768,-7.2299,-4.4005,-4.6354,-0.15738,-4.0761,0.15887,0.47692,0.73562,-6.0972,-1.878,
17.0696,-6.9288,-7.5571,-1.5573,-10.8935,-6.3061,-6.0449,-6.6559,5.0861,-3.948,-1.2389,-9.1909,-7.901,-2.0063,
27.1328,-7.9591,-3.2471,-5.3204,3.2577,-4.9632,2.9951,-4.81,1.4067,1.5913,3.174,-7.193,6.0707,-4.2963,
29.843,-7.9637,-4.4988,-8.3754,5.9541,-10.4507,1.3689,-6.9318,-10.729,-2.8427,0.57317,-3.8696,19.2036,-14.6436,
27.0883,-3.6293,-3.2647,-4.0168,3.187,-7.8952,-2.0875,-5.5518,-1.8903,-4.1182,-0.42532,-5.0834,17.0873,-8.4625,
27.3916,-1.0014,-1.1407,3.4555,3.4777,-5.0109,-3.4085,-2.8085,4.972,0.9496,1.0465,-11.0449,2.0827,0.24037,
27.1939,-0.45889,-1.0722,3.7301,3.7509,-5.6746,-1.2758,-2.64,-0.14704,3.7847,0.98367,-6.5258,-0.45236,-0.73837,
24.116,1.0144,1.8846,-1.3144,2.562,-5.3341,0.24703,-2.4816,-0.13822,3.0757,-0.039674,3.9886,7.7695,-1.176,
23.3924,4.0871,3.9407,0.93365,-3.6177,-2.8449,-4.8295,-3.538,-1.8172,3.1321,-6.0628,-0.34806,-4.5068,-0.86448,
23.9169,3.3597,2.2582,3.288,-7.2568,-3.6383,-6.4677,-3.3255,-1.7084,5.8365,-1.8425,-6.5939,-15.8058,0.63342,
17.6616,-1.1802,0.19456,4.537,-2.965,-5.3482,-4.6333,-3.126,1.7686,3.0761,2.6064,-0.89564,-1.3601,-1.8147,
12.7455,-0.62748,2.1111,0.40836,3.9618,-3.0991,-1.9452,-4.3847,-3.6397,-3.8573,-5.2627,1.0868,10.2911,-5.5622,
11.9808,-0.10744,4.8769,-6.3646,8.0624,-1.4669,3.4741,-4.6035,-7.7596,-2.6616,-9.2853,-2.8348,1.9609,-3.7822,
9.3335,0.38071,2.6559,-1.1627,7.5789,-2.8249,3.7479,-3.8452,-1.0278,0.39042,-4.872,-2.665,-1.5314,0.30087,
7.3277,-0.12407,1.5322,3.2459,8.088,-2.1735,2.5587,-7.4708,3.8546,2.7771,0.72294,2.3152,7.7195,0.28282,
5.9237,-1.0805,0.47641,-1.2877,7.6028,-2.525,4.8153,-9.4327,-3.1256,2.6105,-3.1768,3.1406,7.2563,0.26585,
6.7734,4.5277,-0.75769,-0.0053534,8.3516,-4.5429,6.6957,-5.734,-4.1431,-3.5719,-5.6375,-0.1811,5.6159,4.8294,
5.6438,3.051,0.49329,1.6824,6.1636,-5.4754,3.1603,-3.2205,5.9872,-6.9728,2.1723,-8.1242,8.8941,7.191,
1.2078,-2.1937,1.1866,-0.58768,-1.6781,-9.7262,-1.1262,-5.6784,8.2795,-2.939,5.6578,-14.6266,3.2992,2.6622,
1.8585,-0.85705,1.3566,-4.1681,-0.37232,-10.83,0.62834,-6.0608,5.6133,2.2988,3.149,-4.3488,4.3063,0.33304,
2.7109,4.497,1.2752,-2.9541,3.9883,-4.8776,-1.3376,-3.287,1.9021,1.1965,1.9957,5.5531,9.8325,-0.65081,
-3.9593,3.5038,0.47533,-2.0535,-5.169,-1.4519,-5.837,-3.3308,-0.86313,2.33,0.67068,7.871,9.9655,-0.37079,
-6.1321,-3.4546,-3.8913,-8.679,-10.1613,-3.7747,-4.0403,-3.6131,-2.7393,1.2261,-2.7438,10.291,13.2242,0.13362,
0.98476,1.091,-2.212,-4.3019,0.57128,-3.0663,0.058473,-1.9501,-3.5393,-5.1144,-1.1329,0.51454,12.4307,-1.3207,
4.5409,6.087,9.7311,2.9459,9.4553,-6.0156,3.1882,-3.0381,-3.5681,-10.3509,3.5146,-13.6163,1.3208,-5.339,
4.9915,5.963,11.3166,2.046,14.4314,-7.824,6.1302,-5.0252,-6.0053,-9.4887,-0.79387,-9.3042,2.9285,-4.7775,
1.5586,0.5435,0.27327,-1.6922,10.9144,-2.2929,1.1826,-7.3748,-9.2604,-4.822,-11.5925,-1.2741,10.2246,-0.39347,
-4.3195,-5.7561,1.7031,-5.929,0.13616,0.25481,-2.7447,-5.9684,-5.3304,-3.5688,-11.3789,-5.5365,1.8984,1.0764,
-1.409,4.4714,12.447,1.8988,2.2974,0.96265,4.892,-1.0308,2.9434,-2.1492,0.15034,-1.1067,-4.2413,-0.19325,
-1.3243,5.1673,3.0233,3.2309,4.088,0.42273,3.6344,-2.415,1.3208,-2.0204,0.62303,4.2626,0.83367,-4.5202,
-1.2448,-1.4093,-5.8347,-1.3013,1.9145,4.2537,-2.8502,1.1044,1.2415,3.4034,0.58564,3.0425,11.8709,-1.8389,
-5.2675,0.36249,-6.208,-1.4641,-0.85193,-1.5446,-6.7765,2.2434,1.408,-2.3444,0.30954,-7.022,7.0613,-1.4876,
-6.3977,3.7152,-2.9435,-0.41243,-2.729,-4.3445,-3.4779,0.66252,7.1081,-7.5064,4.1474,-9.0112,2.2993,0.04795,
-7.4601,2.046,0.60804,-0.38768,-8.3498,-2.1556,-4.2331,-0.82349,6.6816,-3.6815,3.8985,-6.5419,0.23312,1.4913,
-2.9151,3.6105,0.81253,-1.5697,-3.7515,0.62482,-6.1487,1.877,1.219,-1.7734,0.049182,-6.8728,-0.50423,5.0173,
-1.294,4.8401,-0.20055,-3.8857,-0.63389,1.0697,-4.8155,1.2825,0.66397,-4.5595,-0.91764,-7.9067,5.3106,5.6801,
-5.0729,5.0314,0.77558,-1.2422,-2.0419,0.041443,-3.5624,-2.1687,-0.8219,-5.2501,-0.38042,-5.0219,12.223,0.036881,
-2.5992,4.9707,0.005913,-1.4088,0.73195,0.27969,-4.5538,-3.2437,-1.9776,-1.3194,0.36554,-0.14107,9.3203,-2.1347,
5.7515,7.5645,0.96988,0.60389,-1.7226,0.74485,-4.2805,-0.63891,-0.41319,2.1338,0.34315,0.83126,-5.3389,-0.56038,
6.3707,4.701,1.3936,0.56812,-5.4756,0.21868,-5.9519,-3.0107,-0.86987,-0.88633,-2.5695,-1.1463,-15.9851,-0.52676,
0.6856,2.4905,-0.61842,-0.91246,1.1197,4.5437,-4.1487,-3.7942,3.0385,-0.83338,-0.0049751,0.36846,-0.92602,5.2892,
-6.3452,0.1717,-4.1965,1.3112,-2.0812,-0.79042,-3.6591,-1.8795,3.0969,-2.9523,3.6105,-5.1975,13.2295,5.695,
-4.7594,-1.5261,0.63481,2.4376,-6.0535,-5.323,-0.78822,0.88459,3.1518,-6.3908,5.5628,-13.3215,4.4818,1.7381,
-1.5811,3.3864,6.3815,5.666,-1.3517,1.2636,1.1875,-0.13259,4.4092,-10.3455,2.8191,-13.9683,-9.8871,2.116,
-2.2096,5.8344,6.2396,7.9772,-2.9578,2.875,-0.57098,0.59827,4.868,-13.3402,0.48084,-8.0685,-7.4862,2.23,
-0.63098,1.6281,3.9368,-2.6246,-3.7445,-5.0105,-1.0189,1.5265,1.2013,-9.6475,0.93415,-7.1022,7.063,-1.7604,
2.5408,4.1815,3.942,-6.564,3.952,-0.61204,3.1401,-1.2162,-4.414,-2.0787,-2.2554,-2.0968,13.5086,-3.8235,
-2.9145,5.3767,4.6691,-2.314,6.1253,7.6192,8.736,-2.5893,-0.77491,-0.99037,-3.0842,7.1878,-0.31756,-1.6661,
-10.9346,2.1618,4.3892,1.681,-1.9553,4.7517,4.8376,1.4222,4.0921,-3.3408,1.4394,9.1669,-7.0472,0.36179,
-14.1349,1.0682,-0.69485,0.13432,-7.1406,0.61017,-4.1297,3.7475,0.47209,-0.73027,0.38875,6.6887,1.5708,-0.14185,
-14.0099,-1.1653,-4.2683,-4.4533,-2.6146,2.261,-4.6046,1.3533,-0.7613,5.8213,-1.3216,10.8669,12.8045,3.4823,
-8.831,0.83284,-3.5303,-1.294,-0.52951,-1.2491,-1.9182,-0.65613,0.73064,4.99,-1.2423,11.1792,7.2155,2.309,
0.13499,5.3626,-0.18501,-0.011063,-3.1488,-2.8614,0.84797,0.10614,2.374,-2.2992,2.4477,2.5542,-1.1711,-2.4088,
-6.8632,-0.021051,0.54922,-2.1798,-8.9857,-3.8948,1.0383,-1.5872,6.3287,-1.9201,6.8803,-6.5168,-0.85966,1.8329,
-20.5514,-7.7326,-3.3406,-2.049,-14.2311,-10.8919,-1.9165,-5.8308,5.4671,3.4973,4.5389,-6.1258,-0.80808,4.133,
-11.9668,-0.037767,-0.72956,-0.96173,-3.7363,-8.3102,2.5372,-1.1421,0.31832,2.3236,2.8207,5.8109,7.4351,1.4749,
-0.40251,5.99,1.4834,-1.6274,6.3698,-1.786,6.9643,-0.35072,-6.2083,-6.7339,-1.4459,1.8468,9.6406,-4.6391,
-3.5118,3.9439,5.9741,-2.2526,5.7467,-1.4375,10.6438,-1.0526,-1.7384,0.66003,-2.5644,-3.8072,9.3031,-5.0837,
-10.532,1.7786,1.2769,-7.4201,0.099225,-8.5821,1.3285,-0.98942,-2.116,3.9949,-4.3387,-0.20474,7.2986,-5.743,
-5.8025,8.1796,-3.3792,-1.9135,1.7803,-2.5237,-4.7774,3.1671,-5.1228,-0.34239,-4.3196,4.3871,3.2451,-0.81889,
-5.4546,5.2789,-4.1406,-2.7628,0.22742,2.4482,-0.15177,1.0491,-3.8509,-1.2859,-5.0245,-2.1429,-0.80579,1.1582,
-12.3579,4.48,-6.302,-7.8994,-1.2323,0.85524,-1.1068,0.022037,-6.0302,3.6117,-8.5792,-1.0498,5.5093,-0.83925,
-15.2318,5.4165,-9.0574,-9.5946,-4.7737,-0.40136,-11.4047,1.7079,-7.3556,7.4923,-8.7874,5.5207,3.0096,-0.54793,
-14.3177,2.6812,-6.586,-2.7522,-15.0924,1.0692,-11.2021,4.9797,2.7269,6.0787,0.89868,-2.5236,-11.271,4.7878,
-6.228,7.3408,-2.3342,4.6435,-12.2584,1.0048,-2.3355,6.6093,3.5274,1.3754,2.7727,-4.3001,-9.9925,3.536,
-0.31073,10.9977,1.9032,-2.6245,1.2515,3.1137,2.8663,5.4899,-6.0842,-1.3582,-3.9011,9.2143,4.707,-4.1475,
-4.8718,8.1687,3.9582,-3.6723,-0.51123,3.1678,2.9353,5.8834,-8.3707,-3.9282,-2.9442,11.3125,18.5246,-3.1758,
-8.4357,2.3761,0.82838,-0.55967,-6.2649,-3.7709,3.2413,5.0482,-3.5299,-10.4408,-1.321,-1.4175,4.157,-0.092922,
-3.1088,3.1974,3.6712,0.43777,2.3057,-4.0266,5.457,3.781,2.9484,-4.9941,-0.27789,-6.6351,0.53309,-0.56928,
-7.2611,2.0413,4.4148,4.2679,0.23916,-4.2674,3.2014,1.6259,4.2177,2.0545,0.22072,-10.5754,-1.909,-2.9457,
-11.4049,-0.25015,0.052777,2.3248,-3.3904,-5.6983,4.2144,2.2515,3.7239,0.24376,3.8231,-9.2177,0.85684,-0.11764,
-0.11511,4.5853,1.9776,-2.1532,5.008,-1.0179,6.3719,4.0448,-0.83805,-1.2169,0.70145,-0.95164,9.4823,-3.9667,
1.0966,1.1767,4.0281,-5.6394,3.0203,-5.5366,-2.4466,-1.2595,-7.7776,-1.3849,-10.1869,-1.136,2.4054,-10.2367,
-6.1998,-2.2681,1.858,-5.7832,-2.9458,-10.9887,-2.2996,-2.63,-3.4548,0.6262,-7.1653,-4.442,-5.4514,1.4645,
-4.382,5.5808,0.30069,0.34834,2.0517,-2.6166,4.1049,2.83,1.5732,0.1067,0.97737,-4.6574,-3.1962,8.1256,
2.871,5.969,1.0058,-0.39524,8.9182,6.4582,-2.1671,4.8296,-5.0289,-2.551,-2.6969,4.5398,0.12886,-0.79788,
6.314,2.4776,0.2223,-3.0228,6.6962,1.4912,-6.1342,2.8528,-11.2349,-3.603,-10.0067,10.2932,4.7006,-2.437,
6.1763,1.6059,-5.8168,-0.67254,-0.21333,-4.1417,-1.6686,2.4405,-6.4632,-0.25359,-6.755,0.7578,4.1774,-0.60379,
7.252,-1.383,-10.2881,-0.63173,1.7277,-4.857,-5.9073,1.8121,-0.77278,-0.23838,-1.047,-4.5903,0.070837,-8.2803,
15.2526,-3.9511,-8.9479,-2.2811,8.1315,-4.3246,-11.096,0.016601,-6.27,-6.7316,-5.0816,-4.0739,-3.0669,-12.3628,
28.4374,0.14233,-1.6621,-3.1085,11.0181,-1.655,-4.1637,2.9077,-10.2321,-6.3277,-9.1154,-5.2758,-4.3291,-5.8365,
37.6979,5.4362,1.8119,-0.029717,7.9466,-0.1097,-2.9498,3.2154,-10.1004,-1.6095,-9.0502,-8.3334,2.1973,-4.0402,
34.7131,8.7255,1.9441,3.5875,5.7826,0.13785,-5.4244,2.2991,-8.7715,-1.7539,-8.2662,-3.7361,8.573,-3.5569,
