"AF3","AF4","F3","F4","F7","F8","FC5","FC6","O1","O2","P7","P8","T7","T8",
14.2207,-36.3947,32.0564,33.0207,-36.3947,-73.9947,8.9181,11.3282,-67.7282,6.9899,-28.2,-215.2359,-3.6154,3.6154,
11.9212,-31.319,34.9537,40.198,-34.6932,-72.9295,11.7574,9.6842,-69.9312,4.6423,-33.2567,-200.3936,-0.98837,0.98837,
12.8929,-34.0193,36.4717,36.5811,-30.4424,-76.5077,12.2571,4.5236,-76.5816,0.26617,-39.6972,-199.2162,2.2042,-1.2403,
10.4321,-31.2551,35.0063,27.8788,-23.0723,-70.23,12.2445,5.9394,-75.6019,-0.9551,-35.6281,-196.6632,0.38517,1.9676,
16.3137,-25.2824,41.3416,28.3752,-17.5908,-58.5446,18.0173,9.1985,-63.5942,-3.5489,-27.4651,-180.2839,6.8695,2.5724,
8.3455,-23.5243,38.6206,28.3599,-17.7402,-50.4522,18.1416,7.9237,-58.0911,-3.5769,-31.8425,-168.7438,13.9292,2.659,
7.6035,-24.2822,27.8674,19.6682,-17.3989,-49.1123,9.0991,4.7969,-64.0059,-2.6392,-37.404,-167.5372,8.5139,1.7764,
10.522,-25.2354,24.7489,23.3091,-14.909,-43.2733,8.5534,4.5089,-59.2014,-3.4449,-26.9648,-154.5927,1.7363,7.9365,
-1.6789,-25.1675,22.3001,31.5515,-16.4245,-34.4101,13.3428,3.2745,-53.7212,-2.7563,-23.4188,-140.0145,1.1502,11.3167,
2.2784,-28.478,21.4443,19.5353,-19.2955,-33.7918,10.6139,0.66765,-59.6567,-4.0369,-28.7623,-141.2546,9.7581,5.8172,
3.1058,-28.6975,17.2649,9.2039,-20.5481,-33.2105,1.7821,3.0379,-54.1493,-6.2051,-26.0725,-139.046,12.5468,5.9499,
-0.69596,-21.9139,11.6497,16.6058,-22.9304,-31.9408,-1.4579,2.6147,-42.4642,-4.1456,-25.231,-133.8365,3.3583,5.8343,
4.4075,-19.8762,14.0842,19.7069,-26.1341,-34.1219,5.1371,-0.67566,-47.3882,-2.2096,-33.5993,-136.6526,1.4696,3.7971,
6.7941,-15.5501,14.9264,13.4628,-21.4328,-28.9411,5.5518,4.4266,-53.9449,-7.1387,-30.3783,-130.1404,7.407,9.5948,
15.3048,-12.9299,12.8257,13.8605,-12.675,-21.1791,3.0497,6.8123,-47.5749,-9.3617,-20.6016,-117.7525,10.0958,11.6704,
11.7347,-15.2876,13.7432,19.5361,-10.7094,-14.3648,7.9282,7.6086,-46.4077,-8.0769,-22.0171,-111.4107,8.285,5.9087,
11.5128,-9.0677,23.0417,23.6668,-9.1028,-1.9335,13.7192,6.6699,-48.4437,-9.0383,-20.2139,-102.7976,13.5727,8.9284,
13.4733,-3.4624,27.6845,28.7541,-4.9414,11.9206,14.5831,3.1365,-37.1012,-5.3627,-10.5652,-92.5324,14.9273,17.3106,
4.2293,-2.5313,18.5521,31.1267,-7.296,10.9646,10.5751,3.1893,-30.7775,-5.2819,-16.4387,-86.7393,6.0779,16.031,
11.2061,-1.8973,16.9568,28.295,-4.4479,5.4863,8.9765,5.4083,-36.1617,-7.3754,-23.6473,-84.9094,13.4262,11.6949,
10.293,-6.363,19.5551,21.0539,-1.5297,8.7725,11.0892,3.3968,-39.5356,-5.2459,-18.1312,-85.8404,21.5385,13.6445,
2.4446,-9.3556,16.9355,15.9338,-7.2225,10.1741,11.8697,2.2286,-31.8608,-3.9668,-11.7406,-82.1362,12.5334,12.3439,
6.1541,-10.7227,13.0266,16.4238,-11.1279,2.3329,6.8189,4.9872,-32.3595,-6.6211,-17.3029,-79.1365,6.9609,8.7105,
4.0978,-6.4639,7.1836,20.9822,-9.255,6.2905,0.86641,7.3393,-42.7103,-8.8751,-23.2546,-79.4497,11.6047,10.3573,
10.8418,0.43184,13.2605,19.9642,1.1827,20.013,10.2144,6.658,-37.0142,-8.1016,-10.049,-75.4056,18.3802,14.3156,
14.0475,3.298,22.5875,18.7662,3.5217,22.7891,18.7604,5.2944,-20.6933,-6.6515,2.1231,-67.9892,21.1336,15.3846,
10.3126,3.1006,20.7508,21.0151,-2.9562,12.7451,10.8863,4.9767,-14.7517,-6.2524,-5.2347,-70.1762,17.9378,15.4259,
13.7912,-1.183,16.3723,17.1026,-0.60963,12.7033,8.5459,6.3654,-27.9666,-7.5644,-12.3926,-71.0273,17.1025,14.7413,
8.384,-1.8352,10.8102,13.4254,0.63201,15.5565,12.6124,7.6707,-33.399,-8.7978,-10.444,-63.6324,17.2812,13.6158,
9.0862,3.3366,10.8849,15.271,-2.5392,13.4179,7.2764,5.5232,-21.0309,-6.5827,-5.7198,-58.6094,17.9316,11.1117,
10.9512,5.5465,14.5702,19.6574,-0.45862,17.9154,3.9477,3.7455,-14.4664,-4.7415,-4.8944,-53.1644,17.82,11.4093,
6.6787,2.5626,12.9731,15.8268,-3.5644,19.974,5.88,3.7618,-20.1062,-8.0724,-10.6265,-51.6618,12.6534,10.4833,
12.0625,-1.448,12.1942,11.5023,-4.3148,16.8469,7.455,3.0541,-21.3104,-3.7317,-11.4354,-50.9726,15.2682,10.3362,
4.1084,-2.8071,8.0886,9.3664,-3.0916,12.4621,1.7055,0.46076,-17.6212,-1.0977,-12.1951,-47.4319,16.2808,9.7165,
4.8255,4.1098,7.1211,12.1786,-3.3885,16.5349,-1.2896,3.8073,-18.0104,-5.8523,-11.9458,-38.8016,15.7856,9.6152,
2.8488,-0.23418,3.5603,16.5096,-6.8002,17.7119,-5.7915,1.4097,-23.4372,-13.9368,-12.4341,-38.1605,8.813,2.0485,
1.2318,3.1546,5.7571,18.4113,1.3204,15.6851,-3.5156,2.2893,-22.5132,-9.7264,-10.2418,-38.7632,8.284,5.7822,
13.209,7.3036,12.6425,11.0396,7.9901,12.3339,4.8901,4.562,-22.1265,-3.8402,-9.6273,-39.3299,14.5358,12.6661,
10.4885,1.0806,8.5093,4.5929,3.6541,10.6297,4.5964,5.2524,-21.2808,-8.9126,-10.4959,-40.3443,15.1097,10.4596,
13.9568,1.7391,2.9377,0.21975,5.1223,6.8587,0.70544,9.0348,-18.7987,-8.6186,-10.5891,-38.1646,17.8188,11.5195,
13.8423,-1.0166,1.5562,-10.1573,2.1634,-0.54269,-3.9162,8.7337,-17.43,-2.0759,-12.605,-36.1157,16.0263,14.4437,
3.13,-2.6426,3.1502,-8.3428,-0.61752,6.4797,-6.3325,7.969,-8.9122,0.69994,-9.6794,-29.3693,10.9676,12.854,
8.2446,1.8543,6.8174,4.2091,4.7222,11.3936,-4.0246,6.0443,-5.0032,-4.1625,-3.7962,-22.7866,11.2736,8.7085,
5.5806,7.2867,3.757,4.6797,2.2695,4.2021,0.31445,5.4405,-16.0312,-5.5998,-9.594,-21.6606,11.8023,9.873,
3.318,3.9572,2.0858,-9.0985,-1.7229,0.093771,2.2242,4.6321,-24.7101,-4.7819,-17.6952,-25.6632,13.0223,9.763,
10.1081,-1.3419,7.504,-12.1682,5.3699,2.2571,1.3672,4.5954,-15.274,-6.1822,-11.572,-24.8467,15.3742,8.936,
7.0914,3.077,7.5356,-2.7611,5.5298,-0.77052,-0.16075,5.2834,-8.5728,-10.1497,-9.9137,-18.5353,12.5235,11.2923,
8.1125,6.7489,7.0838,7.5278,1.8239,1.204,-0.15122,4.9667,-12.8788,-7.1305,-11.7289,-15.4949,10.3262,10.6146,
-4.1848,3.2109,-2.2593,8.2814,-1.901,12.4597,-6.1677,2.0177,-15.2394,-7.4255,-16.0869,-13.8423,4.163,4.4341,
-4.4157,6.3923,-2.6061,1.9995,-2.7512,13.1584,-7.2439,3.3424,-6.1305,-7.9443,-15.1219,-5.299,3.4308,8.9884,
7.1775,2.8757,6.9507,-1.7359,-1.3809,8.2716,-2.7119,3.8652,-2.6292,-7.7086,-10.5989,-2.8117,9.7329,13.9931,
2.1673,-1.3946,1.9537,-0.42668,-3.4674,8.9803,-3.7543,0.98151,-16.21,-11.3437,-15.5068,-12.5254,7.4615,5.1996,
9.7499,7.366,2.3187,8.2759,-2.7773,2.1746,-0.6366,7.6714,-12.8272,-3.9143,-10.7199,-9.3634,13.2806,7.7795,
6.7548,6.4421,3.1439,6.8155,-6.4668,-7.5966,-0.11647,10.1036,2.0425,0.65912,0.046646,-3.0168,17.3045,13.0978,
4.4214,3.6454,-4.2754,-2.2704,-3.6686,5.3924,-0.10936,9.9795,15.2971,-3.2369,11.131,-5.2462,12.8919,9.9015,
1.7458,-7.6604,-16.0702,-16.2342,-4.8945,13.2638,-8.2977,-1.2244,0.2793,-17.022,1.3043,-9.2695,5.3697,-2.7435,
-1.2513,-3.3446,-6.4291,-14.6575,-1.7088,10.0576,-5.3895,2.2233,-13.8375,-11.1802,-7.9332,5.3866,12.2781,5.1337,
7.5007,5.533,1.6692,-4.1373,3.6962,0.29509,1.6825,8.3567,-9.8742,-1.3506,-7.4572,10.2451,14.9157,12.5382,
5.6044,0.3805,-5.6618,-4.371,-0.38175,4.134,0.13532,3.517,-5.4251,-6.572,-4.1175,9.6304,8.7185,7.4476,
-4.1319,-5.6679,-13.2759,-9.6524,-10.241,14.2498,-10.2367,1.1368,-9.197,-12.2034,-6.5218,14.5962,4.58,3.8677,
-0.75024,-5.0866,-12.2381,-8.3496,-8.4213,15.5642,-11.7919,6.13,-10.3324,-8.3377,-7.8175,21.1925,7.4385,8.6971,
0.98177,0.76197,-12.227,-4.7159,-3.8186,10.0509,-6.5048,7.4492,-2.2406,-1.8119,-6.1434,26.9106,5.7871,12.7548,
14.6613,9.152,-4.0214,-5.6381,0.025794,4.8684,-1.5351,13.5099,1.5091,8.1788,-1.6773,22.1623,9.5369,16.0865,
17.8787,9.808,-0.16494,-9.3974,-4.0733,1.9247,-4.5763,21.6171,-4.1253,10.8214,-1.8178,10.4685,15.4724,21.1471,
10.0576,9.7017,-5.9396,-6.423,-7.2032,9.5223,-6.2299,22.2487,-3.8775,2.4593,-1.7088,18.9994,16.4722,20.8426,
6.3207,1.1657,-12.573,-6.7608,-7.4942,12.0843,-8.9895,10.0672,-6.7782,-5.1602,-0.88323,29.6697,2.2276,9.2278,
6.1826,3.7472,-9.1674,-6.596,-3.911,9.19,-6.2808,11.6324,-9.0228,3.5855,1.8212,31.0229,-1.5213,13.2536,
15.4529,10.7531,-4.7606,-7.1642,-1.2661,8.6387,-5.9041,19.1295,-7.5172,9.155,0.26578,29.1616,12.0676,19.2071,
10.9101,5.5284,-3.2699,-4.5655,-4.3234,12.6999,-10.1294,12.4384,-1.0406,4.5084,-0.95523,28.1351,10.6205,12.0289,
4.953,4.7146,0.30037,0.5293,-3.1,8.0814,-5.6651,6.3896,2.8783,3.7558,-0.41587,26.4468,-1.5863,11.7892,
17.6709,7.8061,4.1388,2.4254,3.3527,-2.5267,0.94143,12.7547,-3.0793,2.0841,-3.7655,21.9676,3.3293,13.9741,
13.2366,9.2659,1.4799,5.1724,1.2233,3.8916,-1.5252,15.8458,-9.6432,-3.8255,-6.4318,23.5419,12.2885,6.8691,
4.2476,2.9253,-6.8037,-4.2971,-4.1526,9.4428,-7.2184,6.7003,-9.0645,-8.8985,-2.1894,25.0218,6.2489,0.67226,
8.8131,-1.1067,-9.2874,-12.2339,6.7015,4.5378,-2.4468,6.7803,2.5665,-1.6161,9.029,35.0897,6.356,8.3448,
10.2128,2.8163,-6.8017,-8.1256,15.9406,0.40915,0.59227,14.5684,4.3409,6.1939,8.4875,47.0843,7.9031,15.5571,
14.1792,-0.0039029,1.56,-4.9866,13.297,0.14352,1.7619,13.4532,-4.3556,3.653,-0.45774,47.7541,7.1878,12.9364,
4.8927,-7.9576,4.1175,-8.3029,8.8838,-0.58799,2.3791,8.0663,-5.2993,-3.5558,-1.6353,39.3452,5.5513,7.099,
7.4911,0.23271,7.2448,-3.9484,11.7251,1.8575,-0.17389,11.4391,8.034,-2.3785,9.068,41.8051,7.1463,7.1548,
15.7188,6.9674,13.559,3.0374,14.878,5.1203,-3.5377,15.573,21.0495,2.5849,17.6829,51.3481,13.9483,14.9207,
8.5092,3.6572,10.8174,-2.4474,13.5033,1.9209,-0.91518,15.1206,22.6787,2.4297,15.6577,52.1238,18.4142,16.9176,
6.3112,-3.5521,4.1426,-8.3263,11.9699,-6.6303,-0.13714,8.67,18.6667,-1.8134,11.585,40.5602,15.6219,4.5742,
4.4863,-2.8568,2.4477,-4.9342,12.698,-5.2683,-1.5752,8.1498,18.9929,0.70552,11.854,38.1266,10.8282,4.2997,
6.3867,0.93001,3.9881,-8.2536,11.213,-4.2291,-0.75753,13.6864,13.2738,1.8685,11.8657,45.7212,12.3477,11.9959,
7.9315,-4.9106,3.2667,-11.615,8.612,-3.9756,1.2161,8.5266,6.6926,-1.1361,8.2614,50.6907,14.0172,8.3834,
-1.2214,-7.9903,-2.2319,-5.1334,5.2029,2.0476,0.6611,0.78431,4.8451,-3.9602,3.4273,46.685,7.3917,1.614,
-0.42509,-7.2698,-5.2313,-5.5486,5.1318,5.0582,-2.5119,0.4964,-1.4712,-8.7841,6.355,41.2327,4.7787,1.7583,
-7.1485,-8.762,-8.2919,-11.4822,3.3776,7.1648,-4.7713,0.46616,-3.3114,-15.9701,8.8658,43.0971,5.9382,4.0629,
-8.6474,-4.862,-8.7584,-8.3833,3.1751,7.2169,-4.9671,-1.9721,3.6361,-17.904,4.4776,45.3318,2.6897,4.7829,
3.4406,-1.1956,-5.3404,-2.0952,8.2872,2.4456,-0.33077,1.5212,11.1309,-9.599,7.1014,47.4326,5.9028,6.9065,
-1.1043,-1.6059,-4.5381,-4.8622,8.754,-1.0755,-0.31081,4.3219,13.3552,-6.6128,8.6034,44.1046,6.0304,3.5999,
0.64919,-1.2686,0.31392,-2.8832,8.9519,3.0864,-1.0153,0.92952,12.313,-10.7955,7.3641,42.6634,2.5351,0.25044,
-0.11266,-0.46955,-0.42828,0.42327,5.2815,3.1422,-1.1953,-4.6699,3.1383,-12.317,3.3068,46.1292,-0.26807,-0.0055533,
-0.34721,1.7279,-3.0536,-4.6637,2.7953,1.7487,0.081331,-3.6667,0.29878,-10.8549,4.3136,39.2642,2.3992,-2.1743,
-0.80808,-6.5705,-4.3168,-10.6506,1.6635,2.6079,-0.88765,-7.7852,6.5476,-16.4704,7.4292,28.7134,1.2912,-6.3824,
-10.642,-10.2738,-7.1909,-1.0935,-0.60545,5.1025,-3.4855,-11.4155,5.9135,-18.6154,3.3681,39.2829,-5.7762,-2.384,
-6.1469,-2.4266,-3.8671,7.167,2.8051,3.3503,-1.8303,-7.3563,0.73825,-14.124,3.6479,51.0259,-3.5012,1.6152,
-4.0909,-3.4862,-2.9123,3.1215,4.3239,3.8723,-2.4435,-3.2996,9.6119,-13.0357,10.901,48.0847,0.3242,0.31334,
-7.461,-5.9282,-7.7989,-0.68134,-0.03277,6.2912,-4.9481,-4.3066,14.0968,-12.9766,10.0058,48.8152,-3.7927,-1.3928,
-1.4694,-3.8854,-6.6077,0.082782,0.21028,4.2266,-2.9641,-6.6994,-0.84905,-12.4389,2.8979,53.8401,-2.36,-1.5503,
-4.9969,0.44509,-5.4886,-1.6096,-0.043535,5.1781,-3.9913,-3.1642,-2.6059,-11.4518,1.5187,51.8148,-0.53138,2.1584,
-0.11766,-1.2687,-7.8102,-6.5742,-0.76394,5.5906,-4.4751,1.1231,11.6504,-5.7031,8.8995,50.393,-3.6324,4.6801,
2.0584,-8.1824,-11.921,-8.349,0.0049131,2.6038,-1.5552,-0.14966,23.3642,-3.6736,9.0886,51.4669,-7.5119,1.2657,
-2.8853,-6.2452,-13.134,-7.8481,-2.4055,1.9656,-0.97991,-1.5865,7.8623,-6.8276,5.169,48.3789,-4.1692,-0.25609,
2.3494,-5.1474,-7.7668,-8.5826,-2.0203,2.5707,-1.6441,-3.6606,7.7521,-8.5872,8.9561,47.6454,3.5527,2.4103,
-4.0585,-5.3206,-8.7469,-9.9957,0.9933,3.8626,-2.9916,-5.3695,13.0717,-9.0362,10.3471,51.5352,-0.51675,3.712,
-1.6454,-2.3502,-11.8372,-16.8679,1.6567,3.8719,-3.0532,-4.3241,8.6721,-8.253,10.9314,50.6124,-7.9577,-1.0901,
5.4427,-7.7526,-12.8142,-20.917,-0.61185,1.4704,-0.70086,0.032742,14.1773,-3.6602,14.3729,49.2629,-6.7568,-5.1221,
1.5011,-5.6005,-10.3582,-13.1546,2.558,0.17703,0.54637,6.5386,23.2087,4.9952,14.7157,53.2969,-0.80794,0.72877,
0.68752,-4.5413,-7.0857,-11.6421,6.9842,0.88943,-0.20943,0.12062,11.9342,1.0802,9.7353,47.4476,-1.4825,0.44396,
-8.9947,-8.6073,-11.9628,-17.6925,4.1548,0.83606,-0.19686,-10.0095,-1.3151,-11.5181,1.9203,36.4061,-9.1063,-7.7778,
-6.5266,-5.1984,-8.8346,-13.7387,1.0134,-0.1782,0.77905,-6.0347,2.1382,-12.755,0.35907,36.1499,-8.5602,-12.1312,
0.13152,-4.4045,-4.4486,-10.5042,-1.9399,-1.6138,2.1786,-2.2982,8.2764,-7.6514,4.1939,42.1758,-4.6721,-8.0293,
-10.7222,-10.6477,-12.135,-15.899,-7.3669,-0.31165,0.84256,-10.596,7.057,-12.2537,3.2194,45.1889,-8.4891,-7.7885,
-11.5253,-10.9732,-14.2997,-15.9097,-4.0328,2.5993,-2.1003,-14.7812,10.9719,-13.9289,2.5438,45.3699,-10.3901,-12.1417,
-14.4492,-6.2175,-12.2364,-7.4833,-0.17544,6.0588,-5.5897,-10.7608,21.6417,-7.5495,6.4888,49.6373,-10.4896,-9.726,
-14.0642,-8.2545,-13.4304,-3.1779,-2.575,6.1772,-5.7362,-13.4896,17.4509,-10.9529,5.6175,48.1053,-13.2347,-11.5525,
-10.5688,-15.7132,-10.9373,-9.0128,-6.5181,5.0837,-4.6692,-16.7776,4.1116,-19.2136,3.1111,36.3009,-14.6098,-16.8854,
-14.2732,-8.5037,-8.8351,-14.7383,-9.0191,4.7784,-4.3888,-10.9504,7.7213,-16.1326,6.781,29.3026,-12.2872,-11.5337,
-4.7402,-0.2807,-9.7512,-14.8183,-1.7293,2.0816,-1.7153,-8.8472,21.358,-6.9697,14.5689,37.1854,-1.909,-5.0571,
-8.5534,-9.6641,-14.2276,-12.7241,-0.42068,1.2336,-0.88928,-14.8245,27.4276,-6.3108,13.9355,49.0543,-4.9277,-6.9231,
-10.691,-12.2173,-12.1689,-11.2376,-6.9029,1.8827,-1.5591,-9.837,25.0591,-4.7268,8.5203,60.2111,-16.4424,-8.1947,
-4.506,-5.4587,-6.859,-11.2862,-5.2837,2.975,-2.6708,-3.7036,19.4582,-2.2741,5.8397,57.0803,-15.6968,-6.0158,
-17.01,-8.2647,-11.0272,-13.2606,-5.2079,4.9657,-4.6797,-13.3633,8.8904,-14.4299,-1.0184,44.2553,-17.8885,-12.1628,
-17.1945,-14.7584,-13.9808,-14.1524,-8.5108,4.4265,-2.7119,-21.4794,4.7416,-22,-2.6445,38.9489,-19.4665,-19.3865,
-7.4862,-6.1601,-11.6961,-12.3389,-7.9999,2.7147,-2.5488,-10.0677,16.0265,-7.1827,3.7809,42.8784,-11.5496,-13.885,
5.2555,8.3095,-4.4864,-9.9114,1.3981,-0.099291,2.1835,4.6364,29.1649,7.3483,16.8104,47.2958,1.4359,-0.27746,
10.2426,6.0034,-1.3249,-11.2449,5.1704,1.8349,7.3549,9.7813,36.2124,10.8845,24.4787,52.1706,5.2059,4.5597,
-4.472,-6.6491,-14.0199,-15.6316,-6.4678,6.7862,-1.0402,-4.9056,24.6396,-0.13267,9.2716,53.6199,-8.8448,-7.0421,
-6.9752,-2.6349,-14.8657,-11.5605,-9.6954,10.4766,-7.9674,-9.7934,20.028,-4.7045,-2.6131,50.6437,-15.3042,-11.1991,
-13.3052,-4.4048,-9.6354,-7.0105,-10.5594,8.4018,-9.4176,-13.0617,13.5239,-9.2424,-6.3125,42.7848,-19.6881,-13.9011,
-15.6406,-4.3817,-10.2624,-7.313,-8.721,6.2107,-7.1655,-11.0734,16.3276,-6.0368,1.0559,46.7252,-17.3018,-13.7907,
-0.60214,1.666,-8.2001,-14.1048,-1.4489,5.8378,0.4955,-3.1779,29.448,6.8589,15.0926,58.0217,-2.2842,-3.804,
-2.3735,-2.0494,-12.2881,-26.5149,-2.567,-0.055853,-1.2217,-2.2641,41.7811,7.6524,28.287,56.1071,-3.8341,-4.2989,
-0.062149,-1.6855,-6.9713,-22.2729,2.1663,1.1526,-2.3535,-1.4052,46.7461,5.9882,33.5797,40.9303,-2.8814,-8.1385,
1.8698,4.2003,2.606,-9.3674,6.3749,4.4579,6.9468,2.5355,38.1567,3.2186,25.7803,39.4386,6.4505,-8.1321,
-5.9552,4.4304,4.3778,-7.3591,3.1003,2.7441,10.8683,4.7935,30.5649,-2.277,14.5925,46.2313,-1.6493,-10.5363,
-3.4285,-5.2354,1.4638,-8.6045,2.1912,4.2665,6.601,-2.9657,18.3669,-3.3456,4.3167,48.5191,-13.3607,-15.9299,
-12.1411,-9.501,-7.5418,-8.8114,-4.4485,4.7336,-3.6772,-11.706,9.7928,-5.3143,0.44209,45.3668,-11.8359,-17.6254,
-7.5562,2.6382,-9.0175,-8.2827,-4.1816,7.8241,-3.4566,-8.1116,18.8462,-3.0672,9.0927,46.9831,-6.7874,-10.7833,
-5.8976,2.2392,-10.6456,-9.473,-1.761,12.4163,-1.562,-7.8654,26.6335,-2.642,10.7163,44.8875,-12.4057,-12.7874,
-13.4974,-2.9566,-9.284,-7.2174,-6.7171,12.3942,-3.1555,-13.419,24.7946,-7.0628,5.0121,41.4713,-15.2763,-16.5999,
-8.1083,-6.8768,-7.0397,-6.0614,-9.4475,6.1069,-3.689,-14.3016,22.1016,-9.7725,7.8444,43.5623,-11.2267,-13.4347,
-8.104,-5.9823,-10.9559,-7.1438,-8.3987,3.3302,-2.0217,-5.7305,26.5601,-0.027346,10.7479,45.7691,-11.5172,-7.8082,
-3.038,3.7769,-9.0932,-10.8125,-4.2792,4.8176,-0.21314,0.6389,27.1359,8.8924,11.3083,41.3357,-5.7645,-5.1701,
-0.20439,1.863,-3.9681,-10.4049,1.0393,8.6261,0.52278,-5.9067,19.4822,-0.55902,13.2812,38.1324,-4.6955,-7.9931,
-6.9408,-6.4434,-8.0686,-5.4421,0.49497,12.929,0.49164,-12.7834,15.4209,-11.6125,9.5925,36.809,-17.429,-13.7803,
-1.7041,-4.611,-9.5127,-5.1156,-2.4272,10.707,0.94362,-7.1961,19.7983,-6.0955,4.1957,32.1899,-17.3476,-14.3997,
-3.0477,0.4861,-7.9776,-5.773,-6.138,6.6902,-1.0407,0.46651,26.8051,4.8753,5.3903,30.2585,-7.6301,-1.9666,
1.4733,-0.50716,-6.0529,-5.4264,-6.2519,2.4326,-2.4248,3.3308,27.125,8.9214,15.19,32.7816,-1.3875,2.0076,
6.2056,-5.2972,-4.7259,-13.2959,-2.0204,-4.9442,-0.83303,2.1671,27.4255,10.314,21.5094,29.3684,0.14159,-2.4512,
1.7357,0.0823,-4.2011,-15.6312,7.0189,-2.9606,1.8683,3.2421,31.3238,8.9723,18.5319,25.4369,-2.5178,0.82914,
4.0417,-0.40503,-4.9134,-9.8729,12.3821,2.0378,2.2381,-2.737,22.2133,-2.1713,12.5992,17.6442,-6.2235,-3.077,
-1.9854,-2.7909,-2.2084,-3.4959,12.1211,1.9155,2.1038,-6.4291,20.8807,-3.9693,11.3609,18.0313,-6.814,-7.2307,
-8.615,-2.6234,1.2988,-3.2864,11.876,-0.60976,2.4598,-5.0793,25.4122,1.0894,11.1614,25.6268,-6.4054,-9.2072,
-8.8212,-12.3479,0.015763,-4.7762,12.3685,-3.2245,1.1071,-7.9078,29.4313,-2.5912,11.2148,26.7405,-7.7081,-11.788,
-14.7994,-18.1148,-5.5288,-6.6588,8.011,-9.0566,-4.021,-6.7104,36.1011,-3.641,13.1935,19.1101,-9.4147,-8.4297,
-5.7165,-13.1713,-0.37658,-11.5617,8.9768,-11.8874,-5.2258,-0.041061,32.0071,1.8803,14.3299,11.6972,-4.9932,-4.0673,
-5.1323,-13.1041,-0.59473,-15.9297,11.5715,-9.0048,-3.7072,2.6127,28.8816,-0.40164,14.6756,9.3083,-3.9705,-2.1362,
-10.368,-11.1126,-8.0308,-14.7327,10.6362,-10.1517,-5.172,0.76874,31.7285,-6.4031,12.5898,5.6164,-5.4195,-3.6948,
-4.2023,-3.4564,-2.9697,0.25128,13.1315,-4.9633,-3.6563,3.8561,25.7269,-0.95768,12.0753,4.0741,0.44927,-2.2683,
-13.1094,-4.6951,-2.3094,8.0695,10.4152,2.0832,-5.8473,-1.1958,14.0602,-2.8284,7.0123,2.3836,-3.4343,-7.9166,
-10.3947,-10.1982,-0.24307,-2.0557,8.826,0.029971,-2.6044,-4.9809,20.4474,-5.0691,9.966,3.2045,-9.4948,-10.816,
-11.458,-14.6477,-1.9155,-11.3326,-1.5853,-10.3359,-4.6171,-3.4769,23.8001,-2.1136,14.9114,5.1816,-10.6125,-6.5519,
-7.6372,-0.99441,-1.5594,0.19342,2.125,-3.2081,-3.6169,5.168,21.649,8.3773,19.5606,13.7885,0.87071,2.2772,
-8.625,-4.7914,-7.7325,1.1459,10.6744,-0.12329,-6.7746,-2.855,21.3141,0.64384,13.5665,8.6227,-2.0743,-6.0544,
-15.5796,-5.7089,-7.0274,-2.0561,10.2751,3.4993,-3.7168,-4.8531,27.9892,-5.9023,13.4756,6.9002,-7.4932,-8.3425,
-9.5833,-1.751,-4.4368,-3.1378,-1.6698,-2.736,-8.0733,-5.2851,22.2123,-4.3431,10.9796,5.7631,-9.6949,-9.5289,
-6.5978,-1.1638,-1.76,0.90686,-0.12336,-4.0181,-6.6246,-5.9318,19.9157,-1.6721,9.357,8.7918,-8.1489,-8.9572,
-10.0585,-0.612,-5.993,1.3346,5.1865,-3.7772,-2.8529,-4.6118,17.7567,-3.0181,6.3852,6.3358,-9.5884,-7.4557,
-2.4651,0.14785,-6.3568,3.4237,3.1885,0.54723,-4.3689,1.2085,20.7886,3.1886,11.5457,7.161,-5.8796,-4.3572,
-11.2353,-4.4405,-7.1802,0.56718,-1.1002,4.1298,-7.2398,1.377,25.0849,6.1307,16.3966,8.4185,-5.2859,-6.265,
-11.0431,-7.0666,-5.7855,-1.3955,4.75,-0.45676,-0.53893,-3.5264,26.9538,5.7627,21.1973,6.9491,-3.0405,-5.8891,
-7.7292,-6.8836,-8.0897,3.2677,5.67,0.29378,0.21654,-7.4119,23.6496,4.694,19.2024,10.1478,-5.5094,-5.2945,
-10.1577,-0.68554,-11.4605,5.0001,1.4737,12.3275,-3.6526,-4.5568,19.8207,3.4485,11.3016,10.9854,-11.9275,-4.4947,
-6.415,-4.2598,-11.0136,-9.3999,2.5908,11.3471,-3.1927,-5.9704,13.57,-3.2661,2.1876,-3.7737,-11.4526,-10.2508,
-8.4402,-1.5941,-9.3889,-12.3308,6.2913,8.2557,-0.59103,-6.5765,12.2734,-1.6241,1.092,-17.6473,-11.7298,-12.0463,
-1.1851,11.0346,-8.8258,-0.504,8.8061,20.7755,-2.0016,-5.7002,11.0549,0.88345,4.4011,-18.9993,-17.2927,-12.2876,
2.26,18.5674,-8.7786,5.7932,13.0984,33.629,1.0106,-8.2503,3.6427,-4.9544,-1.1656,-22.6798,-16.2552,-16.3706,
-0.76793,26.1302,-5.8411,9.7842,15.2048,45.7113,6.2528,-8.2374,1.4961,-6.1031,-6.8804,-24.2113,-14.3158,-16.8344,
7.9555,21.6706,-1.6345,6.3048,15.2566,49.9585,4.4316,-7.743,-3.896,-4.2907,-3.5753,-25.6507,-17.313,-14.8603,
5.309,17.2369,-1.2954,1.3468,16.5104,40.9354,6.3349,-6.0735,-7.2777,-3.792,-1.1912,-33.5116,-16.9976,-8.9074,
3.7849,19.8179,-3.3871,-1.3853,17.6891,35.346,8.6056,-7.3961,-1.7796,-6.2161,-1.3609,-37.0448,-13.3264,-7.6498,
9.8248,15.7367,-2.7015,-5.1581,13.7357,29.3689,3.7514,-6.9524,-4.5649,-4.3966,-3.2075,-33.3756,-12.5268,-9.1191,
8.9943,10.6952,3.4861,-9.4284,6.4037,22.5451,5.6955,-0.99161,-13.2091,-0.035474,-9.0406,-32.5781,-11.5342,-10.7411,
3.1518,5.2325,8.0975,-11.2731,7.9474,15.4075,14.5126,-7.1989,-4.2216,-3.4078,0.17875,-30.6237,-11.3243,-15.399,
-5.9549,3.7137,-0.34213,-3.6068,14.9424,14.7245,10.0264,-11.3462,10.1317,-2.9624,14.268,-20.3503,-14.2598,-12.3059,
0.18697,6.8654,-8.9982,-2.9085,9.7075,6.1283,-2.6263,-6.3271,5.7877,1.5539,-0.44709,-26.8421,-15.3324,-6.7469,
8.6114,11.0327,1.9055,-0.56479,3.5814,3.109,5.4846,0.55999,-4.9239,7.4862,-7.4101,-29.8111,-7.905,-3.6909,
-2.0282,9.8888,5.1656,4.7717,0.47449,9.6714,12.8687,-1.8837,5.013,4.6269,4.1217,-14.0429,-9.3589,-8.7721,
-2.3886,6.8851,0.51716,7.3777,-0.51808,11.5015,4.866,-7.0731,18.2098,0.97487,10.6231,-2.5953,-12.1716,-10.6557,
-5.8607,4.7848,-5.0575,6.6941,-3.1385,3.8215,-3.8621,-6.4078,19.2863,5.4959,6.8527,-6.5369,-9.7541,-5.4371,
-5.991,3.0517,-6.6822,1.4722,-4.8784,-4.1206,-5.5585,-1.2026,11.8626,9.9866,3.549,-11.9293,-6.2768,-5.1109,
3.2863,1.1814,-3.148,0.66074,-6.2727,-7.4885,-2.5737,1.5209,9.4634,9.6286,2.6129,-10.0085,-5.177,-8.9018,
-0.28536,4.4847,-1.5129,4.9594,-6.3787,-6.5577,0.47277,5.7675,16.6084,11.943,7.7588,-5.0696,-7.277,-6.4395,
-3.8834,1.0824,-4.5554,-0.88199,-7.2011,-6.8869,-3.1708,2.7706,23.0835,12.9136,13.801,-2.5961,-7.0811,-1.9555,
-7.2661,-3.5621,-6.4514,-2.0341,-8.456,-6.233,-3.7037,-2.4571,24.8322,10.934,13.2141,1.6571,-5.9331,0.33119,
-6.1067,0.26705,-7.2697,2.6677,-9.1539,-8.0282,-0.83036,-1.5868,21.1726,8.5905,6.8776,-0.61152,-7.7463,-3.7865,
0.2852,-0.95426,-3.2181,-1.1078,-6.9175,-9.7156,3.3168,0.19565,17.7331,13.6184,9.598,-5.6365,-4.6304,-6.2104,
-6.9627,-6.6814,-5.917,-13.5748,-12.287,-12.0252,2.1539,-1.7443,9.9207,17.1401,7.0939,-6.2622,-3.3883,-6.8021,
-2.9296,-5.0754,-9.6594,-13.4832,-12.7546,-12.0266,-2.0726,-2.8449,2.3356,11.5324,2.089,-1.3069,-3.9083,-5.6706,
-2.0307,-1.6376,-6.9109,-2.7921,-6.446,-9.6176,0.70304,-2.915,2.4366,7.2248,4.1331,2.8688,-6.3252,-2.1971,
-4.3194,-2.0215,-3.1218,-5.5171,-8.4698,-10.9692,4.5172,-1.2943,-2.5303,8.2374,4.367,-6.4623,-6.9095,0.34483,
-0.44459,-6.4795,-3.1752,-14.1039,-14.4689,-11.5161,2.0768,0.47085,-4.0655,11.8409,5.3101,-13.5464,-4.8079,-1.3629,
-4.2743,-5.1267,-6.3591,-8.4374,-10.2263,-8.8969,-2.3861,1.4065,8.2296,16.915,8.3659,1.2459,-5.0014,-2.7273,
0.80287,-3.855,-5.9776,-4.0748,-7.6845,-15.1115,-3.6892,0.35821,6.29,16.864,4.0076,3.5815,-1.3269,-2.0818,
2.6827,-8.4442,-3.2086,-10.5785,-17.8287,-18.0615,0.38876,0.81888,4.4661,14.8881,4.7312,-9.6488,1.645,0.93589,
-5.1911,-6.0093,-3.0165,-10.9081,-20.6156,-8.3007,5.6676,0.28736,18.2981,16.4049,18.5473,-3.7675,-5.6845,0.39734,
-0.058666,-0.34611,-1.871,-3.505,-5.2787,-0.089634,11.1128,-1.1759,23.8287,18.3134,25.0268,7.0639,-6.3075,0.37373,
-5.1171,-5.387,-8.2669,-10.2848,-19.062,-10.9307,-1.8467,-6.1668,8.2989,9.7425,9.4252,-7.46,-0.38569,0.11011,
5.795,3.1311,2.8346,-0.026484,-32.0182,-10.7571,-7.0383,3.362,7.6803,17.3529,15.4879,-13.3996,9.7606,5.8879,
2.3143,2.2201,1.9412,10.3394,-24.6738,-3.1218,-4.9288,2.9193,21.3195,20.4091,26.8507,0.17885,-2.1533,0.9553,
-5.7785,3.7742,-4.2006,6.1034,-9.0934,5.5014,4.2848,5.8774,34.1403,20.3896,31.2654,7.1578,-4.6754,7.8876,
1.5578,0.41445,-7.0823,-8.3628,1.9366,-8.9286,0.41251,7.6942,26.3073,19.4074,32.0408,-7.3717,7.4155,11.03,
5.8029,0.87152,-0.87251,-18.1044,-9.7488,-22.4929,-3.9508,14.4631,24.7291,25.9555,33.975,-21.0294,18.54,12.7786,
7.3827,2.7474,3.5184,-15.0902,-0.9689,-31.7484,-3.714,12.1493,24.6914,23.916,28.5618,-30.3729,10.1965,9.1191,
6.2168,-3.9249,1.6201,-20.6922,5.5969,-36.351,-1.8039,4.4309,16.22,16.456,18.8943,-42.6506,-0.29723,3.0288,
2.2284,-3.9306,1.7638,-24.5124,-5.5851,-42.1241,-1.9366,2.4774,11.1495,12.3351,12.2171,-54.1915,4.7823,0.67746,
4.5051,-6.1049,5.9965,-26.8978,-14.4088,-42.0068,-4.2308,-5.3838,19.6393,8.2203,14.8583,-65.04,8.3515,-7.0757,
-3.2371,-10.8003,4.4315,-26.0073,-7.5188,-47.9223,-4.2179,-6.748,21.5944,11.3425,17.1002,-75.2376,2.3068,-6.4102,
-2.0787,-7.7419,2.7195,-25.8929,3.5374,-53.7238,-3.0007,4.2619,6.8012,18.375,10.2894,-84.8234,8.9175,1.6874,
-0.99014,-8.7237,3.0383,-28.1957,1.397,-47.6081,-6.1952,4.9701,20.4931,19.2007,16.421,-93.834,11.7565,2.0681,
-5.2693,-10.6106,1.8919,-29.3963,-0.61502,-43.3056,-3.895,-0.63053,33.3635,19.0127,27.487,-93.0244,-1.0002,1.4618,
0.83168,-13.348,2.7425,-33.4171,-5.8805,-52.7584,-6.0717,-1.0744,17.2617,16.9079,14.2689,-101.543,6.7728,1.3744,
-8.3773,-9.1729,11.737,-27.0735,-15.6508,-48.1466,-18.7226,0.91826,2.126,15.8934,11.4841,-109.5504,17.936,-0.6363,
-11.0079,3.6696,22.8427,-11.3491,-0.61178,-31.1578,-21.2151,0.13957,16.0985,18.0731,24.895,-88.8774,4.0847,3.0166,
-6.491,-2.3349,9.9034,-14.886,13.5249,-24.3474,-29.1008,-3.2428,29.2325,13.1323,35.0914,-77.3982,-9.1753,2.8361,
-8.9941,-5.0874,0.63209,-28.0928,21.3903,-33.0099,-41.4547,1.772,18.3198,15.2364,18.886,-86.8543,1.0162,1.7016,
-8.6952,2.2077,14.6942,-23.6357,16.9736,-18.7368,-43.9086,-1.4676,28.5486,14.5634,19.5601,-95.2614,10.3554,-3.462,
-16.1274,6.1726,17.5486,-20.0481,30.0552,-13.033,-42.9611,-4.5128,39.6103,10.0744,19.1096,-89.7864,3.2264,-5.9056,
-18.0521,4.8382,13.603,-32.9452,34.6391,-26.3511,-52.9169,1.5428,23.1337,10.916,3.863,-98.4992,-2.752,-6.9973,
-7.3277,1.6556,26.8868,-42.4174,27.7403,-32.3623,-43.9571,-0.96011,8.3686,10.7432,3.27,-90.5406,4.1618,-7.0596,
-17.4934,3.4847,29.0095,-27.8211,40.1759,-16.3206,-36.0173,-6.2051,21.9665,8.6523,17.1738,-71.0082,3.4302,-4.7078,
-27.531,5.2033,15.2178,-27.5981,51.8653,-7.2671,-47.9562,-3.4227,34.7485,8.6151,17.9509,-55.2992,-3.0426,-5.3892,
-30.9406,6.0967,28.4048,-24.7369,62.8534,-1.7692,-59.1789,-1.5299,46.7636,8.3394,17.5969,-46.4374,-2.1365,-5.3071,
-28.843,8.8641,40.8005,-20.1194,73.1822,7.2544,-55.3872,-3.1256,44.0785,7.5979,18.2281,-29.5512,-0.3213,-4.7474,
-27.8357,6.1627,40.2806,-33.0123,82.8913,-0.17077,-57.1256,-2.2151,32.9976,6.901,4.8419,-27.8988,-3.4355,-4.2216,
-40.2656,4.829,42.6845,-45.1315,92.0178,-4.0165,-67.7981,-2.0818,18.4847,6.005,-3.1609,-38.7582,0.14508,-3.4864,
-37.006,8.1545,54.2234,-36.3981,93.4864,3.6961,-74.4557,-2.68,31.1138,7.3317,4.5003,-31.8534,7.608,-4.9642,
-31.8932,6.7016,57.8392,-39.0344,101.9772,-1.3461,-61.3113,1.8194,37.9243,7.374,4.7125,-22.2289,1.8491,-5.1485,
-34.5591,10.3966,67.625,-50.7924,108.5123,-6.809,-59.3198,7.2536,30.5869,5.2446,-1.5961,-16.3159,-2.359,-3.1526,
-29.5935,17.968,77.6675,-44.9733,113.0888,7.6996,-59.1351,2.962,42.8517,3.9656,6.2125,-4.25,8.3874,-1.9991,
-37.2179,20.5049,87.1075,-29.5006,102.2061,21.3376,-62.0947,-1.7955,48.596,3.0047,12.3477,3.4768,9.0894,-1.1563,
-35.9489,20.2387,92.968,-35.4434,83.54,18.1291,-59.8153,2.1689,33.147,2.8242,8.7141,2.3041,2.7592,-1.0867,
-33.5505,20.2299,92.4518,-41.7524,79.7331,11.498,-46.8259,3.2443,35.2557,3.3779,5.5403,9.6379,10.0657,-1.7446,
-39.7327,20.4621,79.6737,-41.1757,80.2516,13.218,-45.4628,1.1212,43.2631,3.1754,6.654,17.7365,10.4259,-1.6402,
-37.1077,16.1011,66.9397,-45.2127,74.2314,15.0763,-54.5452,2.259,32.7138,2.7437,12.2805,14.021,-0.081839,-1.3006,
-42.1119,13.689,61.4773,-37.6794,74.1161,23.8129,-53.2007,2.1237,33.1613,0.1692,15.4003,22.3388,-1.523,-2.1866,
-33.0777,16.0009,59.9576,-29.3931,83.7691,20.6971,-45.9113,3.6832,35.7507,2.8099,7.9681,31.3625,6.04,-1.3323,
-25.3082,7.81,58.7707,-41.7295,85.13,5.3553,-50.8694,1.5341,19.5056,4.0876,-3.1148,17.9116,1.8212,-2.6986,
-28.8514,9.9928,59.3416,-35.972,90.8682,5.8774,-42.7558,1.2008,18.6972,3.1192,4.5436,18.5239,2.917,-1.8136,
-27.1203,13.2494,51.9245,-19.7137,99.5161,19.6247,-26.0904,2.0929,30.1086,2.4499,8.6096,31.5125,13.829,-2.1869,
-27.1801,10.7674,44.23,-6.3588,107.6451,17.6036,-26.3325,3.6547,23.7226,2.5441,3.9954,33.5988,7.9382,-1.3326,
-17.8365,11.5676,50.7352,-8.8696,93.4737,13.6553,-33.9116,2.9531,18.9248,1.4271,12.4328,32.547,-1.6971,-0.28829,
-18.2126,8.463,47.2087,-7.3735,91.2397,19.1025,-28.9846,-2.5268,25.984,-2.9968,19.8815,35.8966,-1.1133,-3.1635,
-25.5555,5.7863,30.2762,-10.0642,84.0783,15.3051,-19.2915,-0.20577,21.2922,1.7625,6.8787,36.3944,-1.2877,-0.32238,
-15.5863,-0.1043,19.9037,-20.3066,64.9336,0.28675,-23.6777,-0.43416,5.9146,2.8618,-2.4518,30.1131,-4.8256,-1.5081,
-13.2051,1.3478,27.868,-9.9291,51.7581,3.5235,-20.3288,1.0377,13.1521,1.2438,11.7953,36.0191,0.28415,0.028647,
-11.6899,4.8821,32.2217,0.54831,55.6422,7.4092,-10.6734,1.6986,18.3883,1.4104,16.5102,38.9194,0.99023,-0.21427,
-6.6499,-1.6774,24.5038,-11.0538,43.1447,0.69816,-11.4793,-1.7778,4.7515,2.772,2.9861,34.1739,-4.3718,-1.6477,
-12.9996,-0.13045,14.8384,-15.6929,33.8075,2.1025,-10.3083,-3.1169,3.5025,1.6414,1.8431,35.4979,-5.0734,-0.58449,
-6.1939,2.0465,11.779,-9.2078,34.4302,6.0737,-6.0744,-0.76076,9.3179,-0.14432,8.7224,34.5733,-2.1179,1.1378,
-5.8222,-6.2712,6.2518,-10.1015,18.2644,1.3708,-9.5663,-0.23295,0.5639,1.3108,-1.9241,23.8218,-3.4368,-0.37695,
-4.7498,-0.35131,7.0819,-1.5415,4.9969,1.5299,-2.9666,0.021991,0.77149,3.4013,-5.4241,25.0441,-1.5434,-2.5235,
2.7656,6.4184,10.5132,12.651,6.1431,4.33,6.8522,-0.46149,-0.23935,2.7151,3.5783,33.6641,-1.933,-1.8899,
-3.6668,0.73092,5.0619,11.7715,-5.7948,5.5167,2.5849,-2.3622,-9.8657,2.07,-0.010662,35.9828,-10.4939,-1.2944,
-0.072608,-0.75919,4.2763,14.4392,-6.8934,11.4517,6.2859,-1.2566,-0.11521,3.3921,-0.49241,41.0544,-6.4902,-2.663,
1.8599,5.5531,4.9838,26.1063,-0.21305,13.6574,14.1037,3.1573,4.7122,2.2245,5.8039,43.8938,1.1302,-5.8779,
6.0869,11.4867,1.7925,25.9862,-9.3591,9.4637,12.7756,7.7888,-3.2831,3.537,4.9735,37.886,-3.7581,-2.6324,
10.5422,-0.7717,-7.956,10.327,-22.8975,0.70071,7.6705,-0.39128,-0.19359,2.8429,-0.14518,33.6846,-10.7634,-0.5463,
3.4019,-6.2692,-13.9864,5.7303,-28.3931,4.2739,12.7539,-3.9834,13.5561,1.9492,3.4787,44.9199,-7.9482,-1.2367,
7.7776,0.13246,-7.6036,13.8226,-15.8432,10.5254,22.3527,-0.12902,2.3789,3.0375,4.9572,48.2505,-5.7841,-5.7422,
8.0338,2.2939,-5.4604,21.4292,-23.3285,12.5452,20.7706,3.4944,-8.1279,5.9885,-2.8118,41.7401,-10.0166,-6.6027,
6.5879,5.0486,-11.399,19.6615,-31.5696,8.9002,14.7039,6.6589,-0.89159,7.0752,-10.3561,38.2716,-6.5233,-3.7962,
13.6642,0.64852,-11.4382,10.0457,-26.5421,-5.7338,20.8115,0.71555,-8.7921,5.4457,-10.4578,36.6984,2.304,-4.7735,
11.3981,0.12745,-10.2702,14.7456,-20.6115,-18.5255,32.578,-2.2197,-11.6388,7.5293,0.29275,47.5117,0.23736,-5.9331,
14.0889,9.2788,-12.0641,27.9608,-21.7849,-3.314,35.926,-2.0865,-2.7457,1.7749,5.0959,53.8202,-9.8998,-8.9516,
18.546,21.7373,-7.4841,40.3832,-21.4419,10.9849,39.5548,1.4129,0.79324,-1.2239,-0.99466,53.9653,-14.1263,-3.1121,
13.3356,24.5306,-9.204,42.2987,-29.5557,24.4258,35.4945,-1.8051,-13.3544,-5.73,-13.2273,45.1835,-19.3045,-3.6485,
19.0437,30.0484,-9.8568,53.0174,-36.6997,37.0602,26.3752,-1.4556,-15.3244,-6.5913,-5.9259,39.3397,-18.8689,-6.5624,
10.6702,30.1737,-19.3883,56.5848,-48.5977,48.9366,12.2594,0.55992,-7.1741,-11.016,-6.5342,38.4251,-24.0037,-8.0973,
10.9936,26.9168,-25.4561,43.5485,-59.7819,60.1004,11.5236,-0.43777,-5.2981,-6.4989,-13.8552,45.7603,-23.5276,-6.1654,
7.9241,18.0712,-24.8928,32.2588,-69.4518,70.5944,12.7606,-4.7501,-4.0157,-1.7704,-13.0236,47.3537,-25.4902,-7.7235,
4.074,20.3616,-20.9889,42.3746,-72.5153,80.4587,10.5487,-2.5366,0.081421,-3.5926,-10.7962,47.4048,-29.7456,-8.7061,
8.1683,19.1399,-21.1758,51.4012,-72.5027,89.7312,6.5416,-4.3126,-7.6362,-8.1973,-20.7537,47.4526,-33.7454,-15.4146,
0.20619,15.3402,-23.5205,52.8967,-74.6602,98.4473,10.2464,-8.6334,-14.6496,-9.3929,-25.0519,43.4003,-34.372,-17.141,
0.67598,14.4196,-23.5557,50.205,-78.858,93.0224,13.4878,-8.5975,-12.3246,-4.9727,-19.6926,42.2424,-31.3456,-11.2921,
5.4557,9.698,-25.0345,43.3364,-77.5005,73.4613,10.2684,-2.779,-7.7288,-0.818,-16.1009,50.795,-27.0547,-9.1683,
4.6466,6.7058,-25.4608,37.362,-75.2608,61.3411,12.0627,6.5465,-9.6754,1.6414,-8.8681,51.604,-23.0211,-3.3158,
11.8394,7.9909,-20.3175,35.361,-75.8071,52.5987,16.8823,6.8768,-9.3361,7.5683,-0.38207,46.8203,-17.5422,3.3909,
1.0061,5.5832,-27.2936,33.7212,-83.7917,44.6226,11.531,-2.6948,-12.1499,3.2578,-10.0001,50.2776,-20.3461,-2.5971,
3.8381,8.1405,-27.102,32.1801,-82.6203,42.9093,16.1418,1.8054,-11.4207,0.17003,-9.8823,52.0818,-18.6432,-1.9591,
12.7668,0.90318,-21.6195,26.8749,-81.038,34.0682,23.8502,4.5892,-0.1306,6.9087,2.2798,55.7054,-14.1506,0.086136,
4.2878,-3.9715,-29.9631,21.8882,-81.4777,19.4909,21.4551,1.9039,13.9772,14.6891,11.3023,65.8606,-8.963,-2.3289,
13.9127,4.2208,-30.3347,24.6725,-71.5276,11.8137,24.2653,7.3335,26.2747,22.7256,24.7242,47.809,2.4213,5.7648,
16.4522,2.5215,-26.5867,24.6381,-73.5029,5.802,26.6656,7.8572,23.7337,21.8443,28.1817,30.8405,-0.61675,9.757,
17.6344,2.129,-18.4837,27.2574,-76.0824,11.4797,31.5734,11.9652,26.4073,20.7743,23.8395,14.89,-0.82048,7.9665,
16.8173,-1.1318,-20.0258,29.7193,-74.6507,16.8164,31.8486,10.0425,19.7616,13.5023,21.2043,-0.10336,3.808,3.3912,
3.757,-4.9205,-32.9243,31.3104,-77.8846,15.8077,23.6705,0.76262,4.4759,8.3536,9.3265,-14.1972,-6.0616,-0.18654,
10.0393,-1.9739,-38.7823,28.7086,-77.7911,12.2079,21.0452,2.8862,-1.6979,12.4319,2.2592,-27.4453,-12.6876,0.54778,
11.6063,-3.5429,-36.6961,22.889,-78.667,4.4858,27.7364,9.2208,3.9473,17.7118,7.6675,-39.8986,-6.8644,4.612,
8.0174,-7.6687,-38.3507,20.0694,-76.8393,2.7704,34.2674,8.6675,14.3158,22.9156,10.0995,-51.6047,-4.5244,5.7816,
14.285,-8.1727,-37.9781,19.3474,-73.6752,4.5321,31.2468,7.6653,13.939,21.5409,9.4937,-62.6084,-5.6994,4.9525,
8.3665,-2.6209,-41.2433,17.9454,-76.7265,-2.7295,25.7568,6.4823,0.32797,13.7407,8.6829,-57.7673,-3.188,4.8966,
9.0695,-2.7048,-40.4557,18.0737,-71.4,-4.2531,29.7548,2.4781,-2.825,14.1214,11.2952,-45.3835,2.5466,3.3977,
8.5254,-10.2553,-38.5102,16.5073,-68.0801,7.0893,31.8259,1.8475,6.5036,15.6842,12.0638,-36.3937,-0.98063,3.6758,
4.3987,-6.9886,-42.2254,14.3118,-70.9849,6.4232,27.7474,5.8338,6.8365,12.0918,13.0269,-33.4869,-7.9114,4.6603,
12.3297,-1.2664,-44.9943,19.2379,-60.4589,-0.71089,34.7594,9.8228,6.9085,14.741,19.4764,-24.7288,-1.6519,6.791,
7.0102,-7.216,-51.2127,15.914,-55.1443,-1.8735,34.3611,6.5819,9.6274,15.0614,14.6924,-19.6299,-2.2757,6.6245,
14.7847,-4.8549,-39.9448,13.031,-54.728,2.5777,34.2276,9.0795,12.4242,20.9066,13.8108,-12.1854,2.1991,12.0121,
9.7998,-8.6614,-34.897,12.0082,-60.8445,-8.4233,30.9687,2.9906,3.7246,16.5187,7.9205,-18.9263,-2.9945,6.7116,
7.2839,-5.2494,-33.2853,17.5544,-57.6758,-15.1489,30.0746,0.88322,0.60882,11.189,5.0349,-22.1293,-7.6353,3.4166,
14.8006,-2.7653,-30.0829,18.6703,-52.0461,-11.1065,27.0649,0.58926,2.7415,11.723,4.9738,-13.8116,-4.0439,2.0064,
4.0306,-5.7324,-28.5189,21.1655,-50.6105,-2.0044,28.5745,-1.1333,5.2281,10.7786,5.8807,-0.20848,-6.4526,0.19875,
0.17312,-13.3424,-29.4591,22.065,-50.7069,-7.9095,29.5113,-4.6805,-2.5572,1.2141,1.9126,-2.8473,-14.5011,-4.8746,
4.5015,-15.4342,-27.2096,18.8124,-47.1826,-15.6301,27.2587,-1.0257,-2.8857,3.0694,-2.0585,-8.9432,-12.667,-2.654,
2.5442,-9.4467,-23.4079,16.9608,-45.0747,-12.5227,22.4897,3.6156,5.7231,12.2853,-2.1764,-4.309,-9.2556,2.567,
5.2838,-10.3259,-21.5213,17.8716,-43.3341,-14.1817,21.6225,-0.93988,0.5597,11.066,0.36497,1.7343,-12.0745,0.0025857,
-2.264,-15.9731,-21.6762,17.2812,-45.0729,-25.3823,21.7714,-4.7399,-13.5739,1.243,-11.7085,1.1479,-15.6888,-9.6385,
-3.8154,-17.1839,-18.6884,12.6289,-47.9119,-32.2951,18.7779,-6.6246,-25.4136,-3.8928,-25.106,-4.9463,-16.4345,-11.7113,
-4.3096,-16.3938,-18.2903,8.7379,-45.7603,-25.2959,19.8201,-12.7349,-16.4173,-2.9366,-15.2844,-0.070248,-18.0997,-8.8397,
-5.2561,-10.3487,-18.8798,10.865,-38.9173,-19.1986,24.1748,-10.2838,-8.4421,-3.4835,-4.4852,10.7802,-17.7369,-9.5144,
0.84406,-14.0663,-19.1931,7.8027,-37.0642,-24.7954,23.2064,-8.2207,-18.5407,-7.1306,-11.4467,4.3486,-13.2982,-15.2103,
-2.3403,-15.8737,-18.7646,7.5757,-35.0816,-20.6563,29.7676,-7.0044,-10.4386,-4.5339,-7.1447,9.1494,-6.9569,-12.6107,
-1.9587,-8.8955,-17.398,7.8443,-31.2894,-12.9092,34.9716,-6.8248,-0.41248,-4.9845,4.6124,22.7004,-5.3342,-8.7203,
2.2564,-9.0849,-16.1129,2.3118,-26.7607,-10.4477,32.6321,-6.6565,-8.8236,-5.4086,1.6843,31.3408,-1.8809,-6.5101,
5.4955,-7.5757,-19.9669,0.72726,-20.3346,-6.9283,33.0843,3.3838,-7.8123,6.967,1.5833,35.2449,2.5705,4.0034,
12.3964,-6.639,-22.625,2.1297,-20.5606,-10.8512,30.1356,5.5911,0.85185,10.8876,10.1651,37.9512,-0.95797,2.3172,
3.9398,-8.651,-20.7856,4.412,-27.0397,-17.9129,25.435,-0.046967,3.2109,8.788,10.0372,40.4944,-0.41856,-0.23197,
6.1136,-3.3115,-20.5028,-1.6373,-25.4176,-19.2487,27.7653,4.2942,4.464,15.0092,7.5067,40.9568,6.355,5.5665,
14.6648,1.4667,-22.8878,-3.7082,-19.313,-14.9603,29.2324,10.0621,7.3297,12.9038,12.1176,40.6685,3.8045,7.4017,
1.9746,-2.7186,-31.8784,-0.83464,-24.6617,-17.1957,20.971,5.8434,-0.099536,5.1402,9.2218,37.5055,-3.8953,4.3065,
2.82,-6.4121,-33.8223,-8.9795,-23.1822,-20.0206,20.6768,0.1899,-5.3964,8.6879,4.8119,39.5937,-0.76953,3.5659,
-1.6876,-14.7043,-41.4339,-22.5407,-20.8272,-21.2295,18.9542,-4.6417,-10.8572,4.7922,-2.2257,40.5926,-3.1335,-0.022464,
-1.8273,-10.2066,-40.1532,-17.4524,-17.8903,-17.3044,17.5758,-1.23,-7.0725,1.8533,0.55913,40.8083,-3.6686,-2.6724,
1.898,-5.4966,-36.0565,-5.559,-22.8425,-19.8815,10.0138,-0.91522,-1.5865,-1.8728,3.1771,37.1545,-6.5815,-5.1632,
-3.5187,-4.6849,-38.7139,-5.7074,-21.9541,-18.2067,9.8949,-2.3066,-1.9733,-1.2785,2.5046,40.2279,-8.115,-2.9252,
3.9234,-7.778,-36.873,-10.1852,-10.5135,-14.2218,18.9422,-3.132,-0.4086,1.2083,8.6208,45.527,2.9771,-2.2678,
6.0982,-9.7217,-34.6608,-7.6463,-15.6677,-16.7429,15.8774,-1.4983,3.9538,0.1715,9.5494,45.2055,2.3161,-0.2035,
0.18866,-3.1126,-32.8219,-4.0538,-24.1274,-16.4615,7.4532,0.76097,-0.86251,0.88434,2.9511,49.4833,-9.1508,0.53184,
-1.5101,-7.0234,-32.0579,-6.4622,-12.3159,-13.7866,9.1747,0.47435,-6.8368,8.785,3.015,56.8782,-4.9866,-1.1873,
-4.7935,-12.3866,-33.5086,-12.3409,0.47461,-16.3338,12.963,2.8565,3.6968,14.043,9.1011,59.25,1.5796,2.2584,
6.3401,-7.0639,-27.8829,-13.7699,-0.75916,-21.3793,15.3187,2.9261,5.1622,12.959,8.7955,56.4179,0.27953,8.1484,
11.9855,5.6525,-17.7738,1.1563,-3.3647,-19.8556,19.9432,3.9558,0.2732,15.3149,6.0991,54.2382,1.4681,7.4186,
5.2406,7.4822,-19.3589,7.7151,-6.2963,-19.8693,14.1671,2.5129,2.4257,8.3702,4.5276,46.4044,-4.646,-2.4268,
13.8438,1.9716,-16.9923,3.1549,2.9993,-14.5798,17.414,7.4234,7.3414,8.109,13.174,50.1276,2.6224,4.2268,
9.639,3.2997,-18.3828,-1.855,5.7118,-18.5256,19.262,7.9426,2.563,9.551,9.4914,50.9766,6.8037,8.7938,
11.7121,9.1274,-19.9311,-1.5026,4.646,-26.814,13.5269,5.7787,5.0602,12.1113,3.8601,45.2668,2.2982,6.5788,
12.4557,3.2771,-17.2892,0.51571,7.7417,-17.0104,12.2329,3.9857,6.2028,12.3485,7.9668,53.1557,0.23191,4.7378,
2.0669,-3.1863,-15.7699,0.48477,3.9028,-7.3127,11.4989,0.85408,-8.2694,4.8587,2.1862,60.0897,-3.1565,-0.36672,
7.9689,0.62032,-12.1724,4.553,3.4276,-10.9713,12.0143,2.0081,-8.8578,7.2187,-2.0423,52.3865,-3.69,1.8244,
1.465,-0.1398,-17.9495,4.5211,6.3555,-17.3027,7.1958,0.20064,4.9303,12.3294,-1.6786,49.0026,-10.4582,2.92,
2.1,0.59149,-14.2214,6.9009,16.338,-12.1672,9.8976,-0.052361,11.142,15.2046,4.4477,60.1624,-6.2155,0.093747,
2.9383,-5.2286,-12.4041,3.5948,15.3577,-8.5451,12.6782,-3.4237,2.2787,8.0258,3.6989,55.7091,-1.986,-4.7326,
-0.13028,-1.5402,-15.034,-0.47708,11.5442,-7.5502,10.9534,0.15643,-5.0886,5.1344,-1.3436,43.2077,-2.3488,3.7463,
5.4212,6.506,-10.5166,3.1665,12.5385,-10.2302,10.5371,0.86994,-6.9529,3.621,-3.914,40.3743,-2.931,3.2806,
-3.3398,-2.8025,-12.5369,4.6637,2.3865,-8.4116,5.3256,-10.0285,-13.0432,-6.9606,-8.2589,40.121,-16.0115,-10.1727,
-5.0678,-9.8651,-18.0514,2.9379,-4.9876,-4.0503,-1.2607,-13.2834,-21.9018,-12.8097,-12.5839,37.2316,-21.3175,-14.3828,
1.2618,-4.6937,-14.317,3.4845,1.3372,-6.9407,3.8762,-5.0146,-17.4542,-6.0155,-13.0341,35.7206,-11.6028,-8.4586,
1.9092,1.6137,-9.8426,3.5166,7.2825,-6.7655,12.5619,-1.0981,-9.8993,-2.5209,-12.4928,33.8185,-8.2551,-5.2993,
3.4819,-0.65253,-9.0111,2.1004,6.6046,-5.1543,9.6386,-9.4683,-21.1154,-9.3595,-13.4305,32.0304,-11.8574,-9.0792,
-5.6451,-2.3008,-9.1938,7.5179,5.0031,-6.5322,8.3369,-9.1412,-28.767,-8.557,-12.3837,36.616,-8.977,-11.186,
-1.2086,0.0068321,-9.8467,4.8977,7.3544,-7.8275,12.8988,0.32534,-21.015,-2.0176,-6.0971,38.035,-6.2688,-9.3093,
11.397,1.4525,-9.2562,1.2294,15.59,-5.4297,12.6068,4.1622,-9.1493,0.031234,-2.3568,39.6092,-5.8926,0.40808,
0.10786,0.88314,-11.1111,4.5301,12.2443,-7.0321,8.9579,-1.8721,-7.636,-4.309,-9.9281,39.6428,-7.4675,3.2761,
-2.7909,-2.0621,-8.5163,7.1506,9.0993,-6.128,13.7229,-7.5446,-11.0344,-5.4969,-7.8864,42.0847,-8.4657,-5.5978,
-5.2748,-6.9999,-12.5848,1.1777,9.2764,-2.1451,11.2125,-10.7071,-13.5056,-7.818,-5.7262,44.6211,-14.9474,-11.7692,
-3.994,-3.6873,-15.2037,0.14316,10.1663,-2.4984,6.2014,-8.1365,-13.6592,-8.7951,-14.5412,43.3901,-13.0862,-7.6886,
-0.1389,-6.1174,-12.6045,1.8218,8.833,-4.0357,6.0703,-4.9972,-12.5986,-4.1701,-14.3921,41.5096,-4.3471,-4.5762,
-1.5768,-4.7865,-14.7408,-0.2157,9.749,-1.8653,4.2598,-1.8053,-2.2018,2.3466,-0.99557,46.7318,-3.6046,0.036736,
9.605,-0.16078,-13.3741,-6.4697,13.5027,0.17477,2.558,-2.1789,-3.034,1.242,-0.45345,41.0358,-4.8343,0.51647,
6.8593,-1.8384,-8.9563,-3.9122,11.9694,3.2975,7.4664,-4.2171,-16.9519,-3.4121,-6.452,33.9942,-0.92884,-2.1654,
-0.78285,-3.1741,-11.7931,2.1074,9.323,-3.649,9.4288,-6.3744,-20.3934,-4.6534,-2.6902,39.1851,-4.2476,-2.5176,
9.1461,-0.33232,-8.4342,2.2219,12.379,-9.9375,15.3705,-2.8585,-5.0698,4.0615,7.8351,46.7164,-4.7156,2.2127,
10.2845,4.7493,-0.93852,0.40136,14.2879,-7.1721,20.9562,7.6773,9.3344,11.772,10.9804,46.5645,5.4495,4.7315,
9.4262,-0.1154,-4.4976,0.61848,12.7072,-9.3931,13.6731,5.0473,3.9538,6.4862,7.6702,39.6731,5.8454,-1.5782,
5.7276,-2.7598,-11.2176,3.7144,14.1142,-4.2502,11.6474,-0.79914,6.3677,1.9992,6.9691,43.3182,-4.8694,-1.2425,
-7.3905,-0.90722,-18.9805,2.7686,7.2416,-1.3437,6.3688,-7.2591,-4.8606,-7.5208,-4.7773,43.8526,-15.9057,-7.6759,
-3.5728,1.0756,-14.4672,6.9411,5.361,-2.2272,4.5407,-5.8595,-13.7278,-7.5512,-6.4186,43.1499,-5.7921,-8.6614,
1.7035,-0.19396,-10.9478,3.8733,7.6907,-4.2629,5.4737,0.035926,-3.5039,0.37343,0.47422,39.3558,-0.86502,-0.66965,
11.001,-1.3874,-10.0498,-3.3488,11.3266,-1.3558,6.8323,-0.68936,-4.9811,0.59222,3.579,37.7176,-5.8746,-0.38827,
6.9665,0.14189,-9.9292,-3.1483,13.5393,2.1,5.458,-2.0943,-18.7822,-4.746,-3.8666,42.6849,0.26226,-2.2936,
2.4514,5.677,-10.5383,0.17432,11.5219,-0.1954,4.4079,-0.28115,-20.1859,-1.8099,-6.7678,43.7395,4.8263,1.4596,
9.7759,0.27469,-8.219,-2.0055,9.1433,-7.6553,5.8304,-3.398,-4.8748,2.8782,4.0023,47.1404,-5.3457,-0.3154,
6.538,1.4637,-2.6639,0.76612,9.8,-0.20629,9.5782,1.3859,9.2768,8.2494,10.2699,57.5686,-7.6758,2.3553,
9.52,9.0884,-2.0224,-2.6541,10.1759,-2.1219,8.0394,6.1227,-5.3798,9.2005,0.012521,49.776,-0.46683,5.5882,
11.3591,6.133,-5.7572,-6.351,11.4938,-13.0818,4.1828,1.4173,-9.2751,6.72,-4.8087,45.8253,0.043346,4.7708,
1.2776,5.0419,-9.5094,1.5014,5.7425,0.47734,1.2803,-1.3193,4.5378,8.004,1.9873,55.3683,-7.4311,-0.094776,
-5.3066,-0.80399,-18.3388,-2.2041,-6.4122,14.187,-10.6067,-5.3375,-9.8345,-0.91189,-6.5676,42.6462,-12.0469,-9.4891,
-3.7833,2.8594,-15.5512,-3.7591,-1.9301,14.0592,-10.2112,-3.33,-23.3444,-3.0268,-11.7172,36.472,-5.2983,-2.8942,
3.4338,6.3033,-5.2182,-1.3641,3.7293,1.8872,-2.6089,-2.889,-20.0153,-1.6397,-9.3267,37.8989,-3.2932,-0.55116,
3.2273,0.62222,-5.8694,0.16398,0.13085,0.32769,-4.381,-3.68,-13.0303,-2.988,-10.2138,34.1787,-6.4703,-5.3388,
-5.1611,-0.37921,-13.23,-1.7741,-3.7334,4.1644,-10.3847,-4.4235,-20.9251,-1.8444,-13.4574,30.1998,-11.8666,-6.9467,
-1.4772,1.572,-7.6157,2.1885,-2.0631,3.9148,-8.7975,-8.0143,-20.6337,-4.626,-14.5779,33.6907,-9.7084,-11.3503,
-5.4857,-0.20935,-2.5793,8.083,-0.73404,1.9924,-8.9923,-8.7385,-18.6726,-8.928,-17.3184,35.2844,-10.3309,-11.3925,
2.7972,4.8649,0.22704,9.7672,7.7459,-5.1165,-6.7656,-1.7067,-18.7575,-2.3663,-16.0383,29.07,-8.0238,-0.82698,
6.0036,3.6084,2.6235,8.2171,6.799,-13.0045,-7.3242,-4.9785,-17.1499,-2.7065,-17.0045,15.2745,-7.0605,-4.6335,
2.2692,6.2842,10.6608,20.7397,8.3192,-1.1372,-2.0642,-3.7157,-3.1057,0.83013,-9.2355,19.6604,-1.3342,-8.2121,
5.5075,2.5332,13.3956,21.4235,12.6406,-0.10464,-2.9043,-4.4571,7.6859,5.601,-3.3787,32.4605,-0.29006,-4.3449,
3.9717,4.0682,11.8688,17.9689,12.6053,-7.0882,-1.5247,-2.9844,12.2865,7.4341,-3.417,44.6129,-4.37,2.4232,
2.5284,7.9214,8.9875,15.6853,7.2694,-5.9398,-2.6388,-1.6003,-2.5507,-0.0020143,-8.2734,40.3694,-7.7232,-0.85541,
2.6174,1.4204,5.7967,12.0928,5.628,1.4062,-7.0599,-4.6375,-16.4977,-4.0995,-7.5363,29.5113,-1.7164,-4.9017,
-1.8777,0.37152,7.3773,14.7419,5.2905,0.35775,-9.5282,-3.3951,-24.4261,-4.3352,-10.9402,23.4021,2.7251,-1.7148,
4.9836,0.349,11.2732,11.4471,3.0449,-9.3049,-8.4748,-3.6736,-20.0683,-10.8238,-17.0325,11.3929,-7.0794,-2.5765,
5.4077,-0.39507,6.4992,3.2882,2.6212,-8.0235,-5.7969,-4.1763,-26.8177,-13.79,-11.9134,3.7197,-10.27,-2.1807,
3.637,3.4853,-1.6033,-3.1751,1.4999,-5.6134,-13.6438,-2.4795,-11.1086,-1.8749,-3.0035,17.5965,1.9156,-0.6036,
5.347,-2.0267,-2.9533,-4.9133,-1.0005,-12.0255,-24.3948,-4.2589,3.6579,4.986,2.4794,30.3997,1.8004,-1.0493,
2.3748,0.74619,0.8393,1.8892,7.0135,-8.6527,-16.4234,-1.352,-10.6616,-8.0874,-4.659,17.2473,-2.8869,0.70064,
3.4376,1.9067,1.0297,-2.3215,6.3515,-15.6053,-15.197,-2.4762,-24.1219,-12.6638,-12.3337,8.2588,-1.9908,-4.4031,
3.2311,-3.0284,0.0040305,-7.0027,-5.5987,-25.7562,-21.9977,-1.3635,-8.5746,2.196,2.5063,21.8632,-2.3533,-4.1389,
2.7965,-2.1236,-2.1656,-2.4849,-5.0218,-19.1494,-21.401,-2.0049,6.0399,4.1132,10.1895,14.4052,-7.2738,-2.6853,
15.4032,8.3679,8.3287,11.7642,9.3795,-3.9004,-6.0169,2.6952,-8.4225,-10.2336,-4.5219,-0.55913,7.2627,3.0195,
0.379,0.39406,-3.0173,4.1889,13.0348,-3.3047,-5.2945,1.3284,-22.0171,-14.3198,-13.7711,5.3795,7.6705,-4.6333,
3.1278,-3.486,-12.9594,-8.5959,2.6115,-17.2064,-16.546,7.0333,-6.5961,0.63936,1.1552,19.1567,-4.841,-1.9454,
3.4221,-0.86646,-9.7715,-8.5621,4.8651,-16.0536,-16.5171,-1.5839,7.8997,5.301,9.1603,20.2972,-5.0325,3.9561,
7.3144,10.514,4.0714,3.762,15.4195,-0.99036,-1.4261,-3.1758,-6.6743,-9.1171,-5.4893,19.8025,9.3694,11.1908,
13.8651,4.8217,0.21171,-2.9714,18.5919,9.0715,0.94938,-2.2622,-20.3739,-6.0392,-8.8961,28.4965,12.0612,2.0835,
3.633,2.8447,-9.2014,-8.8189,13.8605,2.0195,-7.5439,-0.92138,-11.9208,-0.13346,-0.89073,34.2583,-2.7624,-0.69333,
3.1743,8.6995,-8.4082,-9.0129,6.5214,4.0677,-10.7065,0.8209,2.8944,3.4902,6.1528,37.7462,-2.4764,7.3022,
8.7686,5.2855,-8.8678,-11.8464,9.0224,4.7877,-6.6899,1.2538,1.3952,10.5114,2.8914,39.338,4.4211,6.3819,
5.8324,2.0761,-9.2996,-6.7973,18.1223,2.5723,1.9067,-1.2315,11.4344,11.8089,3.1998,36.9777,3.6739,0.69684,
1.6256,0.9872,-4.4033,0.84142,16.5528,-0.95651,2.2742,-5.014,7.8558,1.9413,4.4541,25.1181,1.525,-3.2018,
-3.2924,1.4104,-2.6928,5.6114,10.2572,0.54737,0.20979,0.10729,0.15432,2.7894,1.2945,21.6831,2.8798,0.36497,
-1.1667,-5.4232,-7.352,-3.4019,6.7492,-4.3062,1.643,-1.8273,-7.5682,1.6577,-3.1214,15.5614,-1.1494,-3.5133,
5.6522,-4.1337,0.80193,-6.5722,12.611,-4.5298,10.2215,-0.75383,1.0811,7.3428,3.3324,16.0739,-0.11635,-2.3386,
0.49238,-2.9213,3.1642,-5.696,12.3365,-4.258,8.162,0.25572,1.4982,10.7587,0.72228,15.5914,3.747,-1.234,
1.1857,-5.3976,-2.5693,-2.7031,6.0525,-4.2439,-0.76388,-3.857,-7.9917,4.0871,-5.829,16.8251,3.7629,-4.7754,
-1.7775,-5.5559,-1.9332,2.2793,3.7609,2.7592,-5.0564,-1.2154,0.20008,3.36,-5.9616,23.5284,-3.6937,-4.9713,
-2.8761,-6.9096,2.2804,0.93772,5.7049,6.6914,-3.0658,0.06279,-0.052431,3.8817,-10.6652,16.5731,-5.1591,-4.9139,
0.18898,-7.4591,3.5896,1.8458,8.2549,8.2181,7.2411,-3.7974,-7.7621,3.1664,-13.3997,8.3478,4.3095,-2.2085,
-2.2325,-2.1911,0.96408,5.5914,8.2417,9.1713,10.1811,-2.6057,-2.958,5.387,-13.5596,8.3294,0.19456,-3.5223,
-0.41154,-2.3008,-2.2273,7.4249,9.4342,7.416,2.5806,-1.7262,1.3166,2.8944,-14.9154,6.6241,-4.8788,-5.9623,
-8.5818,-4.5726,-5.9498,7.9439,5.9759,11.7915,-1.9128,-5.9612,-2.1366,-4.5099,-20.2872,8.1551,-6.9962,-5.1224,
-9.5127,-1.4062,-4.6287,4.5748,1.761,13.0122,-2.28,-7.5317,-5.3824,-6.6494,-24.3722,11.0402,-11.3969,-11.5639,
-1.9525,-1.5628,-5.0741,2.1311,5.2707,8.616,-1.9022,-4.4282,-5.7828,-4.5637,-25.0795,6.7624,-7.5798,-17.8597,
-4.9686,1.6647,-5.4926,4.1727,6.6417,7.376,-0.58302,-2.4755,-7.1229,-3.0843,-26.2256,0.33085,-3.9916,-9.7983,
-0.57291,3.7337,1.3445,5.1274,6.4842,6.6922,0.17509,-5.9422,-2.5984,1.1979,-21.5188,6.8187,-6.4034,-4.1489,
-3.1899,1.3403,2.951,4.0966,5.372,8.942,-2.4867,-4.8625,1.1732,4.2597,-17.0944,12.9173,-11.0806,-6.0694,
-7.337,3.1883,-2.0467,2.8867,4.5675,10.8158,-5.7118,-6.0173,-12.9972,-9.0115,-24.2637,-1.9577,-13.7902,-12.9358,
-1.1122,9.264,3.8609,6.0879,8.6325,12.0955,-0.54834,-4.6919,-20.2916,-10.881,-26.1823,-11.8427,-10.0703,-13.1235,
-0.80429,13.2872,5.3162,2.107,8.8372,10.1643,0.68917,0.16912,-15.4589,-2.7565,-26.7807,-12.8196,-9.7073,-9.6853,
10.3312,13.9362,3.5512,-3.322,11.6814,20.1597,0.64828,-3.2155,-26.5825,-5.4832,-31.4404,-18.3169,-8.1608,-11.5143,
8.2651,14.0639,-1.4826,-0.23021,12.4263,29.555,-1.3193,-9.7715,-29.3263,-11.9031,-31.0003,-13.3615,-9.1174,-16.6082,
0.53832,19.0051,-9.1062,-2.1446,5.8966,20.5513,-8.9524,-6.2927,-13.4667,-10.7065,-21.9094,-11.1136,-15.3188,-14.6474,
1.7111,18.1056,-5.4265,-5.6316,1.445,18.5951,-14.4411,-6.1563,-9.6457,-12.7159,-24.21,-24.5468,-18.4972,-12.0813,
6.9111,26.1783,8.9991,8.8063,12.9277,31.5794,-1.0416,-6.7508,-23.167,-14.3631,-27.0962,-13.5535,-11.6028,-6.5362,
10.8347,28.464,17.0157,22.137,16.0084,43.7846,0.94912,-8.7563,-35.877,-17.3577,-22.5779,1.3597,-9.4606,-10.9643,
-1.3845,17.5971,1.8948,10.6859,1.5506,27.0575,-13.2078,-14.9794,-28.6631,-20.1726,-21.7052,-1.2527,-19.498,-22.358,
-1.5424,23.0492,-3.1601,4.983,1.6985,26.5187,-15.9101,-12.3934,-27.6662,-13.9006,-23.054,-6.7211,-22.9074,-19.8112,
8.9145,22.8715,2.5731,3.9612,9.5508,29.5068,-0.85546,-10.4445,-33.96,-12.3436,-21.4297,-4.1482,-15.9894,-16.4529,
-1.7438,11.8578,-2.402,-3.0254,7.0491,13.7567,1.7267,-12.7103,-17.9431,-12.5674,-14.8418,-1.0073,-9.7278,-18.3583,
-0.91602,8.495,-9.2475,-9.3516,2.529,-1.1687,-2.4745,-7.8501,-8.4302,-9.6439,-10.8176,-6.0083,-6.0107,-17.0158,
1.0671,4.1289,-9.6567,-7.3443,-0.99717,-3.6292,-1.8436,-6.4153,-18.0477,-11.9573,-12.5791,-16.2531,-6.132,-14.0667,
-3.3354,6.2916,-4.2569,1.7733,-1.4195,4.7835,-4.1438,-7.9588,-11.6624,-8.83,-7.4858,-6.1191,-8.6566,-10.3306,
-2.8943,-0.11148,-5.6887,-1.9485,-6.8779,-5.8679,-14.741,-10.1323,0.36551,-8.0592,-1.493,2.2018,-12.7167,-13.8081,
-0.79249,-0.58673,-1.9729,1.0609,-5.9831,-12.7462,-7.1076,0.59896,9.5026,-1.3087,11.612,3.034,2.0261,-5.7488,
4.3167,4.5097,3.6891,3.1664,-2.0089,-18.4893,-1.138,-2.5705,10.6197,3.8315,16.9408,-0.76346,11.3045,-2.7525,
6.7091,1.5878,6.1191,0.32509,1.727,-19.067,0.13579,-5.5495,16.0083,5.7705,15.2012,3.3799,3.6363,-5.7206,
3.173,-2.6048,2.1363,-2.346,-0.54599,-16.7181,2.7787,4.6654,9.9861,4.7014,10.6737,7.2745,0.28468,-0.79812,
4.1879,-1.7252,0.3211,-2.9281,-2.6822,-17.8837,4.2992,3.1802,-4.7131,3.214,7.3822,9.9715,10.6319,5.7575,
0.080274,3.1986,1.7481,3.5145,0.37106,-9.5803,3.5594,2.0255,-4.0686,5.9137,9.8313,18.5322,12.8863,9.7508,
-1.1296,-3.0191,-4.3826,-1.2758,-6.1589,-7.8004,-7.0183,3.591,-3.1014,0.015034,9.4827,10.4302,-0.17917,1.2118,
-1.0618,-6.2124,-2.1914,-2.6456,-12.0561,-7.3324,-10.936,0.483,-10.1461,-1.4321,5.0573,4.0198,-5.9532,0.17476,
-2.6856,2.1143,6.376,6.431,-11.0918,-5.205,-4.7364,-2.6792,-8.3323,1.3051,-2.7182,9.8044,-6.8011,6.672,
2.5372,-1.146,6.2344,8.6963,-11.6313,-9.9544,-4.6932,-6.1339,3.0139,-1.9062,-3.278,7.5289,-7.5981,-2.6464,
-1.9535,-2.0414,5.3784,14.9232,-9.9694,-5.0186,-6.8215,-5.7656,5.243,0.61852,3.6674,12.3796,-3.2858,-5.3799,
-3.5236,2.1789,5.7788,15.715,-9.1302,-3.0302,-9.5457,-4.6968,-9.1716,-0.14195,-0.16808,14.7703,-4.7759,-0.47737,
4.6418,-0.12121,4.2268,3.4437,-6.4133,-10.8024,-2.4653,0.64646,-11.8753,1.0716,-0.88113,7.8583,-3.7664,2.6845,
4.8455,0.36823,-0.84731,-6.8856,-4.1,-15.9391,3.9494,4.4643,-6.3418,5.3459,3.0284,2.0844,5.1366,6.3801,
6.7239,0.10517,-5.8579,-4.7853,-1.2027,-12.8131,1.5433,2.5092,-8.1305,9.6049,5.4977,5.0928,12.3005,6.7202,
1.4998,-2.3113,-7.9166,-4.9801,-1.6127,-11.0804,-1.9238,5.2512,-2.34,14.8132,7.0961,13.4639,7.2239,5.3531,
6.2303,5.058,-2.1392,-10.948,-2.4801,-16.2004,2.0478,8.7923,6.9592,14.4061,9.5626,10.7281,2.4519,7.9237,
11.4005,8.8519,3.0509,-9.5682,1.2842,-15.4689,7.469,6.578,3.8906,7.9986,15.0149,3.0945,9.2947,12.0281,
1.7984,3.2591,-0.26567,-6.825,2.8943,-13.3359,3.8874,4.978,3.4157,6.7953,15.8012,5.078,13.7984,9.6192,
8.6799,2.3407,3.3657,-7.6203,3.4436,-14.223,1.0026,5.8841,11.165,10.9669,17.0223,8.3888,14.1756,4.9444,
6.4719,6.2976,2.9228,-7.8865,5.8883,-12.1643,-0.26241,6.2544,3.9871,9.5859,15.2776,6.1982,13.566,6.8171,
-2.1113,6.8838,-0.1451,-6.9311,7.463,-10.4708,-1.2112,2.9864,-8.3034,5.6361,6.166,3.8979,11.3058,10.2643,
2.3541,3.5783,6.6123,-5.069,9.4255,-9.8421,-0.65615,3.7716,4.2459,7.7085,6.7604,7.5209,13.52,9.1665,
-5.7411,0.71224,1.636,-5.006,1.3882,-10.9391,-6.1606,7.6429,13.3913,7.4867,9.9699,3.454,8.129,5.0013,
-5.6376,-0.053394,-0.6313,-2.0546,2.028,-14.3801,-6.9958,7.4253,4.6341,6.3146,11.5409,-3.7431,5.4721,5.9061,
-2.8892,-0.05019,10.494,6.2639,8.6553,-13.0349,-1.2734,4.5696,3.3918,3.5256,9.4026,-1.108,9.0004,6.0341,
-3.4388,4.5326,14.4437,9.9854,3.5564,-9.1198,0.0078141,5.0183,7.2856,3.5551,3.7768,1.1277,7.2551,4.4667,
-1.3042,1.3681,9.2385,3.1193,-4.8521,-13.3933,-4.331,2.789,5.4022,7.1981,-0.78859,-8.581,5.3735,2.2703,
-3.8773,-0.88292,7.9613,-1.6469,-5.2837,-14.2762,-5.7581,5.273,4.8373,2.1872,-0.017685,-14.0914,8.1848,-0.51676,
-2.9215,-4.4456,8.6887,-5.6457,-7.6182,-11.7331,-9.0283,4.2335,-0.03242,-6.8623,-1.7041,-11.5594,6.4882,-2.1732,
-3.2284,-0.80464,11.0597,-1.9327,-4.7507,-11.0289,-2.2198,4.4617,6.2363,4.1545,-0.15581,-5.563,9.4734,9.0444,
-3.7576,6.2335,13.0474,5.1731,0.59575,-10.6081,2.4926,4.4349,8.0313,9.9308,2.0232,-8.8446,11.0744,12.5991,
1.0471,-1.6123,11.5414,5.1037,-3.0554,-8.7668,-2.7186,0.071484,0.5595,2.345,0.21409,-13.8575,6.7943,3.8894,
-3.8362,-1.9977,9.8848,7.6898,-8.1745,-6.3124,-3.5191,4.8877,10.1671,2.2046,3.094,-10.1338,5.4227,7.0303,
-4.0879,1.4966,10.7378,7.2284,-7.2021,-8.8262,-3.7904,5.0764,10.521,2.5542,2.9079,-10.972,6.5434,6.1265,
0.25469,-3.6549,14.1911,6.0718,-2.6724,-2.2706,-2.8396,0.67442,-1.9204,2.16,0.56472,-4.7701,8.8024,4.0717,
0.4806,-6.0869,10.6883,-0.80025,-2.2711,-0.44735,-0.98221,0.39275,-2.5283,1.7897,-1.1566,-4.7246,8.033,5.9968,
1.4156,-6.2036,5.2265,-7.0187,-1.6529,-8.1333,-3.3334,0.36919,0.99783,-0.24591,-1.0872,-18.5411,8.9973,3.2269,
-2.7667,-2.216,7.5643,-1.5359,0.61567,-1.1373,-4.3382,3.4805,5.5177,0.97414,2.5934,-21.4058,11.5909,2.3101,
-1.1544,-2.083,7.5923,-3.8544,-3.2779,-0.10523,-6.9705,1.8254,2.2941,-1.4949,0.027696,-19.6395,6.0745,0.72502,
0.84306,-5.8144,9.0652,-0.73059,-3.5631,-2.509,-4.1421,-0.21229,-2.6638,-3.3334,-2.8665,-23.7633,-1.0384,1.6458,
-0.65378,-3.0554,9.003,7.508,-3.3496,4.8719,-1.9654,1.2467,0.38811,-3.6158,-5.587,-24.2662,1.916,5.4035,
2.2777,-2.39,8.4631,5.6114,-1.7021,6.9899,-5.2217,-1.7204,-1.0812,-6.2907,-4.7696,-23.7743,8.5499,0.25879,
-0.51026,-3.4516,11.5707,5.0336,6.3537,10.1862,2.0813,-0.4121,-3.1857,-3.2619,5.3987,-18.7322,12.6165,1.4483,
-0.72061,-7.3423,7.743,-3.2227,8.1417,7.8878,7.9819,1.2999,-1.3074,-2.8257,1.4594,-19.2955,6.3156,-0.80774,
1.0096,-7.6245,5.1092,-7.6083,6.9301,6.2094,5.816,0.49874,-2.434,-3.3788,-5.6178,-18.8609,2.3215,0.92772,
-2.9073,1.5096,6.2487,2.9711,8.9246,10.1752,3.0565,1.9151,-7.5906,-1.7303,0.021878,-13.8728,9.4128,8.5848,
-1.7688,-4.3653,-0.87466,-0.58144,2.6045,9.5649,-5.3214,-0.61019,-8.5812,-10.3029,-0.94353,-19.7892,6.9201,-0.12473,
-4.0728,-8.4417,-1.3043,-6.3311,-0.44401,14.2937,-6.4484,-1.5374,-1.7998,-8.2389,-5.2252,-17.1555,-0.2438,-4.938,
-6.9617,-1.9099,5.7636,-2.818,2.7159,14.6407,-1.9643,-4.097,-4.3431,-2.2007,-7.0811,-5.2802,-2.8807,-3.9186,
-3.4107,-2.036,6.1409,-0.47953,3.758,9.6651,-3.5335,-5.0562,-4.3233,-5.2024,-5.4512,2.0263,-3.9129,-2.4784,
-3.929,-0.70856,2.1572,-0.2098,1.8455,10.7724,-6.9369,-0.65504,2.4436,-1.7568,-5.3651,1.1818,-3.437,1.2857,
-0.55999,-1.8716,3.2329,-3.8124,1.9758,6.0285,-6.7614,-5.1953,-4.6927,-2.3745,-5.7663,-5.8788,0.8666,-2.4066,
-0.044458,-1.7593,8.8232,-1.6559,6.6777,5.1848,1.357,-2.9553,-1.0371,-2.232,0.36425,-3.1159,7.0811,1.5937,
-1.0059,3.1668,8.776,1.3357,9.1693,5.3559,3.2036,3.0063,4.8099,2.7224,0.34263,-1.4829,3.7642,6.3191,
0.98266,3.4587,4.875,2.2199,8.6194,3.1059,-1.327,1.8621,-4.6377,4.0053,-3.0524,-7.6605,1.128,3.0474,
-3.6558,3.0104,2.8955,4.738,5.4509,2.6788,-3.8987,4.8836,-3.6363,0.14979,-1.6642,-9.8522,0.81934,2.1414,
0.66089,1.6245,6.8191,2.7665,3.4366,1.3128,-4.87,1.9395,3.5717,-3.4746,0.60483,-12.8764,1.9752,2.7363,
0.62123,1.527,9.7844,3.0825,3.7124,3.6446,-4.5778,-1.0694,-0.49895,-0.85601,-0.87772,-13.5501,3.303,3.054,
1.0661,3.3638,3.8949,4.8259,2.0436,0.051711,-7.195,1.4051,-13.9661,1.6057,-7.5733,-14.6651,0.21252,-1.4677,
4.1354,-0.45364,3.4201,2.8489,3.608,-2.6032,-6.0406,0.11576,-13.8518,0.3043,-4.468,-16.9189,0.92267,-3.5491,
-2.8612,-1.8722,6.5893,1.7141,2.4276,5.7482,-5.1958,1.0727,-8.6819,-4.5347,-2.2717,-14.4575,2.3136,2.4489,
0.20257,0.65024,7.6402,5.4677,-0.12839,3.4751,-4.884,-2.8481,-16.3557,-9.0828,-11.7764,-21.3028,-5.538,-2.0368,
4.5292,4.4676,12.4844,12.8524,6.1461,-0.58979,6.0138,-3.641,-15.8567,-2.2714,-14.4443,-24.363,-7.6161,-2.8785,
2.57,5.4046,11.9761,7.5017,10.8387,0.65066,5.4118,-1.7356,-9.3619,-1.4119,-9.48,-15.9115,0.31268,3.3196,
4.5852,0.50082,6.1959,-3.3125,8.5014,-0.59345,-4.3127,-0.90832,-7.1128,-3.0147,-3.3678,-9.4135,7.2836,2.8797,
-0.028483,1.4349,1.486,-6.488,3.1709,-4.8964,-4.0537,2.0385,-2.3474,2.4691,0.69084,-11.7405,4.4366,1.2608,
2.8653,3.277,0.91447,-8.9912,5.8727,-8.9414,-1.4003,1.4342,-0.2784,5.213,-0.79687,-15.3748,0.79577,4.0773,
3.8987,-1.4989,1.5827,-7.2464,10.582,-9.1278,-2.5216,0.14288,-3.8771,2.731,-5.3283,-13.2471,7.2557,3.1097,
1.0136,3.1703,7.0314,1.1421,15.0083,-2.0722,5.1015,0.37527,-6.296,-0.5663,-3.8038,-16.0677,9.9536,-1.6566,
3.6039,4.1854,10.7068,-0.13172,13.8668,0.2213,11.7853,-4.2265,-10.0156,-6.5579,0.039841,-25.9499,1.4027,-3.7264,
1.4595,4.8981,9.5825,0.84051,13.0348,-0.27391,11.0782,-0.11655,-4.1121,-2.7899,1.9656,-16.6801,5.1749,3.2461,
1.8539,2.1941,3.7049,-6.9227,6.4681,-10.3808,-1.1561,0.37237,4.8113,2.1977,-2.0087,-9.4128,5.3463,0.64076,
4.6351,2.0625,3.4826,-8.9175,5.5981,-0.11702,-3.0145,2.7602,12.2359,4.9584,2.9326,-5.9555,3.5795,3.4948,
-1.9097,3.3852,-2.9929,-4.5263,5.2625,5.6748,-3.3158,2.1128,-1.9959,-1.6054,-3.0278,-9.9362,2.4009,4.7312,
2.5434,-1.1565,-3.7774,-0.88,7.3571,-8.7657,-3.599,-1.8705,-12.4812,-4.4014,-8.149,-14.6429,1.7747,-1.337,
1.6677,-2.7745,1.0288,1.3417,7.6388,-8.8424,-0.24936,-1.0352,-5.2246,1.4061,-1.1523,-8.7025,-2.9111,0.91257,
-3.2529,-2.6078,-6.7457,-5.4874,-3.907,5.7882,-7.4655,-6.2755,-8.7673,-4.4631,-6.3856,-11.0731,-10.9316,-2.9988,
0.7987,-0.041237,-6.3412,-2.2661,-2.7087,9.6587,-10.8739,-3.0069,1.3993,-1.7852,-4.0747,-10.4087,-0.63472,-0.89114,
-0.93621,3.5764,-1.8632,5.3419,2.5155,4.4997,-8.5345,6.0914,14.5719,10.1323,4.6061,-0.86632,5.4291,5.1881,
-0.15714,-0.25358,-4.4029,1.8879,-2.2152,8.327,-9.2277,1.1466,-0.40239,4.9451,-1.2143,0.39095,-1.8865,-0.6668,
-2.5578,-4.5767,-7.0308,-4.9739,-3.5283,10.238,-5.7815,-7.5993,-11.5857,-3.5468,-5.9617,-5.899,-6.5938,-4.0008,
3.38,0.5184,-2.7526,-6.6038,1.5039,2.875,-0.61416,-0.87661,-1.7318,1.0045,3.0729,-8.4374,1.9968,2.9879,
3.9005,1.2102,-2.3464,-6.9305,-0.27336,-3.3235,-3.7103,2.7914,1.9875,4.0778,7.4682,-12.0285,7.4206,3.0496,
1.9793,4.2711,-2.9286,-5.7913,0.46617,-3.3646,-4.693,2.383,14.1608,11.3049,14.4919,-10.5839,8.6626,2.6257,
11.7425,3.7738,-2.5119,-9.5417,2.6076,-4.368,-2.2423,5.8554,23.1931,15.2064,19.166,-10.6717,12.2404,4.6373,
5.0124,2.8245,-4.0484,-7.7639,-2.6105,-5.7931,-3.795,8.1556,15.2936,13.0887,9.5799,-9.3085,10.7829,3.154,
-0.59102,5.0652,-1.8773,-0.54959,-3.9002,-5.4455,-7.9056,6.22,11.9658,12.3034,3.7025,-2.9654,4.3511,4.8927,
6.6753,0.90487,0.6457,-3.8906,-0.77387,-1.7444,-6.4674,3.9186,17.0325,11.0828,3.9627,2.9971,5.5363,4.5992,
3.8644,2.2966,-1.3215,-8.96,1.6829,1.2526,1.1517,5.1295,15.0464,11.3819,1.3146,2.8175,9.5424,3.3591,
4.1147,1.6766,-4.1345,-7.4583,2.5458,-2.1972,0.60046,3.8577,11.2513,11.1811,-0.21074,-2.6545,8.0058,2.6754,
-2.6399,-1.5572,-7.0197,-3.8776,-0.25803,-0.37795,-4.9789,3.867,7.9249,6.8951,-1.4032,-2.7359,-0.91048,1.3098,
-6.82,-0.98161,-4.1881,0.69362,-0.72448,4.4652,-2.7522,2.1889,-6.5301,-1.7136,-6.139,-6.4284,-4.2301,-1.1787,
-0.62603,-0.92249,1.3656,5.4725,1.2472,2.2689,-0.65869,-3.7268,-16.2614,-4.985,-8.181,-15.2015,-0.11988,-6.4108,
-1.5526,3.9533,3.2118,9.9646,2.1362,2.6149,-2.5476,-0.12895,-9.019,-4.2042,-9.6186,-15.7359,-0.11269,-7.4722,
0.22781,3.9571,5.1885,5.7518,3.2136,0.28885,-0.70751,-1.8084,-9.2007,-8.5312,-14.1031,-21.2992,-6.1315,-11.1212,
1.6599,3.2378,10.1796,7.3349,6.3947,2.1997,6.5658,-4.1101,-12.5051,-7.5374,-13.7389,-26.2878,-5.2817,-6.1156,
1.0784,5.9355,6.1946,7.3767,1.6727,2.5497,3.7617,-0.489,-11.7548,-5.6389,-14.8427,-23.7466,-4.4828,-3.8205,
3.906,4.6153,4.3767,3.0775,0.12612,2.3969,-0.80254,0.98637,-10.5678,-2.8902,-14.4343,-18.9476,-2.2857,-6.9657,
-2.5949,3.8565,3.15,5.7854,1.5648,4.6632,-0.75439,0.92719,-12.8258,-0.7886,-14.0502,-20.7028,-3.5945,-3.655,
1.6582,6.7581,1.7557,8.5713,0.26563,1.7319,-4.8069,1.1125,-13.2615,-1.4646,-12.9662,-24.5223,-4.5842,-5.1234,
4.21,4.6656,1.8916,3.4775,1.455,-5.8436,-6.2055,2.2508,-6.922,-2.0994,-6.6444,-20.8816,-2.1397,-6.503,
-2.5505,2.2165,-0.87327,-5.1669,4.0188,-10.0727,-2.6997,0.42856,-3.3736,-3.6612,-6.4872,-18.9058,-0.80628,-2.4976,
0.73621,-0.085857,-0.097739,-3.6518,10.2854,-9.2272,1.0775,-1.2842,-4.3763,-2.7179,-9.2312,-19.4585,0.44739,-1.1425,
-2.9236,-2.2496,2.0775,5.0032,12.802,-5.5398,0.29015,-0.0020398,-2.9082,0.096502,-8.9181,-17.0859,0.66151,-4.6891,
-2.266,-1.6325,3.3989,3.7389,12.0336,-5.2077,-1.6557,-0.48408,-3.6978,0.090484,-8.3832,-19.9169,-0.34228,-5.3719,
-2.371,-0.32971,4.4,0.86351,12.9988,-3.208,-0.83344,-0.21407,-1.3068,0.80795,-4.7467,-16.5527,-1.0449,-2.8804,
-5.3623,0.89536,6.3052,7.3192,12.9418,1.0818,-0.060075,2.9323,5.7611,4.3749,-2.2928,-6.1596,-2.1875,-1.5025,
1.9493,-3.7381,8.096,8.0853,11.9243,-0.67029,-3.19,1.0691,7.1026,2.4252,-5.2887,-7.4772,1.5592,-3.0996,
0.6271,1.5474,9.7794,3.5024,14.3419,-1.8354,-1.3113,-0.68227,3.061,1.0744,-2.8022,-14.0184,9.4194,2.1478,
-1.0975,5.0702,6.5416,-0.32294,12.7587,-6.3048,-2.4377,0.56373,-11.2226,-0.19515,-4.3211,-17.2749,7.6492,3.224,
1.6196,0.18648,7.3544,5.2403,12.2344,-2.3108,-4.4608,5.5918,-13.803,1.9859,-7.1951,-11.1765,3.0931,2.3077,
-2.8161,1.1394,11.2514,10.2283,11.0177,6.5047,-3.711,3.8098,0.040367,-3.4356,-7.2455,-10.5062,0.014981,-0.72329,
-0.47796,1.312,13.7098,3.1066,7.7055,3.9453,0.60899,-2.4443,-1.6493,-12.1476,-5.1236,-18.7939,2.1832,-4.2949,
-2.3775,2.1976,10.959,3.4026,7.7251,4.6724,3.9469,-0.36947,-12.1552,-4.6698,-5.2981,-17.1843,6.3908,2.7113,
-4.4042,4.7171,6.2039,6.3317,8.9491,6.5614,-0.86943,2.304,-15.5234,-1.7383,-10.524,-15.4301,3.356,5.6819,
-3.1756,3.9521,7.7599,6.9162,5.0377,6.6502,-1.2992,0.71952,-4.4687,-6.9366,-9.8921,-14.0219,5.0831,3.4132,
-2.2622,4.4379,9.9458,6.7422,1.6024,5.5278,4.3224,0.43538,3.7532,-5.7975,-6.6475,-8.6013,7.9114,3.9313,
2.4533,1.0381,11.0359,3.6861,5.6036,5.4371,1.4115,-3.2062,-9.7284,-5.2087,-6.0077,-10.7363,2.8572,-0.8843,
-4.4428,3.8684,16.6402,16.4803,3.8211,9.4492,-3.9759,1.3245,-13.9654,-2.0037,-2.7552,-7.682,2.2036,4.4714,
-5.863,8.6979,13.4731,20.0713,-4.8438,2.3748,-7.3523,4.3785,-2.2812,-2.6064,-3.3128,-6.9801,4.2407,7.8185,
3.4066,1.6683,4.2288,5.1284,4.3647,1.5091,-1.3678,-0.46368,3.3995,-5.1013,-1.4265,-14.0329,8.5658,2.288,
-3.3057,-3.0115,-3.015,-4.0978,16.3948,5.034,2.3293,-3.0874,-2.3485,-5.0366,-1.5824,-19.6989,4.9182,-1.9471,
-0.45607,1.7487,-1.1467,1.21,15.6523,-4.1859,1.4668,-1.6966,-4.3766,-4.0109,-3.1744,-18.7577,2.9363,1.3034,
-0.66967,0.43849,-1.3191,0.41402,7.7233,-10.4427,1.1379,1.0562,-5.3193,-5.4579,-5.1531,-19.3199,3.965,8.697,
-0.62995,1.8584,-1.2401,-6.3593,8.2238,-3.0677,5.4079,4.3673,-12.7129,-4.1666,-4.362,-24.4272,5.1731,9.621,
1.8184,0.78307,-1.1655,-9.8341,13.5154,-5.7757,5.0834,0.2489,-11.9501,-7.2906,-2.654,-29.2281,3.8988,1.331,
-3.8341,-0.95091,1.0738,-7.5566,15.8377,-4.2236,6.4659,-0.48917,0.095326,-5.6476,0.15654,-18.0742,5.8343,1.4923,
-1.917,-4.0276,4.6246,-11.6832,13.682,-0.35498,8.7288,0.26331,-9.3106,-6.5143,-2.9866,-16.2671,5.725,1.6435,
-1.0789,-4.0271,4.5883,-11.2229,16.4767,-2.0211,6.5181,-0.47562,-14.7778,-7.8104,-2.5662,-22.7626,6.5868,1.3042,
-2.7014,-3.0626,-3.159,-10.3086,13.8009,-4.551,-0.38095,-4.0625,0.2089,-5.655,-1.6893,-15.8537,7.3964,1.4669,
6.6198,-0.95018,-3.4514,-9.6901,10.5627,0.060411,2.5344,-1.4082,7.066,-0.495,-0.14169,-5.2611,8.881,4.2714,
2.125,0.79383,-4.4494,-11.2781,9.6877,-2.1121,5.5156,1.8096,-7.458,-2.6342,-0.85632,-13.8632,2.3226,1.8457,
4.4078,-1.1818,-1.2902,-12.0474,12.9631,-4.3958,5.1849,-2.6375,-2.7929,-3.4403,0.15916,-18.8162,1.7011,-0.19299,
0.28722,-4.967,3.608,-5.5397,9.7749,0.68846,7.7661,-7.7817,5.5696,-5.1623,-3.7065,-11.4205,2.0812,-0.66358,
-3.3459,2.3204,7.0065,6.6028,10.8757,6.1908,11.8794,-3.2174,-0.7901,-7.5036,-3.2432,-7.6018,0.75104,1.0635,
-2.1808,-1.1933,-0.16238,-3.9168,8.2949,-5.2679,1.5257,-5.435,-2.189,-10.9098,-3.0486,-16.7871,-3.1504,-4.7849,
-2.5321,1.2887,-0.6348,-8.0198,8.7613,-4.4697,3.3626,0.67592,7.1016,-2.0603,-2.3835,-15.7797,-0.55103,-0.15928,
-0.69298,2.8986,1.0905,-1.995,11.8511,-2.9962,7.7401,0.3944,-5.617,-2.66,-4.8916,-19.8941,-0.27677,1.0551,
-0.89236,-0.40881,3.1942,4.6321,11.381,-3.5398,5.5885,-6.1372,-7.4496,-5.6339,-3.3933,-19.4238,0.4625,-2.6236,
-1.3208,2.9902,5.8951,2.908,8.288,-0.43488,4.7712,-2.3945,7.0974,-3.8496,-2.7077,-16.8121,-1.9754,-4.8763,
0.20452,0.8828,2.6491,-3.5328,11.1649,0.073377,4.4852,-1.7687,4.6233,-5.0647,-3.9913,-23.034,-4.267,-7.958,
-3.9053,3.9631,4.1772,6.0789,11.7001,5.1304,5.9031,-3.3496,-1.1979,-2.1095,-2.0648,-13.6985,-1.8418,-0.97278,
0.1856,9.0277,8.2651,13.9091,2.3212,2.8942,-0.23546,-4.5946,-2.5721,-3.4289,-7.7253,-9.0199,-5.1055,-1.8785,
-1.0306,3.9065,3.1897,8.0131,3.387,-2.8229,-2.3907,-6.9703,-4.5867,-8.767,-13.2876,-15.9508,-10.3428,-10.6836,
-4.3432,5.6003,0.10576,2.7116,12.8248,-2.1716,5.9474,-6.5525,0.026854,-8.241,-4.7775,-9.6911,-8.2762,-8.1149,
-0.4672,1.6489,-1.1054,-4.4405,7.9584,-5.1743,-0.9169,-8.8105,-2.1439,-4.1311,-2.3213,-3.566,-7.0563,-10.2791,
-2.3676,2.0321,-0.074996,0.16404,9.8908,1.4025,-2.3084,-1.0512,2.3228,3.8297,0.22792,-1.4241,-4.7049,-4.8419,
-4.3945,3.5972,-1.758,-2.4971,10.5024,-3.2612,-0.00048096,-5.0853,-1.4318,-1.462,-1.4728,-7.364,-9.9662,-2.382,
-0.99754,2.1763,-1.8932,-1.1418,6.739,-8.127,-1.2055,-10.8059,-4.4791,-6.9176,-3.5538,-7.1633,-13.4654,-5.8542,
-3.348,4.4561,-3.2257,6.1573,9.7089,-2.337,-5.4717,-3.8908,3.0203,-5.0565,-2.3765,-8.1795,-8.3192,-6.9495,
-0.97777,2.0193,-1.3451,-0.23788,11.2957,-2.9199,-7.3128,-1.9704,9.3467,-3.5481,-3.4389,-17.5709,-4.6867,-6.7737,
-1.1603,2.1394,4.279,-5.7674,9.4129,-2.9854,-3.7408,-4.0215,7.0985,-0.68387,-5.402,-17.7217,-6.0928,-3.234,
-2.5369,3.4573,3.0584,-0.60069,8.8481,1.0501,-3.9983,-3.7803,-3.4503,-5.4631,-5.5598,-12.8021,-11.9939,-7.8602,
-1.1794,2.0445,-0.74055,3.0508,7.5944,2.6743,-5.9275,-1.8658,-8.3045,-6.3406,-2.5747,-9.8648,-13.9254,-7.1476,
-1.1087,7.2245,-1.1781,4.7959,8.5845,6.8522,-5.5719,1.1383,-1.5397,4.1632,-0.49199,-3.0059,-5.859,4.8504,
-1.5243,2.4525,-3.9997,4.9903,4.2133,8.8514,-9.5761,-3.2686,4.337,-1.3895,-1.909,-6.6822,-7.4359,-1.7074,
-6.2531,-0.10479,-0.38569,6.1372,6.3706,12.6586,-7.0734,-0.66235,7.4512,-6.1264,2.062,-11.5839,-12.2922,-4.9789,
-2.5037,4.722,-0.36231,-0.97974,10.3269,7.5606,-6.6487,1.7877,-3.6009,-2.8665,-3.8461,-14.745,-10.1086,-3.7161,
4.1542,5.1618,-1.5456,-2.126,8.9842,3.9737,-6.0091,-0.0065144,-8.9282,-1.9714,-5.3028,-14.1015,-4.9226,-5.6625,
-5.977,-1.1735,-1.6939,4.0271,2.4196,9.7608,-4.9252,-4.5859,-2.367,-6.9148,2.4872,-15.4246,-10.1708,-6.0457,
-1.7622,-4.4777,-2.0744,3.7852,5.6486,11.5855,-5.1118,-4.3105,-7.0455,-7.464,2.8201,-18.8377,-13.8991,-5.2012,
0.75391,0.61141,-1.4682,4.0403,13.0223,15.7109,-3.841,0.28623,-12.4075,-4.1238,-2.1696,-9.5125,-9.2088,-1.9969,
-1.9424,6.6007,2.2357,7.4133,10.0718,21.7581,-4.3335,4.3669,-7.5657,-0.26099,-4.6905,-3.3981,-9.8613,-0.18983,
1.3072,0.17868,1.8602,6.7275,6.334,14.909,-7.6893,-0.95682,-8.3166,-0.9687,-7.0606,-13.5585,-14.8133,-3.3119,
-2.1457,3.0605,-0.17963,9.2159,8.8464,5.8193,-4.8174,-2.3457,-5.4075,-0.42864,-5.6731,-16.1195,-13.4425,-2.6308,
-2.017,8.179,-2.097,7.2167,6.3875,9.3265,-4.5283,-1.723,-5.0831,-3.295,-6.2966,-19.0087,-14.082,-7.2937,
1.2377,7.4476,-1.2481,7.0249,9.1375,22.8669,-2.5696,-2.3423,-9.3576,-3.8204,-8.0882,-21.9653,-12.9959,-10.4713,
2.1274,7.9646,-4.0653,5.1572,10.5174,28.8462,-3.3793,-5.0943,-15.545,-7.4476,-10.013,-29.3245,-13.6624,-12.7355,
8.0255,13.5125,0.75816,7.981,10.1276,15.7875,-4.3816,-5.5117,-9.5504,-7.7239,-0.012012,-32.6265,-13.0836,-14.6227,
1.0362,11.4967,-1.4567,12.0821,6.3867,25.2043,-5.8057,-5.9037,-5.3622,-7.0192,1.6757,-27.0532,-13.5037,-16.8784,
6.2767,4.5403,-5.2257,8.4647,8.8955,35.2612,-7.386,-6.0319,-9.3788,-4.1879,-8.5477,-24.9481,-7.873,-12.4914,
13.1305,9.0882,0.87242,9.885,15.1107,35.0738,-5.4966,-0.84971,-8.8165,-4.4186,-9.9635,-30.6825,-4.5085,-2.101,
10.4145,21.5583,4.6765,21.343,15.6499,43.5746,-1.7924,4.022,-10.6977,-7.5279,-4.0631,-26.431,-10.5048,-0.046728,
11.4768,18.5776,3.1906,24.6421,13.0241,48.9139,0.0024,0.16524,-17.5276,-8.7635,-5.9884,-21.7116,-9.6333,-4.1413,
5.0039,12.1605,-0.37508,14.9687,11.2786,37.3022,-2.4081,-2.737,-18.8859,-5.8273,-9.0034,-26.1937,-4.2346,-2.4468,
7.355,15.5285,-3.0039,5.6346,11.325,23.2537,-2.9867,-1.3672,-18.4758,-4.7546,-0.50919,-28.2373,-4.7036,-1.5768,
10.2879,15.5609,-7.6441,2.8862,8.717,22.8226,-2.3254,-2.2497,-20.2596,-4.9514,0.96739,-21.2407,-8.2778,-2.9283,
4.1272,12.4578,-9.3544,3.9186,8.4352,29.8896,-2.909,-3.3194,-18.8028,-3.9312,-3.6702,-17.3149,-6.5758,-1.5475,
10.628,11.2284,0.36541,5.6112,12.7494,32.9165,1.1219,-3.6026,-10.9262,-7.5517,1.3708,-17.2403,1.5313,-2.9009,
8.5443,12.0007,1.79,7.2029,6.682,27.5672,1.5368,-3.3862,-6.414,-7.5808,4.6627,-14.7594,-0.48881,-4.6548,
3.9343,12.0036,-6.7536,-0.21912,0.73745,16.9951,-2.6528,-3.9064,-9.1626,-3.0286,3.1777,-18.9355,-4.0749,0.20376,
3.939,2.8475,-11.4098,-12.0163,1.8983,8.9853,-0.80661,-7.7696,-14.6387,-4.5339,5.1564,-23.8252,-2.1432,1.3966,
-3.5282,-3.5899,-16.0279,-15.1517,-4.4821,5.0722,-0.75821,-9.7135,-15.6885,-4.2618,1.4726,-20.4675,-5.871,-5.4356,
-0.90614,-0.00027036,-14.584,-7.0116,-6.6236,5.732,-4.0869,-7.6847,-17.6395,0.33241,-1.99,-17.311,-4.0727,-4.1454,
-1.3335,5.7846,-6.4784,4.4961,-0.92328,13.1006,-0.94944,-3.8489,-18.0272,-3.5441,2.4679,-19.1646,1.9565,3.8163,
-0.53056,5.1965,-0.54559,6.396,1.3013,14.0018,3.6868,-3.377,-17.1865,-8.3927,2.5608,-27.4148,-0.33007,1.9001,
1.1883,0.30521,-2.6827,1.4322,-4.3206,1.8337,0.81428,-6.7901,-21.2168,-4.7559,-6.0287,-33.2419,-0.069526,-3.2758,
-4.9086,2.9384,-4.6904,2.5516,-5.2662,-7.1944,0.042527,-3.7311,-25.9693,-0.85512,-10.7287,-34.8623,6.9245,-0.4277,
4.545,6.1361,4.7496,9.1474,3.2444,-3.3882,9.199,2.7593,-24.4112,-3.6963,-2.8541,-37.5913,12.2936,5.8645,
6.4414,5.527,8.5619,11.7316,7.6291,4.7688,11.7801,6.6911,-16.439,-2.2693,2.8607,-36.5411,11.797,10.5743,
-1.4171,0.13347,-1.3515,6.9301,1.1455,-3.4713,-0.25467,4.1202,-12.3194,-0.44611,-2.3728,-33.6255,13.2583,7.288,
0.35562,-2.0432,-2.9577,7.2377,-0.60996,-12.1806,-5.3011,2.6682,-8.4468,0.78595,-4.3991,-21.2437,18.0067,4.2001,
-4.2455,1.6948,2.7634,8.9726,0.63193,-9.2806,-1.8495,3.7134,-14.4474,3.3903,-8.7149,-22.1382,15.239,9.4917,
-0.13435,3.0389,11.2742,11.8087,2.5218,-3.9035,3.5641,6.3826,-17.9196,2.2226,-8.192,-34.9099,16.2527,11.8143,
-0.84919,2.1337,12.7674,17.1257,2.1295,-2.464,7.9295,8.6512,-12.7468,-2.4905,-5.5309,-38.2387,21.3033,7.49,
-2.9676,0.31818,11.7602,15.375,1.2786,-4.4856,9.1408,7.409,-16.5615,0.31025,-11.7072,-28.9547,25.5685,8.7276,
1.3082,-5.726,9.8497,6.0168,2.8891,-8.3138,7.3875,4.7953,-20.1471,-0.43127,-11.7277,-25.5302,24.7577,12.7837,
-6.2425,-2.2494,6.1252,7.3426,5.3673,-4.1996,10.0773,4.7486,-4.8383,-2.5745,1.268,-15.0803,23.0313,17.0779,
-7.7962,-0.18625,3.3471,7.8664,2.6347,-2.9837,8.0268,1.0892,1.3568,-0.49188,2.1563,-11.2835,23.0952,14.6074,
-3.7127,-6.6828,4.3518,6.6713,-3.0668,-5.4556,3.4476,2.7108,-11.4988,5.081,-9.7835,-19.5243,22.4326,12.5259,
-3.49,-7.7281,4.0907,5.7891,-5.2929,-9.467,-0.13368,7.8508,-15.1474,5.7405,-18.3555,-26.0656,20.1228,15.1484,
2.0216,-5.3362,1.4347,-0.8248,-4.9753,-16.6118,-0.12566,4.4877,-13.2745,1.0573,-19.1823,-35.107,19.8793,14.7218,
-0.26862,-3.3286,2.5537,-1.4984,-4.918,-9.1073,9.764,3.9773,-4.0421,-0.69316,-11.5237,-34.6875,24.7123,15.5255,
-2.4217,-6.7443,4.5701,-2.6138,-3.4176,-2.5354,12.3117,5.9078,-1.148,-0.89254,-8.1807,-21.76,31.1833,14.353,
-2.5176,-8.0266,3.0908,-5.1083,-3.4538,-9.8548,5.0653,5.7945,-5.6587,1.3304,-11.3051,-21.1776,27.6253,15.1793,
-1.6434,-0.55584,4.5924,4.116,-6.3803,-12.8792,3.0739,4.7237,-5.5606,4.3834,-12.7966,-29.7891,19.942,16.9194,
5.6858,1.8879,9.6192,12.5459,-12.2637,-10.6599,-0.0028209,3.4762,-10.5294,1.7105,-17.3312,-28.9658,17.7814,11.0838,
1.4885,-1.1172,11.9344,14.2035,-16.8303,-5.1999,-0.48436,8.57,-6.5231,0.64375,-21.5938,-20.4792,17.6786,13.7934,
-1.0111,-4.4249,6.8802,3.7106,-14.3745,-6.3339,3.8833,7.0917,1.5812,-3.7334,-19.3341,-27.4449,13.7256,13.4475,
-0.46853,-2.7131,2.1286,-2.2966,-5.3168,-5.9539,7.5066,3.7742,-3.3343,-3.0275,-12.3894,-24.8344,21.0972,10.2305,
-9.8402,-6.166,-1.6143,-1.9181,-7.1672,-5.8378,3.9225,6.681,-11.5702,5.5901,-15.7434,-9.2443,27.303,12.75,
-3.2242,-10.3753,-2.2403,-3.0079,-9.8707,-10.0668,2.4823,7.9674,-2.4398,6.46,-17.9321,-5.4357,22.0494,14.1541,
-3.5129,-4.9323,-0.65988,-1.3814,-6.8681,-8.4992,4.2614,4.597,6.8654,2.6981,-13.9641,-9.93,18.7985,11.3769,
-4.507,2.3535,11.1898,11.476,-3.3225,4.3033,7.1392,5.0441,3.8023,3.7411,-9.5108,-4.7549,23.6961,13.3454,
-0.86213,-1.1622,16.7854,17.5363,-9.3901,7.9015,3.8188,2.3313,5.0205,0.14262,-10.3862,-1.5771,21.3105,10.1345,
-2.0159,-3.7438,14.5728,10.9403,-8.1036,2.8479,1.9022,2.9146,14.119,0.3748,-7.5936,-2.2056,20.2726,8.3214,
-2.1359,-9.0627,9.6011,0.88389,-4.4839,-3.8305,-0.86304,-0.39378,2.908,-1.8168,-10.7534,-11.9552,20.7434,7.0992,
-2.2487,-3.9392,11.1942,3.4819,-0.59944,0.49669,5.6962,2.7633,-6.1846,0.46133,-12.2776,-12.4432,19.7398,11.7345,
-1.3907,-2.9798,9.3174,3.0323,-3.2148,-2.6664,6.5595,2.3563,-8.9467,-3.1815,-16.6024,-11.9373,15.4222,5.969,
3.0311,-5.6935,6.3483,0.92216,-5.432,-2.5064,2.7915,0.7687,-9.8562,-4.9188,-21.3909,-13.1497,17.3889,2.7183,
-3.1763,-3.1827,4.2797,-1.3028,-7.7577,4.6334,2.383,3.8561,-8.5421,-0.044428,-19.3845,-15.0123,15.6227,10.509,
3.2808,-2.0274,4.5053,-7.0092,-10.1843,0.01709,-0.65201,3.6247,-8.0294,0.92256,-13.8829,-20.86,9.865,10.8427,
3.0841,1.9508,8.0916,-0.32144,-9.5734,-1.9119,-4.4695,4.3713,-5.6192,2.3132,-13.0497,-16.7157,9.2729,6.336,
-2.4036,8.0998,14.3545,11.7485,-7.0708,6.8795,-1.7912,5.0729,-4.3182,5.0665,-17.5696,-11.8568,14.5011,8.8479,
-1.0543,4.4806,11.3243,5.0183,-9.2979,3.8154,1.45,1.1533,-11.5309,-0.29893,-22.0588,-17.1707,13.8722,10.004,
-5.8115,-0.12634,5.8244,-0.58526,-6.3297,-2.6803,5.7011,2.0482,-13.7313,-3.1733,-21.6994,-15.6588,11.1115,12.2965,
-1.8474,-3.7342,6.1978,-1.2735,-2.3345,-3.7243,7.0462,-1.2081,-13.6306,-5.1521,-22.0846,-19.2985,13.5783,8.4253,
-1.7366,-3.5101,6.3079,-4.5715,-5.5689,0.83746,2.7671,-2.5815,-12.3306,-3.8786,-24.134,-24.8895,11.7993,4.5453,
-5.0068,3.9313,4.0012,-2.3686,-6.681,1.7515,2.601,3.358,-9.6626,1.6568,-24.132,-17.6111,8.6812,9.5752,
-1.3319,4.1774,3.2792,-2.7084,-4.8339,-5.1025,0.99918,0.7464,-9.5647,-1.3352,-24.1301,-11.7342,5.7502,8.5188,
-3.1802,3.4443,7.9027,0.82808,-3.5795,-2.8681,4.3132,1.6655,-8.027,-4.1476,-20.2724,-9.1019,9.7435,6.5614,
2.5542,1.5509,9.1162,-0.90883,-5.5339,-1.9727,2.3677,1.3246,-17.4271,-4.1397,-23.1532,-16.0276,10.8461,1.5884,
1.1957,3.1451,8.3278,-1.0953,-5.4433,1.7607,0.055986,0.039819,-21.4431,-1.2398,-26.3435,-15.3069,9.9544,5.1081,
-8.758,2.233,5.659,0.65767,-7.2859,3.3422,1.7399,0.76079,-13.1669,-2.3707,-23.0759,-9.8092,8.6338,8.417,
2.8547,1.6166,6.7653,-1.7924,-5.4029,-3.6072,3.5637,1.1971,-9.0027,-3.6747,-18.7993,-15.0053,9.0801,3.0913,
2.6834,3.9302,7.3237,0.24382,-5.0783,1.4299,0.93971,1.1253,-6.5341,-3.9361,-20.5634,-16.997,7.089,6.7626,
0.35324,2.4891,8.0896,1.434,-6.9427,9.2979,-0.8039,1.2987,-8.7934,-3.459,-21.9809,-15.7365,4.4945,9.4899,
2.9834,2.581,7.363,0.14292,-7.7312,7.053,2.3776,2.9078,-11.399,-1.0821,-20.4209,-11.1768,4.466,1.9309,
0.15282,4.1133,6.1983,0.85725,-8.4727,3.4963,2.9578,2.4923,-5.1717,-2.2224,-18.4727,-4.4807,4.921,0.1278,
6.8923,0.0099272,5.3442,-0.15828,-10.3747,-3.4621,-1.0758,1.3787,-2.451,-4.4994,-16.8822,-10.9605,7.9999,3.9767,
0.45324,-4.0876,1.4086,-3.2818,-12.8852,-9.7619,-3.1804,1.055,-10.2577,-3.0242,-21.4129,-22.595,6.3151,3.9791,
0.66701,2.6652,6.8673,3.4226,-8.9791,-1.2224,3.036,0.75075,-11.3295,-2.6018,-19.4052,-15.6959,5.2128,3.017,
3.0373,5.8795,10.7938,12.8584,-10.3683,7.0459,4.7818,-1.7047,-6.7933,-5.338,-15.3484,-8.4871,4.9003,3.3181,
0.68618,1.4291,7.0129,9.4356,-11.9156,3.9718,-0.084191,-0.39731,-10.4831,-2.8483,-16.1147,-13.0396,5.8113,4.3241,
10.2857,0.86122,6.5919,1.6384,-9.2727,-3.4976,-4.4181,-0.37324,-13.7107,-0.74943,-16.1121,-15.6317,3.0523,4.0649,
0.027401,2.738,7.6424,3.4685,-11.6086,-0.87737,-2.7066,0.61325,-7.5854,-1.6686,-18.5196,-11.3196,-3.3976,5.267,
-2.8663,2.0918,6.22,6.1529,-10.9121,1.5859,1.7941,4.4328,-9.5406,-1.5684,-19.8188,-11.6045,-3.6757,3.9872,
6.2235,0.2788,5.1237,3.6143,-7.1241,-0.19675,1.4453,4.4076,-16.44,-2.6794,-16.4605,-12.1133,-2.2501,3.5067,
-3.3087,0.74423,0.47816,1.4695,-11.0348,0.77961,-3.4614,1.7333,-18.8278,-1.0726,-16.4367,-9.9402,-2.1148,3.7785,
-0.45909,2.3868,-0.75628,3.5501,-12.5423,4.3478,-4.9414,1.8702,-13.1189,-1.2492,-14.7276,-6.6927,4.0376,-0.54604,
-0.43154,3.2075,5.0737,12.978,-7.451,12.2816,0.17576,5.6144,-4.1368,-1.6562,-5.649,3.3498,4.2773,0.45105,
-0.88735,6.3897,9.1083,14.6102,-8.9319,7.6886,-3.6909,0.45705,-8.2269,-2.039,-4.3458,0.73893,-5.1382,0.90615,
5.9141,14.6832,8.5615,8.9126,-10.3244,-0.48574,-9.7362,-0.052534,-6.7692,2.9038,-6.4954,-2.6801,-1.9376,1.8159,
-2.3943,13.5615,1.5401,4.7627,-8.0179,-1.6617,-9.3933,5.9764,5.4473,2.4889,-2.4902,-1.3138,7.0965,1.4657,
3.2928,9.6141,0.7246,-3.4771,-4.4036,-5.1771,-3.7682,2.0022,2.4689,-3.6862,0.79243,-10.1532,5.9476,-2.2374,
8.1567,12.6524,6.7069,-4.4735,-3.8982,-5.1077,5.3757,0.67697,0.15161,-2.7424,2.914,-12.6773,2.4575,-3.7906,
5.9805,12.1347,6.0635,4.231,-3.9053,-0.22151,6.7409,1.3597,7.6143,-4.7466,4.9086,-9.2653,2.551,-5.7323,
9.2366,10.2013,2.5662,10.0027,0.42641,5.8173,4.6487,0.072833,5.4702,-1.8107,2.4447,-6.54,5.049,0.63715,
-0.23517,8.8663,-0.72124,2.8946,-5.6247,2.8167,-2.6196,1.7557,-8.958,-1.4611,-5.6557,-7.8351,0.16681,3.2505,
9.6606,13.8777,4.8659,-1.3766,-4.5646,-1.9318,-2.7036,7.1937,-12.1564,-1.1327,-1.7012,-10.4982,2.8081,-2.0065,
6.1889,8.2248,1.6819,-0.32972,-2.362,-2.2978,2.2793,4.352,-12.873,-2.5105,-0.63481,-12.2785,4.5678,-4.7781,
0.033026,5.8031,-2.7578,-0.30994,-3.6666,3.6246,5.0346,3.6089,-20.2956,-3.3242,-8.3097,-10.5777,2.8475,2.2575,
5.0925,6.66,-0.90536,-4.8709,-7.0618,7.0228,0.15301,4.5975,-22.2111,-4.3298,-9.9803,-8.256,1.9535,2.8451,
-2.4437,7.7064,-0.36888,-2.6502,-3.7458,11.4219,1.1084,1.9113,-13.6476,-1.6597,-3.1147,1.3986,2.3185,2.1923,
3.0056,12.5467,0.13565,-2.0092,2.7455,13.6287,4.8983,1.7966,-11.8647,-0.11382,-0.5175,5.1711,-1.1951,2.5427,
2.3429,10.8296,-0.35488,-2.3706,-0.31176,15.2215,0.74753,6.9914,-14.0453,-1.5533,-3.8609,4.8608,-5.9436,3.8364,
-1.4129,8.4928,-1.5387,-2.9515,-8.2466,11.1745,-6.7689,4.4026,-11.5154,-2.1832,-5.7984,4.8099,-4.382,4.3293,
8.3126,9.4293,-0.48224,-0.84646,-7.752,2.7915,-7.3269,0.28224,-5.522,-1.57,0.33385,2.5934,-1.7091,5.0337,
2.2703,9.5864,-3.5868,-1.5186,-4.6358,-0.50947,-7.1282,4.8446,-2.5394,-1.2349,4.4114,2.6787,-2.8114,5.9365,
6.9547,9.0112,-3.8535,-12.5147,-1.4651,-3.8533,-6.7005,3.5901,-8.6535,-1.1608,-0.19183,4.9281,-1.1965,2.6882,
3.163,3.6503,-4.1042,-17.5484,-0.89482,-4.1041,-0.51391,-2.8923,-11.5085,-0.1268,-5.0006,4.1505,-3.0529,1.5626,
-5.9448,2.226,-5.5452,-13.8444,1.81,0.23952,2.168,-0.54962,-12.0233,0.60371,-3.9776,-3.0884,-8.4133,0.74594,
8.5119,8.8413,-0.39178,-11.0855,9.8961,-0.25679,0.59213,7.1966,-18.0506,1.0494,-2.7749,-6.2773,0.28618,0.21925,
3.0604,7.3468,3.4879,-6.0818,9.7845,-2.1693,-1.3718,5.8007,-22.27,-1.9058,-7.4289,-12.1672,4.6076,-4.1325,
1.9125,7.8698,6.1711,-1.3786,9.6793,1.3348,1.6026,-0.33239,-19.0058,-8.058,-4.573,-21.0784,-1.9359,-5.3308,
4.449,10.049,4.5958,-1.5366,12.2318,6.7986,-0.1806,-3.4457,-13.2859,-11.6721,0.76304,-19.5727,-7.3631,-0.4314,
-2.0847,9.4462,2.3916,-1.9266,14.8726,9.2829,-4.0259,-1.7925,-7.6683,-10.4896,0.71726,-9.7215,-4.511,-0.88768,
2.3792,5.505,2.2481,-7.5956,16.8723,7.2797,-4.2663,-1.203,-12.5106,-9.8602,-4.6282,-7.2097,-3.276,-7.1009,
-2.3433,5.8976,3.3185,-11.2372,22.3674,12.8685,1.5328,-2.3361,-19.714,-6.6175,-7.9661,-8.9466,-3.8028,-0.1674,
-1.7208,6.5081,5.0476,-7.6709,23.436,14.5065,-1.4512,-6.0523,-30.1003,-9.5949,-11.8267,-19.0148,-5.9847,1.2889,
0.31091,4.6716,8.6009,4.3587,19.6195,19.9028,-5.2207,-5.689,-31.1866,-16.2498,-10.6347,-26.5508,-7.0717,-5.5371,
-6.9386,9.2115,14.3518,14.7025,18.4423,26.4219,-1.533,-3.4194,-20.1563,-15.2749,-6.1403,-18.2091,-4.2373,-3.2767,
-3.871,8.9,14.6958,14.0611,17.0946,20.2566,-4.0924,-5.8656,-19.1881,-16.5278,-10.3516,-16.3936,-3.2599,-7.1777,
-6.0488,6.9198,12.8497,13.2174,17.0332,21.4518,-4.3288,-3.1035,-15.1446,-13.6079,-8.2842,-17.8201,-4.0286,-6.2651,
-5.6861,7.9506,10.1508,6.64,14.5652,17.2724,0.2695,-2.9171,-14.2359,-14.2375,-6.3409,-23.4996,-9.0893,-4.4427,
-1.7295,5.7864,12.1928,7.9289,12.486,14.5488,2.9044,-6.3575,-12.6586,-14.1061,-6.6836,-19.9205,-6.8567,-7.3096,
-4.0359,6.8854,14.3533,19.0223,14.147,26.2089,2.2478,-3.5659,-9.0068,-7.9576,-4.8366,-10.5305,-0.66075,-4.9428,
-0.90144,7.4364,7.2258,12.5781,11.3702,24.6366,-0.77893,-6.2442,-22.5664,-18.5671,-10.8131,-23.9987,-4.4777,-8.5024,
-4.2216,11.3288,9.6846,13.2699,14.5446,28.9432,7.4627,-2.4954,-23.0199,-18.8991,-10.646,-21.474,-0.35244,-3.1718,
-4.4505,10.6493,10.55,12.4739,10.2977,28.1707,2.6764,-1.8635,-11.5156,-10.5341,-9.0432,-7.1699,-0.813,-2.0174,
1.6012,9.046,11.3628,9.3149,8.2336,21.1778,-4.715,-3.6799,-2.6299,-8.9382,-1.7519,-3.3655,-4.1387,-6.7166,
-4.2795,12.3596,17.9119,17.915,16.4162,27.62,5.2089,-1.5309,4.2765,-13.7045,5.1019,-8.4662,0.9299,-6.796,
0.55679,17.6438,20.9343,23.8298,18.5645,38.255,15.2604,-6.0185,4.7431,-15.0516,4.0727,-16.8763,1.5972,-9.5215,
0.28242,21.6464,20.4016,32.7639,17.2096,42.9492,14.5858,-5.4165,7.5918,-8.6049,4.5512,-5.9818,-1.6321,-5.8172,
-3.109,18.9014,17.2493,33.2086,18.5872,37.4801,4.0697,-1.717,4.244,-11.945,3.314,2.5723,-1.5342,-2.0937,
0.69321,11.742,11.6348,17.1161,15.785,32.0981,-4.6104,-4.7473,-2.5182,-14.8435,-1.946,-6.0179,-3.1291,-1.7269,
-2.964,17.0632,11.6599,3.1944,11.2227,35.2341,1.21,-4.7032,4.1406,-5.517,1.3042,-3.0055,-4.1464,4.8844,
0.82923,16.2804,10.7193,-9.2898,7.4158,37.6993,-0.54978,-6.1087,7.5074,-8.3195,3.8768,2.7184,-6.0673,0.97596,
-1.3897,7.8318,11.281,-15.7223,11.0682,37.6065,-4.6146,-2.1267,8.262,-11.9177,3.8852,6.1703,-7.3904,-5.1081,
-2.0294,9.5312,15.1841,-9.2351,10.6453,21.2502,-4.0961,-1.276,6.0793,-9.0332,-0.44506,1.7029,-11.0441,-10.345,
7.4921,14.5028,17.4058,-2.1733,8.8011,5.8751,0.24681,-7.7071,7.4015,-6.3223,2.7147,-2.4968,-8.2126,-12.3761,
-0.1878,10.2581,7.6848,-6.8636,10.2017,19.6226,4.0884,-2.9064,9.8497,-7.3887,7.3725,3.4376,-6.7555,-7.2948,
-2.5869,5.786,-2.4174,-16.5749,4.7686,32.5453,-1.4598,-0.32164,0.099715,-10.3201,0.66341,7.0879,-9.7244,-5.893,
-1.9495,11.7056,3.5124,-3.5291,2.0726,44.6926,-1.8539,-0.78451,4.9144,-5.3623,1.1058,20.1602,-5.2848,4.5837,
-4.0019,14.137,4.0248,2.7084,3.6353,56.111,-2.9477,-0.014308,12.0914,-2.8712,4.1727,22.5658,-9.5472,7.9239,
3.7098,8.7088,1.1315,-4.9261,7.0323,66.8443,-5.4222,-1.2185,9.6784,-2.4582,5.6093,13.7398,-11.6257,0.45881,
-3.2615,7.7046,3.9564,-4.6303,4.6824,61.5079,-4.6147,0.78302,14.4006,-0.38229,7.6833,16.2901,-3.6971,4.2879,
-1.8605,6.5189,3.4776,-6.0397,0.78606,70.1095,-6.9894,0.97701,19.08,-3.0109,9.3913,15.5537,-4.6805,4.2711,
3.7947,2.5128,2.546,-8.8104,2.4261,64.2162,-6.811,1.1594,16.2484,1.7495,8.1049,12.4513,-7.5327,1.8462,
-1.4946,-0.28949,0.2241,-11.4152,2.0396,50.9632,-5.197,-0.1155,9.7296,3.8137,3.0391,11.9452,-3.4658,3.4222,
1.2468,-0.99479,2.38,-4.2226,2.6403,62.0054,-7.0546,2.0608,14.2076,-2.4405,12.7389,19.1824,-1.088,3.9404,
-4.3718,1.7158,3.9242,9.2869,1.7588,72.3851,-10.2465,6.5167,25.6474,3.2494,23.3028,31.77,-5.1208,6.8368,
0.22857,4.987,4.1709,10.1757,-0.27515,76.9598,-11.5601,3.7153,24.5902,7.3929,19.4942,20.7046,-2.8851,4.4986,
4.7946,1.0729,9.9462,10.2885,4.3211,74.9933,-7.733,3.2514,26.7303,0.92336,20.9757,9.5804,4.7598,4.4697,
-5.6162,-2.8481,8.3854,12.0811,3.5797,82.0631,-9.6794,3.5385,31.8751,2.7964,23.0914,20.5745,-2.2745,7.0938,
-2.146,-2.918,-0.55366,7.7411,-2.1785,74.488,-16.5702,3.085,23.4554,4.3161,15.1986,25.8482,-9.61,3.5349,
-3.7042,-1.0559,0.68463,10.8923,0.12115,62.0647,-16.2991,4.105,21.8068,4.7798,17.9019,21.1636,-3.0076,5.0098,
-1.0718,-1.4745,9.3206,15.059,4.4527,56.4131,-12.9111,0.96662,25.8011,4.4934,23.0948,19.4118,-1.8629,4.7092,
5.2592,-3.7964,12.1356,14.1557,10.4518,52.0638,-2.9776,0.42646,26.181,6.6337,23.1551,19.2112,0.65881,4.9088,
-4.6973,-8.8712,2.7309,4.1473,9.3427,45.0836,-0.38836,-2.9736,19.7899,6.2357,22.7297,8.4176,4.4761,5.0962,
1.8508,-11.7132,-2.2539,-8.1529,3.4798,34.666,-2.7754,-1.8311,17.156,9.2358,24.2582,4.0559,7.5818,5.7545,
-1.6342,-14.8668,-6.939,-15.3765,0.86085,18.486,-2.127,1.6532,16.1266,9.164,21.8388,11.0434,9.0551,0.58902,
-3.2234,-14.2162,-7.246,-9.3927,10.6911,17.7381,-0.31211,-0.13318,12.5079,2.5882,20.7695,9.6579,9.7166,-3.0617,
2.2724,-7.5784,-0.54448,3.7046,13.4239,30.7738,-3.6676,-1.0893,19.4705,3.8794,21.9336,8.1143,6.7237,5.7988,
-4.8536,-1.5799,-0.75255,6.6156,-1.4815,37.7252,-14.776,3.0737,25.7738,5.3336,22.787,11.725,3.669,4.7278,
4.1148,0.44312,0.25647,2.8442,-1.5131,21.3617,-11.9612,3.8531,14.5864,3.0854,24.3119,2.8264,9.2334,-3.7506,
1.2165,-2.2348,0.48228,4.361,9.9061,24.2978,0.56681,0.48866,5.7573,1.6952,18.7556,-9.1531,7.9563,1.5359,
-5.3644,-2.8241,-6.5365,-2.8905,5.6963,25.0091,-4.5289,2.6285,6.6171,-1.54,14.4972,-8.8453,0.0070837,5.0592,
1.4652,-5.3059,-12.1701,-16.8171,-2.5995,9.4086,-14.1393,4.6402,5.015,0.72181,18.6888,-3.2532,2.658,-0.30584,
-4.4071,-6.4336,-14.3322,-17.857,-8.2283,-0.91762,-10.8806,0.98755,10.9804,7.9091,19.4955,8.0295,3.9445,5.0149,
-3.6607,-5.0837,-13.4723,-13.4111,-14.9654,6.3683,-13.6022,-0.036032,24.4216,12.2553,25.5566,20.5627,1.2973,12.9087,
-4.1642,-7.912,-12.4227,-13.8115,-12.8625,-3.4141,-19.2938,6.4738,31.2719,14.1708,35.8335,26.319,8.6915,10.9291,
-3.1912,-9.6062,-12.8824,-15.1522,-8.4751,-9.2345,-19.8232,6.3266,29.1544,13.5618,32.4785,21.1247,10.8213,3.7657,
-1.554,-3.7276,-9.6994,-4.1202,-17.1256,-14.465,-24.4184,-1.7662,33.1897,13.7124,33.9037,22.7493,2.4593,4.986,
-13.0296,-3.0218,-9.5996,0.46559,-20.9185,-26.1308,-28.2561,-6.4807,35.055,14.3357,37.6543,22.8303,1.3476,8.0611,
-1.4016,-8.866,-11.6747,-13.6623,-9.7815,-28.178,-14.2682,-6.3329,27.89,12.7526,32.744,19.7733,9.2205,2.0338,
-1.0765,-11.949,-13.1434,-26.9426,-18.1122,-19.4974,-9.3143,-1.8551,22.1192,9.3364,31.5022,26.0592,10.3549,1.1889,
-7.7609,-11.2326,-14.2834,-30.8697,-19.918,-23.6307,-22.8555,4.0404,17.4176,10.222,31.0584,20.1568,14.0715,4.9739,
-4.8851,-22.1278,-15.3541,-34.3197,-4.6229,-23.6586,-24.2564,-2.4686,16.8545,10.0906,29.1949,4.8474,19.4942,0.33716,
-13.0274,-6.7001,-17.0842,-23.8246,9.7545,-8.1391,-8.701,-0.15108,19.4589,4.9061,32.5046,3.4722,7.9604,0.075738,
-0.19468,7.8019,-12.2028,-13.7185,-4.9308,6.4492,-9.0223,5.6426,11.0605,1.7192,32.0006,1.8176,3.144,2.9637,
3.1912,21.4338,-4.7219,-18.6797,-6.9248,15.2213,-14.7478,-3.8548,6.0583,4.5084,19.9574,-4.5582,12.5966,-1.0707,
-4.2309,34.2478,5.2026,-13.7028,2.1675,28.408,-1.8116,-5.5519,13.4078,6.6482,17.314,9.8153,14.2512,2.3677,
-0.12062,46.2929,5.3724,-9.5062,-6.1572,40.8036,2.1535,-1.8444,7.7827,0.94668,17.7214,18.7469,2.7908,4.6363,
-5.657,57.6153,2.3989,-13.0331,-4.1006,52.4553,-12.0757,1.8817,3.7007,2.0952,13.0427,10.6322,2.3824,5.081,
-7.246,54.8813,1.2904,-18.5179,-6.2649,63.408,-25.4512,-2.5697,2.5141,-1.8872,6.9572,3.2456,6.578,2.3658,
-1.2674,46.045,-2.4022,-13.7916,-6.1302,73.7035,-23.6831,-3.1387,1.6402,-0.086924,9.1911,11.0048,5.4602,6.3214,
0.73684,41.8361,-8.5246,-13.4461,8.3376,83.3813,-12.6207,-1.0222,-0.86838,8.5954,9.604,10.3445,3.2044,7.8703,
5.7543,37.1568,-5.362,-25.8957,21.9374,92.4784,-2.4635,-3.13,3.2815,7.8387,8.3048,-0.64001,11.9302,2.8188,
-0.85769,34.4452,-0.2198,-22.8959,20.6213,101.0297,-0.38769,0.91442,15.1355,2.5479,11.6627,5.1827,19.8912,8.434,
-5.6267,25.6298,-3.5808,-16.7012,5.2841,109.068,-14.4644,-1.0689,3.1404,-6.7638,5.6605,-3.3232,6.1645,4.5538,
-2.879,26.0202,1.4547,-7.5044,7.4981,116.6239,-27.6966,2.8517,-4.7608,-3.9478,2.4284,-14.211,-1.4362,1.388,
-13.0701,24.218,-6.5868,-7.2951,21.1482,123.7264,-11.9348,5.814,2.0323,-0.57747,1.0774,-10.7068,2.2654,2.0281,
-5.2963,19.1498,-13.1812,-14.3295,31.8099,130.4029,2.8813,9.0804,8.9,3.0724,7.5205,-6.9311,14.9037,6.0035,
-1.8452,15.349,-11.1853,-16.603,20.5011,136.6787,-2.3535,11.1869,6.1966,6.0213,12.1307,-11.0948,14.7326,6.8484,
0.43464,13.7051,-7.8626,-15.8477,15.6556,142.578,10.5627,8.3465,0.76361,5.901,7.7879,-16.9368,4.4486,0.41194,
0.64953,9.7498,-4.7397,-13.2097,13.9934,148.1233,1.4928,10.0149,-1.4514,5.3059,2.7409,-23.8743,9.7253,-2.2639,
-8.307,7.4776,-6.6245,-11.6942,19.1793,153.3359,-8.4787,12.5475,0.80487,1.3722,1.3716,-21.2368,17.5775,1.9693,
1.5911,8.7159,-6.4682,-14.1258,26.9464,158.2357,6.13,6.7332,7.2643,-1.3615,6.3507,-9.5985,16.2821,2.0924,
-5.494,1.2033,6.2121,-13.037,11.2296,162.8416,-8.3378,0.78535,1.767,-3.9311,1.3902,-15.5303,3.9768,-5.0233,
-10.2262,2.8181,19.9394,-1.4088,7.784,167.1711,-21.9375,6.764,-8.7031,-6.3466,-4.2371,-28.6985,-1.3233,-6.4089,
-7.6842,4.0955,4.6431,1.568,21.417,171.2408,-6.5213,8.7681,-11.5556,-11.2682,-1.0906,-25.651,5.0228,-2.6501,
-17.8282,-1.935,-9.7355,-6.2391,34.232,175.0664,7.97,4.8678,-10.3801,-12.0381,-5.8456,-17.3633,7.1314,-4.4191,
-2.6586,3.4835,-3.0051,2.3302,27.5985,178.6624,21.5913,11.8063,-3.9725,-3.1214,-9.3515,-16.8037,9.5958,-2.7079,
-4.3065,-1.3046,7.0573,1.9497,11.8426,182.0427,6.1958,4.5907,-8.7956,-8.9594,-15.2977,-20.3745,-0.86168,-7.125,
-13.2072,2.6301,-2.5251,0.86837,20.653,185.2201,-0.080509,2.869,-7.304,-7.4575,-7.149,-7.5829,7.3847,-2.8411,
-7.3535,6.0873,-4.0609,6.3599,30.2596,188.2069,14.0243,4.3841,-4.6966,-1.9488,-5.0333,0.82585,16.3416,-0.98338,
-11.0094,0.66057,4.6187,6.7014,17.598,191.0145,12.58,0.50536,-9.9582,-3.5189,-17.5055,-7.6596,1.2611,-6.4678,
-2.3953,-3.4766,16.6339,-0.69031,13.4089,185.5792,2.9073,1.1982,-12.012,-5.4772,-16.6964,-18.0463,-3.5145,-4.8746,
-11.8926,-9.0526,1.5358,-7.3978,24.1735,160.3444,8.0356,-0.80191,-15.6296,-8.523,-10.3919,-18.4098,10.7964,-2.654,
-19.3737,-5.135,-12.6563,-5.0257,27.0614,149.8801,21.6534,-1.7177,-21.4408,-8.9755,-11.6966,-12.9666,9.064,-3.941,
-4.4728,-5.0677,0.63632,-5.4473,17.9662,129.077,17.5822,-1.8558,-15.0929,-7.7138,-11.7179,-13.3937,-5.5798,-6.8378,
-3.7225,-9.5843,10.2391,-6.0848,14.4776,107.2323,6.4043,-1.7445,-0.087285,-5.8052,-8.6047,-12.1081,-1.5092,-4.4993,
-0.36564,-4.4295,-1.221,0.30629,20.5988,86.6984,9.6355,4.8682,-7.1922,-3.2873,-11.2215,-12.5867,10.392,-3.0245,
-5.1642,-4.6459,-3.0762,-1.1581,23.2195,74.2659,15.8061,2.6476,-20.8606,-6.9466,-16.3325,-20.5084,-4.3315,-4.771,
-4.8543,-4.8491,10.1238,-2.053,25.2008,62.5791,14.8577,-3.2958,-20.9346,-7.9761,-8.6041,-17.8316,-6.8437,-2.5566,
4.114,-8.8965,5.66,-3.3756,22.2425,44.7244,13.9662,-5.0262,-22.0886,-10.8715,-8.0879,-20.6181,5.1366,-8.6697,
-6.015,-13.9065,-0.22301,-6.3068,13.9183,27.9409,26.8668,-2.0733,-34.5018,-14.7988,-18.9306,-30.7092,-9.2716,-11.7652,
2.2994,-5.6001,13.8904,2.0256,22.4834,36.6288,29.8343,-0.74388,-18.3317,-5.9569,-6.9487,-15.6103,-19.2004,-3.1053,
1.9205,-4.5416,11.0078,7.9296,27.1595,35.6359,13.9443,-2.3865,-3.1318,0.42564,7.2065,-0.57366,-3.9484,-1.2317,
-7.595,-6.92,-3.7527,9.1408,25.7711,25.5437,-0.26973,5.7107,7.1788,-0.32303,4.1228,10.4273,5.809,0.047236,
-1.5952,-14.4585,-3.4066,-0.32522,27.8403,12.201,10.1108,1.2707,-7.352,-6.3287,-5.0422,2.3298,-6.3496,-5.4992,
0.42826,-11.6633,4.5102,-5.1264,33.8826,10.0227,7.5759,-1.6981,-7.0313,0.79944,2.0088,9.4209,-4.0405,-1.7948,
-1.7664,-12.1686,-5.1602,-13.7367,34.0191,-3.8348,10.737,-0.87306,0.86281,-0.93552,7.4321,2.8299,2.2277,0.48227,
2.6779,-14.3305,-6.2969,-16.2869,36.3162,-17.1026,20.6976,3.5176,-5.4559,-4.7362,8.432,-0.71439,3.5399,2.8635,
-4.2314,-14.4352,-0.61664,-14.3456,29.7987,-26.1995,8.8507,-1.9958,-6.5748,-3.9699,5.9977,9.4516,-0.046742,0.2813,
1.807,-12.1229,0.86662,-9.6285,30.4209,-34.7505,12.658,-6.2144,2.9789,0.12468,9.0123,7.4382,2.3662,-2.1457,
-3.3631,-16.9386,-1.8365,-7.3636,25.9446,-44.9575,18.4065,-7.5288,-5.636,-6.8722,1.4821,-7.1081,-3.8013,-8.0425,
-3.1608,-16.4043,1.1662,-6.9217,18.1214,-53.3473,8.6254,-2.7387,-16.3848,-11.2806,-3.9095,-12.104,-7.9116,-9.9701,
4.0182,-13.7332,5.1936,-10.1219,17.2751,-51.3517,9.3127,-0.88717,-3.5913,-6.5064,6.207,-1.0139,-3.8215,-2.8644,
-0.079234,-10.981,4.8815,-12.4071,16.2381,-46.8244,16.4663,-2.7621,2.8906,-1.7777,11.6192,-2.8817,-1.182,1.6458,
3.7821,-8.3938,4.5889,-10.2161,12.372,-58.1149,8.7301,-1.6323,-11.3828,-3.599,3.6914,-11.3855,0.33491,-1.3453,
-2.712,-11.7468,4.3133,-4.7827,5.3629,-68.728,5.7959,-4.4267,-15.4001,-4.8296,-0.86861,-10.7026,-4.9876,-4.1568,
4.4408,-7.9087,9.1164,0.56572,4.318,-73.2812,11.474,-4.4023,-5.0758,-1.4061,7.1375,-7.4089,-4.4471,-4.1486,
7.5486,-8.3983,7.6053,1.9778,-1.7254,-73.7048,1.1443,-4.1379,-8.6277,-5.1783,8.1553,-12.7489,-1.288,-6.3101,
0.10627,-8.6173,3.5336,0.6543,-6.2016,-83.3825,-1.0935,-1.7205,-7.869,-3.1804,5.0149,-3.0661,0.95841,-0.86977,
9.2587,-13.8846,2.8394,-10.472,-6.3117,-90.5516,7.167,-2.5813,-3.5405,2.3133,3.2679,1.9383,-2.4733,-0.81736,
5.8111,-14.0158,6.0435,-8.8798,-6.4149,-87.5286,8.6652,-0.01586,-0.91772,5.0666,7.8921,3.7507,-1.361,1.1599,
1.8468,-12.9337,5.4397,-6.66,-8.6814,-96.3769,5.012,-2.1843,-6.4063,1.1474,11.0338,6.1765,-1.0382,-1.561,
9.9307,-16.4964,5.1133,-10.1168,-7.6785,-104.6943,10.4959,-3.9814,1.2087,4.9349,16.1568,7.7341,-0.012031,-0.50351,
1.1402,-15.0243,0.4682,-9.5098,-10.5918,-112.5126,7.456,-1.3324,6.9212,6.0851,12.2949,1.9676,0.47108,2.9012,
5.651,-8.0973,3.0912,-6.2876,-11.6435,-119.8619,3.3928,-0.52958,-0.48414,3.0684,9.8699,3.0546,2.6115,1.5218,
0.97365,-11.4678,3.3881,-3.9822,-13.8374,-126.7702,8.0099,-2.426,-5.7577,1.4381,10.2421,9.1379,-1.8835,-1.9435,
0.19233,-11.985,0.53328,-3.9842,-14.6944,-133.264,8.2522,-1.0751,-2.2788,3.039,6.976,9.7949,-3.4577,-0.62206,
8.6167,-12.471,-0.70378,-11.2172,-13.0896,-139.3681,3.66,-3.18,-1.4192,1.1697,5.3524,5.5916,0.3654,1.5846,
2.797,-15.0972,-0.66155,-17.2926,-9.8937,-145.106,7.2968,-2.0249,-3.7439,2.0638,5.0312,-1.0102,1.3078,3.8997,
8.1728,-15.3967,-4.7192,-16.4965,-11.9516,-150.4997,9.5101,-3.1087,-10.5091,5.073,-1.2962,-11.3139,-1.9041,3.4247,
8.888,-12.7854,-6.605,-12.373,-20.1523,-155.5697,3.3961,-2.199,-8.6733,5.9742,-4.8336,-12.3219,-3.9593,2.0142,
6.4261,-8.6438,-3.3166,-12.113,-19.9075,-160.3355,-2.5923,1.3074,-11.5276,2.2408,-3.0978,-17.3676,-3.7217,-0.51678,
7.4868,-11.0177,0.25682,-9.94,-13.8924,-164.8154,1.4196,-3.5918,-24.9359,-5.124,-6.2859,-29.8227,-2.0522,-4.8241,
2.458,-12.0436,4.8205,1.9849,-10.8899,-163.8445,15.4345,-2.1712,-29.8268,-1.2014,-8.0782,-23.454,-2.6522,-1.8838,
9.059,-9.8752,7.9057,2.8296,-10.2365,-156.424,15.1108,-3.0048,-13.9372,1.7627,-2.2908,-10.9595,-5.3856,-0.3245,
6.8282,-8.5594,9.6005,0.97264,-11.3095,-161.1385,1.9116,-3.5479,-2.3754,1.416,3.8722,-5.7227,-2.4109,1.8641,
0.39299,-8.7692,2.9989,-4.6293,-17.1384,-165.5702,0.59211,-0.68347,-14.5254,1.0901,0.024426,-6.1025,-0.57945,3.4395,
4.7082,-14.9914,-4.8938,-13.5106,-18.0383,-157.8052,3.931,-1.6068,-12.2076,-0.42158,-0.94137,-11.0387,-1.0266,-0.62325,
2.4973,-14.5737,-1.7074,-10.2892,-14.5457,-154.1212,-0.16098,0.41805,-6.6544,1.5321,5.8643,-9.4121,-0.96479,1.3426,
7.6503,-8.3968,1.7693,-6.2976,-14.1551,-158.8535,-4.0079,-2.0174,-18.7884,-0.97015,2.1377,-4.0269,-1.871,1.7437,
8.3961,-8.1344,2.386,-6.1612,-11.1366,-157.2765,6.1145,-3.5836,-7.7794,3.1854,1.2866,3.6863,-0.071515,-0.048127,
4.036,-5.7177,3.6891,-2.899,-10.9504,-146.8755,9.604,-1.9223,6.7873,6.8511,8.9221,4.4295,-0.54916,2.3653,
10.3013,-5.6161,1.7805,-2.0021,-14.3907,-145.0529,-1.3366,-1.0841,5.0546,1.3784,9.5916,1.0302,-2.2034,3.4283,
1.0066,-11.5456,-6.521,-8.6304,-17.8656,-150.4497,-5.5947,0.42724,-0.55113,3.2239,7.5703,0.48647,-1.1074,1.7768,
0.70499,-15.9143,-5.889,-14.1384,-18.4811,-155.0406,-1.1614,0.6428,1.6511,7.1276,9.285,-8.4608,2.0923,-1.9455,
3.314,-15.2007,-2.4019,-12.085,-20.5055,-141.1586,-2.7787,-2.0471,9.0241,3.5671,9.4515,-7.7119,-0.68407,-1.5876,
1.1872,-8.0219,-4.6682,-5.0932,-24.0956,-128.8325,-5.9867,0.0041577,22.5826,4.3172,12.2587,6.8508,-1.1252,3.3282,
5.9365,-8.5047,-4.3883,0.51483,-22.6497,-126.4054,-6.5916,0.0036794,10.9838,5.9861,7.6665,15.9602,-0.57551,2.1644,
-3.82,-10.6457,0.45449,6.9916,-21.5319,-116.1698,-4.991,-1.2016,-3.7752,3.9395,-4.1219,16.6896,-7.0492,3.7215,
-0.45751,-6.3918,2.5962,8.2596,-18.553,-120.528,0.36987,2.0037,-6.3205,4.9082,2.6331,11.1087,-8.3132,5.1857,
2.9446,-12.2746,-2.8616,3.4255,-20.3316,-127.3963,2.7585,-0.04444,6.1103,5.0963,12.1163,0.31928,-5.404,2.4642,
-0.36554,-9.8509,-1.485,6.8354,-21.7633,-133.3704,6.2079,3.5736,5.0205,6.9597,9.7021,8.2539,-2.4287,7.378,
7.1284,-5.1627,2.2192,-1.0468,-21.6626,-124.645,1.256,6.4925,-2.2706,8.2291,5.0229,9.4459,-3.97,5.2479,
3.326,-3.8888,2.0863,-4.8401,-22.7732,-131.2663,-1.7117,5.6208,-5.991,8.6995,8.0957,2.1302,-4.214,5.8971,
1.9214,-1.0042,1.238,4.3681,-26.9506,-137.4903,-2.8141,0.22162,-12.1392,2.6337,3.0305,7.0638,-4.6842,5.7845,
6.3856,-4.0772,1.8869,5.3111,-27.9844,-142.9792,-3.8503,-1.9606,-3.4567,3.6812,2.6079,17.0043,-2.2338,2.7861,
0.94083,-8.8942,0.086423,-1.5151,-26.0644,-138.4981,-0.96817,-1.602,7.1148,9.0039,9.4408,16.7074,-0.41255,6.2343,
5.7049,-7.3965,-0.40093,-5.2808,-27.3928,-137.901,-5.7306,-1.0237,3.3135,8.9454,11.7667,13.7766,-1.3519,7.3063,
6.0857,-1.8908,-1.1,-6.6509,-31.2931,-133.7243,-12.3764,1.2071,4.3198,12.5062,10.3376,18.9757,-1.512,11.4474,
8.854,3.2839,-2.7208,-10.3492,-28.2102,-129.3162,-4.162,4.7501,6.23,14.8893,5.62,18.5601,0.26597,14.376,
13.384,-0.046637,-1.8351,-6.5952,-25.7947,-121.3165,2.1133,8.08,1.7583,8.9343,6.97,17.2055,0.0090472,12.3082,
8.0017,-0.28481,-2.9298,-3.066,-27.8624,-115.7245,-4.0391,7.3543,-0.51631,8.6392,12.5773,18.3424,-2.643,10.8468,
7.2806,-1.4726,-6.3694,-8.9076,-24.9854,-116.2529,-5.4839,0.88747,-9.8851,8.3618,8.6892,7.3597,0.16709,8.9907,
0.095113,-9.0972,-6.9514,-4.0346,-21.0759,-108.3136,0.14751,-3.0224,-21.3433,1.5934,-1.9548,4.5079,1.6031,4.1131,
2.9817,-5.6591,-2.1957,1.9918,-17.8834,-100.8507,0.13889,2.9438,-8.4936,5.3544,0.090432,10.9861,-4.2774,2.4199,
9.0695,-7.2475,-2.5462,-5.3583,-18.7384,-108.8996,-7.5824,-0.60709,6.1161,10.8175,5.3874,5.0243,-9.8056,1.3106,
2.0174,-2.2334,4.596,4.8451,-14.963,-101.5223,-3.994,-1.776,5.8693,12.3376,2.895,11.2304,-0.29966,9.1857,
0.45012,-2.0994,4.3207,9.3747,-20.3317,-93.0206,-5.2006,-2.1513,-8.4621,5.3308,-3.5452,14.4131,2.1289,4.7782,
3.3159,-6.3119,1.6511,6.4023,-19.594,-99.0085,-1.9963,-0.57623,6.0251,9.8315,4.3805,18.8512,-0.89112,2.5635,
-0.49874,-8.1022,4.2034,4.3307,-14.3207,-99.0935,-4.0455,-0.78285,11.2072,10.4466,4.8404,17.479,-3.007,3.1328,
0.49528,-10.0264,6.3615,5.035,-12.9798,-79.0479,-10.5519,-1.7,2.3399,3.5535,3.1039,14.9842,2.9582,3.4266,
-9.1754,-6.0508,-3.6616,7.6254,-16.5393,-60.2051,-11.365,0.81215,5.0918,2.376,7.256,18.9054,2.7807,6.5954,
-3.8044,-0.38489,-3.9236,8.6139,-12.1727,-61.6544,-4.4159,3.6562,1.412,4.1619,9.231,13.4325,0.68543,7.6457,
0.28026,-7.5926,4.9889,3.7587,-8.5499,-66.1499,-0.77696,1.0262,-7.3496,0.53771,3.8569,4.4319,0.16237,4.7769,
-2.1469,-9.5474,6.1356,2.0872,-13.3393,-58.8067,-0.73011,-0.96332,6.1066,-0.94059,4.1072,6.0944,1.1167,4.4905,
-1.0538,-8.0103,0.46483,0.033752,-16.3953,-61.5448,-0.20437,-2.8337,16.3455,-0.88415,8.6815,10.067,3.4603,1.3285,
-9.4265,-5.8426,3.0883,0.27246,-11.3145,-51.8265,1.9773,-0.01237,15.6057,-1.5542,13.7039,17.8989,3.9754,1.49,
-4.2813,-3.3227,6.5186,4.3537,-8.4662,-41.2449,-0.31075,-1.6986,17.8031,-1.2198,15.5335,19.9582,3.4961,1.1599,
-0.65001,-3.1233,4.1989,12.2872,-12.2966,-43.109,-1.7384,-3.5254,14.8063,2.7093,7.3702,15.8687,1.8401,0.60788,
-7.1187,-5.5873,2.7419,13.7193,-15.1744,-42.2094,-1.3929,1.7481,4.036,2.788,2.8308,16.1216,1.0065,-1.1156,
-0.90725,-12.4826,4.9877,7.5938,-12.8179,-51.7282,-5.1659,-2.6954,-2.9549,-4.6099,10.3735,12.744,0.46399,-2.0127,
3.9677,-6.4313,8.5446,15.815,-9.1566,-54.8913,-1.9637,-3.4977,7.3453,-2.4054,18.9104,11.4972,1.4002,6.3025,
1.3193,-3.635,4.6577,12.4558,-15.3558,-46.7773,-1.8456,-1.3599,8.3509,3.5238,8.6165,12.2534,-2.058,0.62193,
-1.411,-7.0323,1.7271,-2.0304,-20.942,-42.2834,-0.53004,-1.0373,2.7881,6.9273,0.14577,18.0261,-0.24729,-2.5489,
-6.147,-4.6822,-1.269,-0.46229,-18.7216,-51.3158,-0.015849,-0.97511,5.5131,3.6196,4.4753,20.3185,1.2134,2.9067,
-0.95751,-7.2938,-0.71093,6.7963,-14.7058,-57.3957,-1.9431,-1.8805,11.4491,0.027976,10.9557,21.0276,-2.7158,-1.606,
-4.7562,-8.7841,0.29628,6.8707,-14.7875,-66.0033,-2.7906,-2.2498,17.0291,3.8829,10.2986,22.1768,-5.9271,-4.8839,
-2.5429,-3.9185,-0.6856,8.3869,-16.3106,-76.1431,-0.6952,-4.0428,9.2585,6.0603,6.306,16.9896,0.69526,0.22964,
0.020047,-7.0576,-2.0905,4.9914,-17.26,-85.6745,-0.17133,-5.7286,-5.397,-2.0163,3.9997,8.2576,4.0282,-0.74824,
0.50101,-5.1882,-2.9292,-2.5392,-15.7422,-85.1133,0.80305,-1.0464,-6.3988,-3.3414,4.2419,5.8338,0.89424,0.26075,
10.3531,0.18458,-2.5127,-3.5919,-15.0389,-94.1065,2.4423,-1.2248,6.7594,3.3668,1.336,13.9196,-1.8107,0.96824,
1.7777,-3.4419,-5.9773,-1.2072,-18.2339,-99.4269,-0.35577,-3.3205,7.0769,3.4058,-3.3239,19.11,-6.2818,-3.6696,
2.8764,-0.10191,-5.3777,0.070494,-16.4169,-95.1485,-0.57539,0.49419,2.555,1.9961,-1.4372,5.1889,-3.7358,0.64838,
12.1035,-0.33699,-3.85,0.307,-17.1189,-103.1781,-0.78206,-1.2225,3.6067,0.6713,1.7823,-7.8966,1.5498,4.7066,
4.8696,-5.8606,-5.7884,-2.3627,-21.1537,-106.3874,-2.9041,-1.3903,8.4518,3.2823,-0.011654,3.9051,1.698,-4.0117,
11.0852,-7.6784,-5.6818,-8.2468,-18.1973,-98.7991,-2.0072,2.7902,12.042,8.6288,-2.1803,9.2147,4.7294,-8.8324,
7.0458,-7.2174,-6.305,-4.8592,-18.0695,-103.4762,-0.92263,-1.2333,7.9451,4.2549,-3.4956,-1.4613,3.4815,0.85631,
3.9715,-0.75884,-2.3113,0.011639,-15.7803,-110.524,1.3023,-1.8822,-1.9316,-0.09774,-2.5629,-4.5071,2.0674,4.9023,
10.4824,-1.677,-2.6548,-6.7377,-13.387,-106.7847,2.6702,-0.32327,2.0411,-2.0198,-3.3728,-2.3083,2.4259,-6.4789,
3.5867,-3.0228,-6.3521,-3.9231,-14.9943,-97.0036,5.4023,0.66022,16.0186,-0.45308,-0.76052,10.3635,-1.0943,-4.6441,
2.6483,-3.5646,-0.90907,-1.0364,-15.7814,-92.3884,1.9449,-2.5126,7.9469,-0.1847,0.0082433,17.6956,-2.7156,-0.26786,
5.8639,-1.4225,3.9657,-0.49229,-13.3888,-87.8092,-0.58236,0.048238,-4.099,3.2008,-4.331,18.5616,4.6777,-6.0364,
4.3065,-0.61404,-10.3722,2.1886,-16.2009,-90.4946,-0.78816,4.1425,3.6185,3.2495,-10.0969,21.5455,-2.5926,-4.4691,
6.4587,-3.4693,-23.8499,2.5392,-18.1209,-96.152,-3.6329,2.9301,13.0426,1.6088,-3.2242,21.699,-8.7036,5.9219,
-0.19553,-6.1534,-32.5418,-3.8794,-17.0336,-96.1672,-9.1998,-0.61997,11.7781,1.5125,0.82591,13.6484,0.49551,1.2285,
3.9138,-6.5073,-23.1177,-7.7443,-10.4682,-94.0128,-3.1044,-1.3059,9.8661,5.5188,1.9814,7.7681,6.0092,-3.9071,
3.679,-6.1169,-16.428,-5.8333,-11.2861,-97.5308,2.3845,-2.1914,14.0948,9.0441,0.89867,9.7121,-1.0998,0.18417,
1.7708,-3.5809,-17.1293,-6.2069,-17.5989,-102.0433,-2.82,0.109,15.4181,7.2964,-3.2528,9.8525,0.65315,0.89579,
8.8956,-8.1866,-16.5837,-11.1369,-15.0967,-105.0798,-6.0255,0.10269,11.1188,3.002,-3.0579,9.2611,5.9164,-4.9423,
4.9872,-8.1771,-13.6603,-10.4685,-6.96,-96.8465,-0.36108,-2.3138,15.2721,4.2684,1.4641,15.4546,2.1872,-3.1997,
5.4111,-4.5532,-11.6356,-10.0816,-4.3733,-92.241,0.86565,-5.3083,23.2736,7.6274,2.5813,15.7324,0.36895,-1.3208,
6.2917,-7.8954,-13.589,-10.1996,-4.3518,-91.768,-1.3555,-3.7849,24.0468,9.8209,0.2573,10.6911,2.9979,-1.4825,
5.4323,-7.4217,-16.6301,-10.5519,-7.9471,-86.262,-0.79219,0.78095,12.4807,7.7858,-3.1326,12.9417,2.3361,-2.8393,
11.614,-6.7357,-17.8014,-12.5701,-11.0857,-71.6862,-3.396,0.01096,6.1882,8.5237,-0.77524,17.2266,2.4371,-4.3564,
1.276,-7.2956,-20.5897,-10.8518,-12.8309,-56.2978,-8.9766,-1.4357,9.6733,10.4222,-0.24657,15.2289,0.84441,-1.6847,
2.8864,-2.7603,-18.6314,-6.1031,-8.9278,-52.1971,-9.6435,-0.14452,7.4057,9.5562,-1.9192,11.6639,1.5169,-0.86047,
8.7393,0.53881,-15.3442,-3.0854,-6.2227,-48.824,-4.9671,0.58705,10.0948,9.2237,-2.527,19.8821,0.22103,-1.5317,
-0.22123,-1.1807,-14.6647,-6.5162,-5.6084,-38.423,-5.3924,1.7571,20.3352,10.3575,-2.1344,26.161,-0.99753,-0.71694,
4.3713,-5.6896,-15.472,-17.4534,-1.1746,-32.0203,-7.238,1.8927,13.0895,9.9771,-3.6936,18.5658,4.1235,-1.3973,
4.1093,-2.4555,-17.4358,-14.9597,2.2704,-23.3499,-3.9115,2.2613,3.1453,3.5941,-3.9541,15.0415,2.9125,-0.83128,
7.2372,6.8508,-7.7125,0.037895,6.9549,-7.8489,-0.78425,0.67933,10.1875,-0.96034,-2.2706,11.2469,1.2915,-2.2272,
13.0695,11.742,2.3912,14.1356,12.8041,4.0704,1.6729,-0.32576,15.3608,2.9537,-4.5445,9.6078,1.6959,-3.5398,
8.1882,13.6888,-4.7419,8.9489,15.1691,5.5134,8.5622,2.3451,7.4495,2.5357,-10.7795,13.6108,-4.4311,-3.5686,
17.8195,15.2778,-3.9757,2.1453,22.4539,15.3058,14.3152,3.6509,7.4842,0.93708,-3.866,20.5072,-0.30912,-4.3186,
10.9658,11.4686,-2.7728,-1.3579,17.7322,21.1361,4.2973,-1.8708,19.0867,0.39892,3.5968,12.0459,2.6019,-6.9516,
10.549,10.0574,-6.7041,-6.8198,9.6786,10.9501,-1.504,0.41037,22.521,2.5444,4.586,-2.7768,0.27644,-4.8475,
15.7005,4.1515,-9.6763,-11.2313,7.1695,-2.7223,-0.44962,3.278,17.3132,2.3915,4.3107,-4.6591,1.224,-5.0388,
3.4307,-0.19492,-10.7827,-9.3519,1.6781,1.5384,-1.1455,-1.4979,22.2999,4.8995,2.8472,9.7204,-0.53671,-9.7981,
3.4656,2.4681,-7.0025,-6.14,-3.0021,15.5461,0.61019,-1.6492,29.3978,5.8106,1.9532,20.1039,-0.26331,-9.9329,
1.8116,1.3559,-7.064,-5.7713,-7.1605,28.7133,-0.39052,2.3063,23.2959,4.4979,-2.5025,9.257,-0.24774,-4.0345,
4.595,-0.1717,-6.6406,-0.12241,-7.695,18.3136,-2.2953,2.6499,17.0774,11.4589,-5.7268,7.7372,-1.6791,-0.418,
10.5863,-2.5715,-4.3138,3.7413,-8.6793,3.1148,1.2169,3.4552,19.9091,11.7352,-3.937,13.0576,0.3498,-3.2854,
-0.65421,-4.3459,-9.3578,-1.7858,-14.4255,-0.32605,0.17955,3.2474,24.9811,6.6923,-3.2188,14.2023,1.2931,-5.0165,
3.4824,-5.29,-10.4834,1.9368,-12.3547,8.6116,-0.55413,-0.56237,25.1695,6.5322,-0.85652,16.4837,0.010259,-2.5464,
4.2373,-7.3832,-8.4083,7.6051,-11.1315,10.9869,1.4069,-0.046694,12.0901,4.2116,-6.1078,10.1915,-2.4005,0.98087,
1.5732,-0.19103,-5.4932,9.5592,-11.4275,4.5434,1.3227,7.1872,5.098,6.8517,-9.5975,12.4728,-0.81042,3.3324,
1.961,-1.1437,-5.1636,14.2881,-11.2238,2.3428,-0.20272,-0.47512,17.3258,5.9589,-5.6474,21.8475,-2.2078,-2.6519,
-2.9774,-0.11072,0.44882,22.5898,-11.5147,16.1815,5.1121,-5.7493,21.1065,-0.18371,-8.2006,18.1266,-3.5216,-4.9034,
1.5398,5.6803,7.6525,24.6086,-11.7881,20.5131,8.1796,-1.0658,7.7888,-0.65485,-18.3141,12.7,-6.6845,-4.6094,
-0.23961,2.2062,3.5777,23.3733,-9.8755,16.149,6.4838,1.1676,5.1521,8.3027,-17.9379,21.8201,-12.3092,-4.5736,
-4.3226,-1.0597,-5.0726,19.8018,-9.524,16.8673,3.4436,-0.10777,6.0483,7.0812,-14.6925,20.7523,-11.8117,-4.0582,
3.8901,2.6193,-2.5991,17.4084,-12.086,20.9167,-0.8608,0.13966,13.1572,0.1484,-8.7497,6.7323,-5.5593,-0.19929,
0.28266,3.4265,1.8952,14.4357,-12.3249,20.1439,-1.2911,1.0956,19.5986,3.032,-6.7785,7.2927,-7.6359,-1.1517,
0.50643,-4.7331,3.9508,3.6874,-6.5238,12.4275,5.776,-3.0677,6.6123,5.0195,-12.8795,13.8448,-10.7934,-4.6978,
3.3686,-6.8597,3.7138,1.056,-2.2762,12.1636,8.3215,0.49035,-0.53333,1.8258,-12.1067,8.6758,-4.8432,1.3687,
2.4433,-2.35,-2.0524,3.644,-3.8264,10.2292,-2.0595,5.0409,7.4531,-1.4165,-8.7285,0.2017,-3.8294,-1.3648,
6.3943,-3.4146,0.72204,9.4511,0.98249,17.5692,-4.1053,3.5334,11.103,4.2118,-2.1795,7.6612,-4.8047,-4.4161,
-3.1482,-8.5121,3.0891,11.7763,2.852,30.0126,-0.0023588,-0.53523,4.1701,4.9232,-3.0128,16.3608,-5.9625,-1.2589,
-1.0313,-6.5553,2.4216,3.3567,4.1271,27.7297,0.96188,-0.020958,2.9558,-0.19266,-4.76,13.9326,-4.6406,-1.1831,
1.2,-7.3671,3.9633,-1.4242,7.9766,20.522,1.6273,1.1854,12.6606,0.54157,-1.8235,17.1943,-1.2289,-0.38945,
-3.4515,-9.5764,3.0023,-0.13367,8.2211,22.9061,-0.63973,0.87305,20.8188,4.1247,0.93719,16.4033,-4.2885,1.3214,
3.9862,-9.9659,6.6784,-0.12542,9.6558,28.2805,0.36275,0.82089,16.6774,0.98495,2.8089,4.3321,-4.0314,-3.0965,
-4.9299,-10.814,9.6523,2.7744,11.9688,36.2246,5.6434,0.28948,1.5768,-8.7153,-2.1801,1.1799,-3.7897,-4.8391,
-5.8392,-5.1037,13.6527,12.0082,16.7945,48.1511,10.3667,2.9234,-9.2434,-11.3257,-4.2182,10.027,-3.8031,-3.3432,
-3.0784,-4.7977,13.7977,16.1077,18.1972,53.5777,6.8524,-1.5905,-1.9401,-9.2001,-0.59091,13.7639,-3.0927,-6.5173,
-6.2682,-2.0992,11.5235,17.5518,15.1771,48.917,3.5487,-5.8334,9.7455,-9.612,5.7115,11.9742,-4.3534,-6.1258,
2.3028,0.919,11.7962,19.8729,16.1949,52.2485,6.7105,-0.66293,4.8222,-11.4456,7.2968,8.8454,-2.6457,-2.384,
-4.3433,-1.7877,10.8475,19.8859,15.4642,61.888,7.9951,3.9561,-7.7592,-9.0716,0.83344,11.4477,-3.2104,-2.482,
-7.4569,-1.1978,9.2325,16.7643,10.1978,62.5133,0.28433,1.3089,-7.7758,-6.5989,-1.6265,15.0998,-10.7303,-5.7073,
-1.2247,-1.6081,9.1607,16.2406,12.9602,59.7264,-2.625,-0.69808,5.7059,-5.7213,5.7017,16.1218,-9.6048,-3.9188,
-9.3461,-4.4044,5.7188,14.3021,15.5568,67.712,-0.057164,-3.0666,9.7021,-5.8602,4.8775,12.7441,-4.208,-5.1302,
-6.8574,-4.6218,6.3398,10.5516,15.1055,77.7492,0.91036,-3.8467,3.3356,-5.0259,1.2106,9.0872,-5.4015,-8.6785,
-6.2048,-3.6214,4.7543,11.1236,12.0298,83.8101,-1.7956,-0.4826,7.2326,-7.8581,5.2351,14.0854,-13.5133,-4.0607,
-4.1455,0.2111,6.1561,19.374,12.9955,83.8429,-0.48278,0.75188,9.9324,-11.0018,5.6441,18.3021,-9.5693,0.76248,
-4.1377,-0.52492,12.2942,22.7909,13.9025,87.7302,0.75102,-0.49853,-2.4742,-11.0651,0.72572,8.7679,-1.5233,-2.4168,
-5.3357,6.2555,14.449,24.3159,14.0327,96.4461,0.70641,8.2085,-3.772,-10.4011,1.6465,4.3854,-1.9139,-2.2713,
2.2155,9.2548,8.2797,22.8572,13.191,93.0697,-1.7463,5.3056,-1.1353,-11.705,0.10168,6.5327,-4.2094,-3.0991,
-5.3895,7.0121,6.0955,18.3521,15.5328,92.5467,2.4556,-1.0385,-2.7542,-6.9056,-0.14562,12.166,-4.68,-1.2262,
-18.0813,1.2889,7.1758,8.0921,14.6006,95.1889,1.8265,-0.97642,-1.6248,-9.3836,4.2017,8.5438,-1.9888,-1.1528,
-14.5863,-9.3937,5.7813,1.822,12.2787,96.7084,-0.21125,1.4928,9.078,-11.2307,8.7703,8.0316,5.3614,-2.0475,
-13.4701,-10.0354,-0.59109,1.9537,7.9266,95.9673,0.042394,4.5367,10.7024,-2.1207,7.5207,14.5391,0.45994,-0.23745,
-8.0824,-9.192,-2.725,-5.6356,4.7992,83.7016,-7.9141,3.059,3.0702,-1.2708,5.8644,10.5335,-8.4855,-3.3569,
-3.4999,-10.8099,2.9823,-3.1281,8.6088,85.1872,-8.1624,9.3831,16.6245,-0.47142,12.0202,9.1784,-0.50478,2.8703,
-7.3877,-15.7049,0.63378,-3.1813,3.0311,82.7273,-5.0211,8.0972,18.2782,-1.166,10.0937,8.3867,-0.23353,3.9034,
0.28662,-14.2805,4.9343,-4.9184,3.8133,77.7636,-2.7919,4.7191,9.9509,-2.5421,12.3804,11.7401,4.1195,3.187,
-3.1053,-13.4239,4.6385,-5.1055,5.9944,78.4002,-8.4092,4.9177,4.0514,-6.2462,9.2272,13.4456,6.7642,5.8881,
-4.6059,-13.3411,-2.6295,-7.9324,2.0196,77.794,-8.6273,3.8999,2.6032,-5.6302,5.0584,15.2902,-1.1133,11.5606,
-8.4269,-14.7098,-4.6413,-8.1798,-4.6095,68.5467,-8.3506,-1.3957,7.0263,-3.1233,5.4778,15.5781,-7.5544,8.6978,
-6.4751,-9.4889,4.3142,-1.904,0.97013,65.398,-9.7778,1.0981,16.2457,-1.0077,9.006,11.2689,3.0222,1.427,
-4.1586,-12.7762,4.5376,-5.1644,3.3218,62.4382,-11.1195,1.0325,17.6813,-1.4294,7.0191,4.808,7.1794,-1.069,
-9.2115,-12.4918,-1.0376,-5.8187,-1.698,64.4765,-9.4883,3.8628,14.692,-0.86144,4.1876,11.7506,-3.3745,5.7438,
-3.5971,-10.055,3.1225,-3.7823,2.0193,69.0438,-6.7498,4.8359,10.1955,-0.086854,2.2496,11.2865,-9.6799,1.7842,
-4.5866,-14.031,3.658,-3.314,8.888,69.4809,-3.6933,-0.99742,9.3428,-0.80454,2.8375,5.5481,-1.1449,-3.3845,
-6.4806,-9.0918,0.78747,-1.4284,7.6314,66.999,-4.677,1.7135,9.9871,0.93096,6.2827,10.7584,6.8775,2.8441,
3.549,-9.5104,3.6325,-3.753,4.2812,64.9073,-6.8067,4.9849,5.0493,-1.0533,2.5315,8.1849,-1.2482,2.1913,
-4.3765,-13.2779,7.2707,0.32879,4.5065,70.1721,-3.0236,2.7579,4.7466,-2.4362,-0.030742,4.3196,-6.9576,-0.35007,
-8.4524,-11.5176,7.7986,3.2014,10.5029,65.9616,-1.3962,0.66397,5.4259,-6.1466,1.4171,5.9884,1.6543,-1.7756,
-3.3658,-12.9954,4.1974,-11.0907,12.524,47.9039,-2.9994,0.3834,-0.44303,-6.0185,-1.8012,-1.3606,3.7249,-2.3917,
0.45183,-7.6362,6.1149,-14.161,7.1931,39.8477,-2.0963,3.0117,5.6089,2.7785,-0.48802,-4.8941,1.332,3.2952,
0.66568,-8.8652,11.2917,0.42702,4.5923,46.8568,-1.7296,-2.7126,9.8521,-1.4856,-0.21777,-0.50313,0.046804,-2.4461,
-6.6051,-8.8153,10.1318,7.1498,13.4758,56.0965,4.6407,-0.62165,13.1173,-4.289,-0.2047,9.168,6.3105,-3.7456,
-4.7628,-7.8046,0.84699,-5.8124,10.7388,47.9102,1.47,1.826,7.9918,-1.1393,-0.19219,9.0997,8.8242,-2.0744,
-1.1028,-8.7824,-1.1318,-5.9458,5.756,38.287,-0.54663,-0.69437,-0.20076,-1.0708,2.2292,7.1076,5.4024,-0.5039,
-4.4108,-3.9169,0.86408,3.0878,7.821,33.0972,-3.8881,0.79378,-3.081,-1.4887,-2.725,0.89637,0.2578,4.3468,
-0.29002,-4.646,1.7763,-0.95363,4.4594,32.0755,-11.3678,3.6384,-2.414,-1.3996,-5.4538,-7.8343,-1.6861,3.6038,
-6.5389,-10.634,8.9008,-0.89618,7.5661,38.3461,-0.56258,3.9023,6.4077,-0.83344,0.17631,4.6871,1.7898,-1.9148,
-6.3875,-12.647,16.8024,2.2906,10.7275,29.5374,4.5329,-1.3935,11.0849,-1.0244,0.4067,16.6984,6.7441,-1.5589,
-3.5942,-16.227,16.2762,0.22499,0.44291,18.6061,-9.8391,-4.2024,6.563,0.48332,-2.9922,13.2859,7.3033,1.4266,
-6.2708,-9.9505,20.6025,5.9963,1.3804,29.0592,-7.682,4.727,9.5439,4.3109,1.5259,15.3815,1.5627,1.8232,
-5.6536,-11.5231,23.9457,-3.2815,6.3593,17.9154,4.1066,1.3099,3.9096,-8.2402,1.6753,4.0943,-7.9311,-5.758,
-3.6274,-12.5187,22.7501,-10.5567,2.8445,2.7405,-8.914,-0.45611,-1.3864,-8.469,3.2618,-1.6948,1.9445,0.61327,
-4.1329,-13.4546,10.0567,-9.2002,-4.7982,2.6967,-20.1893,-4.0439,-7.811,-4.8276,0.41478,1.0578,7.3717,4.1917,
-4.1256,-13.3704,12.5866,-0.21225,3.4436,16.2735,-4.8779,-5.0064,0.61167,0.04161,6.8981,11.3589,4.2781,2.2532,
-12.0728,-11.6043,20.0265,-1.6453,1.3088,10.9585,-2.5363,-4.224,14.675,4.3774,14.6789,15.4976,1.1289,-1.2565,
-2.9128,-11.149,15.6914,-11.9109,-7.2058,-3.799,-16.4842,-1.3195,27.8945,6.7663,23.1982,11.9162,8.051,-0.94012,
-2.979,-14.0953,4.868,-17.2218,-4.6039,-13.0915,-21.1592,-1.4808,18.749,1.2987,25.9036,11.9246,10.2195,-0.16035,
-6.1747,-9.3934,8.4323,-7.5119,0.97455,-2.6651,-7.3564,-0.91006,7.0188,0.25689,20.493,20.3681,5.7495,3.2233,
-6.0452,-8.1064,11.0599,3.3032,-8.9659,3.5206,-10.0485,-3.9889,8.7673,2.4106,16.6123,26.1359,1.3072,2.307,
-13.6364,-7.8613,2.9242,4.31,-15.8995,-7.5369,-17.3991,-3.5084,12.3383,2.5067,17.7845,26.7367,2.9162,1.9274,
-4.1414,-9.7999,2.2666,-10.0486,-3.3766,-21.1847,-12.4992,1.5221,9.6696,3.3204,18.6454,17.4195,6.5974,1.8119,
-1.2413,-18.6117,3.8179,-23.5456,5.2621,-29.675,-6.6874,-0.25598,5.4745,-0.011823,17.7681,9.3849,4.5143,1.9442,
-7.1924,-18.2181,0.45576,-23.8199,4.2231,-15.1203,-5.5632,-0.48159,6.3508,-0.25208,18.3893,17.7399,5.9307,2.5504,
-2.9047,-15.679,-2.4639,-15.642,2.0417,-8.9105,-13.4244,-2.3811,4.5238,2.6553,16.3218,22.9422,8.4671,-2.4231,
-3.9357,-10.6409,0.33505,-4.8216,-0.73235,-7.1708,-14.7881,-4.4074,2.5651,0.3264,13.1729,17.9503,4.3437,-1.0724,
-1.0478,-6.869,3.4482,-3.3272,1.9634,-5.5352,-1.6085,-1.4916,2.1705,1.5123,13.1061,11.3294,1.9141,1.6433,
-3.1543,-12.9646,1.0719,-13.0097,3.5326,-7.8544,4.0319,2.213,5.1735,7.4469,12.5605,16.1935,3.9682,2.2678,
-7.3034,-14.1146,-1.8845,-20.4239,0.42855,-15.0959,-1.5127,4.0089,6.7913,4.59,13.735,19.5602,3.2482,2.6137,
-0.11695,-10.3757,-0.80729,-13.4141,3.2947,-14.1904,-0.94023,1.3576,6.8655,-0.98785,19.1777,8.7454,9.802,1.0108,
-5.4119,-11.1992,-6.5432,-5.3782,1.651,-12.3747,-3.7756,-2.0977,1.6336,0.51746,11.2783,-1.902,10.178,-0.013924,
-1.9544,-9.3222,-3.4997,-2.4042,-0.13509,-10.9093,-7.6469,1.161,-3.0444,5.5479,0.23754,4.2374,2.0957,2.1558,
1.0554,-7.7988,4.423,-5.1524,-2.5376,-5.4342,-2.8496,4.4658,-2.3794,3.7687,4.5616,16.0343,-1.8869,3.4728,
-4.3106,-10.2231,0.78318,-17.8587,-5.2774,-9.4465,-1.2323,-0.6224,6.922,4.5069,17.3033,20.3749,1.1188,2.7825,
-0.91867,-16.5996,-4.8072,-29.0795,3.4752,-20.6901,-3.8097,-7.5752,20.2452,11.7081,21.8085,16.5011,7.5594,2.3743,
-10.0226,-17.0497,-10.3033,-26.8525,4.2305,-20.8947,-4.545,-4.2281,22.4049,7.6316,9.8952,5.3881,1.3213,0.78605,
-6.5287,-3.0113,-1.4904,-11.1414,2.0485,-5.541,2.4762,4.7027,24.917,7.1737,9.7834,6.5111,-0.20426,3.149,
-2.5216,-4.5176,0.28668,-6.4956,-2.1718,-3.6418,-7.0722,1.7694,19.807,9.3944,7.9916,6.8438,-0.43297,3.201,
-8.878,-9.7906,-4.3105,-8.2757,0.60986,-11.3775,-15.084,0.93965,9.7003,9.0715,-1.8882,3.2994,-1.1301,3.7321,
-9.7916,-11.1311,-3.0875,-9.7073,5.3935,-9.2486,-4.538,-3.937,-0.040728,1.7787,-6.1132,-1.7193,0.86588,0.13373,
-11.132,-9.017,0.95386,-5.7502,6.9983,-4.3551,5.3755,-4.6649,2.3721,0.22597,0.037945,-7.4004,1.778,-0.35646,
-7.3309,-5.3427,1.1378,-0.82569,2.4809,-6.263,-3.8651,1.1584,6.3273,6.7201,-0.687,-9.1258,-0.97998,1.3524,
-3.7577,-2.3708,0.34643,2.3571,-2.2475,-4.2,-11.105,0.84817,5.2246,8.0039,-6.6716,-0.14236,-1.6443,3.9226,
-10.04,-1.0235,0.084906,2.4569,-2.8353,-1.2967,-7.7874,-2.8184,4.6699,4.8724,-6.9944,2.9999,0.1418,5.3742,
-7.0272,-6.7469,0.56152,-3.9573,-5.558,-13.7523,-9.2483,-1.6852,4.3895,-1.6867,-6.575,-8.2676,3.0256,-1.215,
-5.1596,-6.3419,1.4919,-0.82755,-5.7062,-12.9272,-8.6934,1.3082,11.3572,1.3072,-3.7701,-10.6638,3.8081,-2.1062,
-5.5729,-2.3459,0.19757,6.6939,-3.6766,-2.7513,-4.5564,-4.3139,4.1683,4.3618,-3.3029,-5.4442,-0.035764,1.1537,
-4.2744,-5.5796,0.18549,9.6665,-4.4201,-1.1402,0.53746,-5.5011,-7.1693,-2.1666,-7.4433,-0.29754,1.4124,0.12035,
-11.7307,-2.8345,-2.2358,7.1583,-10.9038,-1.554,-2.3871,-0.3503,-3.3647,-6.375,-11.335,-0.76162,0.84573,-1.3331,
-5.4833,-0.01311,0.067538,5.0416,-6.1522,0.70865,-1.5207,1.3579,3.8271,-0.44885,-5.5932,-8.1877,-1.3742,0.43409,
-5.1547,-5.7971,-0.90084,4.2572,-4.3368,-2.2264,0.016325,-1.1341,4.0789,2.4701,-5.2581,-11.5529,-2.738,0.88998,
-3.8814,-3.0389,-2.2928,5.4478,-7.4508,-0.16461,0.015575,-0.58391,3.8344,-0.087961,-10.245,-2.1828,-0.64574,-0.60945,
1.172,0.51761,0.73704,7.5313,-5.5578,7.0759,2.9069,-3.4412,0.23013,-5.3856,-4.8099,1.3224,1.3214,-1.055,
-6.8521,-1.2007,-2.4407,2.982,-7.8758,8.3388,-0.40097,-2.5118,-0.98897,-4.8215,0.54041,-4.3006,1.0012,0.69548,
-4.5127,-6.4313,-9.0427,-8.2841,-13.1879,-6.1411,-9.5357,-0.43289,1.4805,-0.67578,-2.8665,-9.8271,0.94111,2.1,
-2.5545,-5.8042,-4.8845,-8.0283,-10.7091,-10.8341,0.43643,-1.13,5.9716,4.4267,-0.52509,-7.55,-0.80236,4.6253,
-2.8834,0.32886,5.0493,2.5766,-6.21,-0.54304,12.4616,-0.58008,5.6131,4.1608,5.7732,-3.2404,-1.2364,1.9375,
1.6279,-2.1012,4.7464,2.422,-7.2836,-2.9208,5.4474,-0.063342,7.2045,-0.90906,5.9087,-4.4923,2.2123,-1.0713,
-6.4235,-5.1084,-3.9741,-4.7132,-11.9083,-8.7711,-4.7616,-2.2287,11.352,-4.9519,3.385,-3.9818,0.3923,0.6802,
-1.4586,-1.6687,-1.0843,0.63147,-10.4707,-2.2191,1.5496,-3.782,12.8398,-2.0034,7.7614,-0.12766,3.502,1.3625,
2.0034,-4.4608,2.3547,3.0037,-8.8786,-1.1221,5.7949,-1.1449,11.1055,1.9727,8.2596,-2.0482,7.1483,-3.5399,
1.1603,-1.0599,-0.43764,-1.2739,-6.1765,-1.2955,4.7243,2.0573,13.5727,2.5777,7.5235,-2.1663,3.104,-2.6042,
3.5006,1.4138,-0.41161,1.6944,-4.842,5.0485,4.923,-1.9228,15.1682,2.4228,10.9283,0.856,-0.4565,1.4082,
-3.4584,-0.11705,-3.279,5.4496,-8.8898,-0.55679,3.1814,-3.7356,11.848,0.83118,5.9338,-0.15969,0.052826,0.35986,
3.498,-1.0741,-5.9748,-3.0726,-9.3205,-11.1284,0.58039,-0.61897,8.727,3.1919,4.132,-4.006,2.9422,-1.108,
5.4573,-3.661,-2.0008,-6.5036,-8.5203,-5.3993,1.2685,-1.7871,10.8545,8.0616,12.3197,5.1519,4.4524,0.16378,
