"AF3","AF4","F3","F4","F7","F8","FC5","FC6","O1","O2","P7","P8","T7","T8",
-6.2667,3.3742,23.6205,41.4562,1.446,8.6769,-3.8566,-16.3896,-16.3896,-15.4258,35.1896,14.4615,-8.1949,-1.446,
-2.7573,6.3053,28.7112,46.923,-1.2918,20.4488,1.4365,-12.7552,-5.5243,-14.2588,40.5501,22.9938,-3.1235,-1.6002,
-7.8942,7.8554,30.3627,46.9999,-6.0348,26.9344,-1.0596,-12.4716,1.5558,-14.3674,39.5636,15.8298,0.43814,-1.9864,
-5.9748,9.7942,23.7203,43.698,-5.1908,19.0518,-4.8529,-10.7594,2.9087,-12.0595,43.4563,15.3619,-1.5163,-1.3853,
-10.4368,2.4578,15.0664,36.2551,-7.2897,10.6781,-7.9359,-13.0061,3.2164,-12.3001,39.4024,15.8862,-12.5128,-1.7843,
2.482,12.6742,18.2598,29.5006,-1.3087,10.2784,-1.9162,-10.0566,0.37182,-9.8748,32.9409,11.3177,-9.5929,-2.8821,
-2.0057,13.842,21.0206,29.1768,-0.2663,7.2511,0.12699,-7.525,-5.917,-5.9079,31.9288,11.1205,3.0342,-0.78143,
-5.9828,13.2524,20.9647,29.1134,-5.3115,2.2367,-7.8344,-4.9044,-3.3928,-2.9023,26.8796,15.033,-0.2813,2.8813,
2.0892,16.7958,18.2603,23.9919,1.7558,4.0305,-9.2927,-8.4662,-2.7071,-4.6561,18.0362,18.9515,-10.3876,-2.5944,
-11.5335,6.629,10.4162,15.804,7.4351,6.6812,-3.9145,-15.1891,-16.6447,-12.0895,12.1333,19.7426,-8.8,-7.7409,
-0.71835,16.8368,13.1655,11.9634,2.1685,7.7263,-5.608,-4.6366,-18.4176,-5.0974,17.1901,17.594,0.88729,-0.045877,
2.2168,19.2006,16.2319,12.2095,-3.7462,8.709,-9.1279,-2.4306,-3.2125,0.028671,21.4613,24.2511,-1.0946,1.8851,
-7.5574,10.818,8.0274,8.1027,0.8171,8.1863,-3.2778,-9.9973,4.0901,-7.2041,18.2452,32.9192,-10.6701,-3.5309,
-1.8011,13.0612,-1.613,-1.0603,3.6604,1.9107,0.77546,-11.8079,-10.2553,-8.2174,14.2582,29.9799,-9.5473,-6.2109,
-6.0316,10.3495,0.89364,0.44931,5.3692,-5.4345,-0.23516,-10.6172,-6.6272,3.8445,17.7413,31.0734,-0.77998,-1.5001,
-2.0542,14.3079,3.4916,2.1096,0.9492,-9.6882,-7.2109,-7.3291,7.8705,-0.48349,10.1689,30.8963,-7.2407,1.2414,
-8.9206,10.7981,-2.7437,2.2242,-7.0613,4.9931,-10.3935,-10.0226,6.7958,-12.7468,-0.32296,31.6938,-16.6884,-1.0025,
-12.242,17.3808,-2.5793,13.6597,-3.2634,18.7935,-4.9494,-7.0109,7.8341,-3.787,8.3733,39.4329,-8.4565,-2.3883,
-2.8306,28.3893,-1.9424,16.2148,-5.4779,30.6815,-12.3654,-5.6261,9.7744,-3.0776,2.5685,31.7645,-11.3233,-6.5836,
-9.8914,17.0452,-5.682,8.0108,-15.2724,21.1276,-19.818,-9.1452,9.1877,-11.0879,-8.1912,22.1461,-19.8027,-4.2602,
-4.2367,17.7092,-10.4028,0.5403,-15.5613,17.2084,-17.906,-4.0167,5.5034,-6.8077,-1.6741,19.612,-14.9991,-0.87151,
-1.5724,20.985,-11.7068,-1.9022,-9.8069,10.8733,-14.4215,-0.88367,9.9935,1.3135,2.2827,26.63,-11.6891,0.62704,
-9.4313,19.0035,-9.3172,0.38151,-8.4952,14.3187,-13.7972,-4.928,18.3119,-5.7547,-5.3256,28.6476,-14.6031,-1.0978,
-0.67072,25.0936,-4.9017,3.2507,-6.0573,20.6904,-11.5231,-4.1504,19.6233,-12.1583,-4.5241,25.9649,-11.3168,-4.8883,
-2.7996,18.0444,-6.2949,-1.5241,-6.4172,12.9411,-8.6625,-2.2141,14.8305,-3.957,-3.0479,24.1656,-9.4325,-2.9078,
0.019437,17.2032,-9.5326,-12.7604,-7.7194,-1.5737,-13.2045,-0.876,3.5768,-3.4782,-10.8187,11.8699,-9.1075,0.88208,
0.5002,16.1705,-7.5144,-17.2979,-6.7743,-3.8899,-15.7867,-4.6798,3.3622,-9.5364,-12.5797,3.9268,-7.1153,-0.6171,
-6.0373,14.9598,-6.8225,-10.234,-5.1625,1.4056,-13.1518,-5.6039,15.9349,-6.3127,-8.2095,14.0555,-9.8214,-0.82104,
0.59123,19.3641,-7.3773,-12.0303,-2.9248,-8.3204,-9.9528,-2.8577,17.8707,-3.524,-6.2709,17.5503,-7.7861,0.19232,
-1.8541,19.1664,-3.0785,-19.0215,-0.8209,-16.0156,-8.8734,-2.2041,14.3885,-0.90224,-6.3768,8.7843,-1.0522,3.0731,
1.6316,31.9962,2.4093,-19.326,0.19268,-8.7877,-9.7873,1.3026,11.597,2.0444,-12.7427,3.437,-5.3274,1.4424,
1.2927,37.0663,0.095145,-14.551,-2.9524,-1.271,-9.923,1.4654,9.214,-1.6937,-17.0398,5.3999,-9.5875,-1.2952,
-7.221,32.1907,-4.0079,-10.5449,-6.3906,-2.882,-11.9791,-2.2379,5.0457,-5.2075,-15.7764,10.6195,-10.217,-1.4585,
3.5766,35.321,0.81185,-6.2968,-1.9099,-1.9862,-9.5732,-2.827,3.5377,-0.79767,-16.999,16.9722,-7.9168,0.7982,
5.5309,33.4424,5.3427,-7.606,2.7843,2.7125,-3.4554,2.404,2.6023,1.9015,-19.1123,13.3026,-2.8627,3.8836,
7.1275,34.8106,3.5761,-14.3803,5.5095,2.0681,-2.2835,7.5627,-2.3739,-3.515,-17.0015,1.4174,-4.6189,2.2045,
5.9767,28.1424,1.1921,-15.6868,5.4201,1.2208,-4.3159,2.0475,-4.8828,-6.4378,-15.2583,0.12686,-8.4394,-1.5434,
4.413,26.6951,2.808,-13.5406,5.818,1.3883,-1.8875,3.1297,-0.49267,3.3487,-15.0659,11.4477,-1.4253,2.6468,
13.5483,31.1189,2.8805,-20.1999,3.7817,-6.6487,-2.9796,4.1467,1.706,8.6914,-16.8135,12.448,1.3113,4.6571,
5.5045,19.1289,1.2619,-16.0954,5.483,-3.8392,-3.2827,-3.3324,6.4244,5.2778,-12.9122,6.8809,-4.0696,-0.44254,
-0.36913,14.8474,-2.9114,-13.4427,7.3234,-4.8144,-2.8446,-6.7482,5.7982,-2.5109,-11.4143,0.9242,-13.2256,-7.888,
7.8477,16.3672,-1.2905,-21.3128,10.7404,-16.5766,2.1464,-1.5226,8.8243,0.04991,-3.4986,4.7251,-7.6114,-3.5584,
7.3769,5.2618,1.679,-29.1935,11.5418,-23.7772,4.4277,0.497,15.5257,6.3134,5.3879,4.9236,5.8607,0.029597,
12.4781,1.3309,0.37322,-25.2725,8.6803,-17.2886,-1.3813,1.6722,13.871,4.2476,4.8239,-1.8796,4.304,-2.1416,
3.2933,-4.2926,-1.3364,-19.1764,5.026,-10.2258,-5.3958,-3.0074,7.9775,-1.0685,-3.9012,-0.079561,-10.0542,-5.628,
3.0957,0.78569,6.9385,-14.1694,8.5809,-9.6122,4.5689,-1.8631,6.5346,1.8877,-9.4517,2.3358,-11.0175,-4.3265,
4.3562,-1.672,9.8966,-14.2836,6.6198,-9.0355,7.6692,-2.7152,-1.5703,-3.0463,-11.2952,-5.9995,-2.1617,-8.4052,
-3.1362,-6.8741,2.0722,-7.1598,5.2585,2.5936,4.7987,-3.0344,-1.4763,-5.2734,-7.7252,0.14527,-3.9604,-6.4549,
2.8367,-3.0875,-8.1757,-6.2485,4.4608,4.8484,-1.756,-1.4063,-1.8699,-5.4396,-10.154,6.4028,-9.9896,-6.0678,
0.25641,-6.2767,-6.2389,-6.3556,4.1932,6.9676,-0.68674,3.4983,-3.2035,-0.29251,-7.1346,6.5006,-2.1593,-2.8112,
-1.6874,-3.9716,-6.8282,-9.8304,5.3881,6.5498,2.2472,7.145,-5.9036,3.5817,-5.26,7.0751,0.86251,1.2136,
6.1269,0.12327,-10.2751,-15.0249,8.9214,0.85437,2.1122,5.2703,-7.4773,7.2234,-8.801,9.5429,-3.0454,2.5873,
-2.4357,-10.4896,-6.7663,-10.7492,5.9757,3.6954,1.0213,-0.83027,-1.7263,5.8259,-4.4164,13.7908,-1.8986,1.9499,
-1.0845,-11.0653,-4.1914,-4.5609,3.4478,10.9453,3.6114,-1.504,2.4744,-1.5138,2.8383,13.2041,-5.4003,-4.1929,
-0.29629,-8.232,-8.0371,-1.6359,8.3024,17.7601,9.4205,-1.6545,1.1209,-2.1461,2.9087,9.7605,-7.2457,-5.1464,
-4.858,-5.0872,-10.6881,1.5955,3.2247,28.9868,5.7215,-0.83259,-4.4902,-2.2585,-4.7374,3.6315,-2.2314,-3.1506,
-0.22823,1.003,-5.2265,8.2487,-1.3071,39.7811,2.0042,0.18169,-5.6666,-5.0151,-7.8276,1.4854,0.79498,-3.4435,
3.883,-0.26267,1.5948,7.5126,11.0636,41.4918,10.8018,0.41199,-11.8343,-1.5809,-8.563,-4.6295,-2.386,-1.5499,
13.532,6.261,2.7044,-0.40998,15.9434,32.4948,13.7691,0.1463,-25.2242,1.1655,-14.0748,-17.1257,-7.7864,-5.0719,
3.8022,5.1627,4.2296,9.0148,7.9972,36.0885,12.2199,-6.8521,-25.5185,-9.2685,-17.8098,-23.5702,-10.9344,-14.6497,
-5.5847,3.8884,4.4575,19.561,12.3378,48.0232,15.8252,-11.7439,-9.8874,-21.2461,-16.7414,-25.5302,-12.2068,-16.1811,
1.4988,5.1013,-3.0408,9.7102,17.3822,47.4314,11.5012,-11.0392,-4.112,-17.5608,-12.8444,-14.8398,-9.0643,-15.2102,
1.1682,5.0365,0.27536,6.9587,18.9905,38.5602,9.1242,-0.97665,-3.6245,-2.4071,-4.6022,0.15057,2.3261,-4.4154,
3.9904,7.6266,4.5969,7.0233,19.2971,26.6054,9.0584,1.4918,-15.4584,-0.69619,-12.0386,-7.4505,-2.152,-3.1864,
0.85842,-1.5081,3.3572,1.2993,17.1754,22.1166,11.4074,-7.7562,-16.4586,-5.4747,-12.7626,-8.9317,-10.7,-7.8155,
-4.7367,-5.515,3.8787,1.9442,12.0471,18.1385,11.4459,-5.6041,-3.661,0.87936,-3.5611,5.7042,-5.4783,-3.7316,
2.5372,5.6619,7.2616,8.3353,8.673,8.6143,6.1796,7.5068,-2.7182,4.4418,-3.5882,-7.7739,2.8039,3,
1.903,7.7323,13.0925,14.584,11.527,11.4719,8.7014,9.9485,-3.0375,8.5141,-2.891,-13.574,13.241,7.6407,
0.10181,5.0995,8.2093,5.755,5.292,4.7578,5.046,-1.0125,-5.0242,4.3876,0.41574,-1.9135,13.1697,-0.28976,
-9.3041,-4.1243,0.24519,-1.098,-6.8359,-8.3019,-2.7283,-7.9414,-3.5176,-2.8653,1.1139,0.37066,3.4617,-9.1902,
-22.8458,-9.9027,-0.010719,7.8857,-9.077,-5.6344,-2.8058,-9.6339,8.0218,-1.006,-2.0862,3.4817,-3.7357,-8.8795,
-10.5088,3.2245,4.8106,11.7509,-2.7478,-6.7426,-0.22733,-2.3074,7.0581,4.8385,-7.7456,6.1648,-0.61949,-1.1164,
-1.9245,3.7544,10.5475,7.4304,-0.89573,-15.2561,3.4017,6.7491,-3.2473,12.502,-4.1478,5.072,8.3358,11.7251,
-5.6654,-0.32723,8.4684,3.1282,-4.6984,-17.2333,5.1258,2.9697,-5.945,12.2342,0.43984,2.3576,8.3175,9.0934,
-4.6024,1.3794,6.7553,3.6637,3.0551,-7.7634,7.4696,-2.7523,-1.0088,8.8489,-3.2022,2.4569,7.5773,3.0044,
-9.6287,-3.0419,4.4215,1.5159,1.4258,-9.7079,6.0573,-2.105,0.015864,7.3538,-7.8306,1.3454,5.1947,5.7164,
0.10764,1.9613,7.0488,2.8707,-7.8188,-16.3563,5.2115,3.8059,-0.94895,8.3584,-1.0937,0.78271,2.4724,8.2655,
-1.3444,-0.084328,8.0723,3.663,-9.2776,-14.4103,2.9708,5.024,-1.3742,7.8571,0.41791,-4.5667,2.8067,8.2517,
-2.469,2.0894,4.454,-1.1365,-5.1056,-17.1611,-0.82284,5.9274,-6.3534,9.5549,-9.0072,-10.8006,7.6995,8.9619,
2.7406,2.2053,6.8381,-1.3095,-5.0404,-22.6392,2.3598,3.4024,-16.8182,9.2228,-12.0824,-10.3938,13.2629,8.183,
-4.1728,-7.0861,9.3203,2.1435,-2.8098,-16.9425,8.9671,-1.1401,-11.9528,5.2949,-6.5367,-9.2878,11.5032,4.3176,
-1.994,-3.2862,2.0124,-6.662,-1.6771,-17.8539,6.0187,-0.10759,0.81573,-0.32517,-3.2522,-13.069,7.4388,3.0944,
-1.3924,-3.5715,0.44544,-13.0107,-2.0584,-22.5673,7.5858,2.3095,-3.0896,3.5507,0.31735,-7.4642,11.3308,10.1396,
-1.5501,-9.3829,2.1057,-8.6149,-2.1761,-17.598,14.6022,-0.48089,-15.6789,4.5427,-9.1019,-2.4373,6.0714,6.398,
0.2304,-13.881,3.6668,-3.0365,1.5701,-11.4807,14.4497,-2.621,-9.1943,3.547,-14.0992,-3.0137,0.16376,0.95262,
-5.809,-17.6278,6.0984,-5.9873,-1.6576,-22.1201,6.1109,-1.2584,-4.0629,7.432,-9.1559,-5.4844,7.1438,4.9928,
4.1808,-7.8933,10.553,-7.5565,-3.0042,-26.5772,7.1903,6.5301,-10.5678,8.9141,-6.6781,-10.9397,11.5357,13.3701,
-5.2291,-18.0245,4.6171,-7.5851,-2.8239,-18.2341,13.0254,-2.0569,-11.8619,-3.1899,-10.1338,-17.9961,-0.2437,5.3371,
-14.0749,-20.7999,2.4114,-3.2736,1.2014,-11.3555,14.172,-9.6467,1.3828,-6.373,-6.6337,-11.1322,1.6987,-4.1422,
-11.7837,-20.5158,-2.5535,-5.0054,1.6118,-18.3869,6.0913,-11.9595,8.5307,-0.20602,-4.307,-6.1255,9.31,-3.8932,
-10.354,-25.3106,-2.1591,-5.4282,1.2743,-18.4888,5.4847,-6.6629,9.2239,8.2422,-0.91536,-9.3732,11.8846,1.8838,
3.7649,-12.7045,2.309,-3.6564,-2.6588,-16.8973,9.0117,0.96797,-0.48834,5.3373,0.58559,-18.9339,8.7612,6.1093,
0.64645,-10.9784,2.1705,-0.062608,-7.32,-13.9553,7.5072,-0.054438,-1.9053,-0.28554,-3.3059,-16.3516,5.3435,6.7066,
-5.8998,-12.9712,3.2451,4.5204,-8.568,-8.5387,4.8871,-0.29214,3.7526,1.4188,-3.8309,-8.3811,5.2638,2.6888,
4.8183,-9.5412,8.5942,5.9367,-3.9563,-6.8208,6.2813,1.8948,-1.534,0.12909,3.871,-9.5652,5.1892,1.3224,
-6.3173,-17.887,4.9448,1.9648,-2.0319,-11.4735,7.5915,-1.8346,-9.8783,-4.9406,0.98737,-13.5708,4.1542,1.9662,
-0.39421,-8.8596,5.8534,4.0165,1.7059,-17.2926,11.2338,4.3015,-3.7415,4.7559,-0.27716,-7.6949,8.9671,5.9456,
5.414,-7.8461,6.9485,9.0777,-1.289,-19.1475,10.0774,5.4892,1.7856,8.8088,0.70379,-3.3768,6.9824,1.2505,
-0.21346,-9.7854,6.5316,14.3181,-2.176,-7.3934,6.5807,2.7498,-1.2141,2.0138,-0.78469,-6.0667,2.2251,0.21116,
0.28128,-8.2344,2.2833,8.6383,-2.0454,-3.5753,2.8114,-1.2716,-10.3002,-7.748,-8.4504,-14.8618,4.0198,-0.76538,
-4.797,-14.2481,4.3157,12.6995,-3.6097,-3.1196,6.2583,-5.7748,-8.4767,-7.0419,-5.292,-6.0161,9.8044,0.96754,
0.79342,-7.1267,13.2153,24.471,-4.3575,2.3698,11.185,-2.0539,-2.6659,-2.763,0.32813,4.4678,1.0214,1.8738,
2.4328,-4.0473,16.52,26.136,-3.8548,0.54058,10.2732,3.6127,-2.2648,-0.91025,-0.89662,-2.3075,-0.24492,1.5202,
-6.631,-12.7228,9.5035,21.4346,-4.8286,-8.8921,3.1491,0.2627,-5.7441,-2.0607,-2.5303,-3.3746,6.7594,5.5266,
0.51577,-13.8876,6.0407,18.7023,-2.6107,-10.2868,5.3703,-3.6094,-8.2919,-1.9371,-0.45027,9.8433,4.9076,5.6769,
-2.4077,-14.5001,9.0528,19.0264,0.43848,-7.7414,13.7252,-2.4286,-6.3482,2.5175,2.4693,14.0734,3.6493,1.4799,
5.9317,-4.9537,11.4019,23.1872,4.2683,-9.2048,14.3477,5.9116,-0.18293,6.2231,5.2134,9.3724,7.7684,3.3191,
7.504,-9.4767,6.3794,23.2423,0.63778,-12.5089,7.2203,1.2186,0.31044,-1.3812,3.9363,4.9537,5.3741,2.638,
-2.3465,-15.4159,3.8273,18.714,-3.4981,-11.0357,7.0278,-3.434,2.9427,-4.9139,6.3514,4.8976,5.2929,1.2747,
5.5075,-7.2601,1.6695,13.7352,-4.2521,-10.8551,4.678,4.9672,1.8023,2.6122,4.5245,5.0857,9.3136,3.1264,
-2.054,-15.0194,-1.8054,9.0545,-4.4791,-12.6146,-1.3875,6.5971,-4.0907,8.2398,-3.9423,4.7803,5.3806,3.4209,
-1.6895,-11.9488,3.3644,12.6088,2.2974,-10.1702,4.7215,4.5138,0.73427,5.576,1.838,8.1092,7.7091,1.5282,
3.7142,-11.7141,6.0553,13.7803,-3.1429,-11.9704,6.3666,-1.0594,1.6543,-5.3636,7.9945,3.2841,7.2463,-1.4558,
1.322,-13.1806,7.8609,16.5686,-3.6775,-9.5652,6.2254,3.1017,-3.9888,0.019672,5.3454,-1.0106,5.6064,3.693,
5.0993,-6.605,4.015,17.021,-0.082584,-9.9554,6.334,5.8079,-12.9083,3.3932,0.20424,-7.2162,2.3778,3.4717,
-0.26811,-14.645,1.1228,13.8304,-3.2109,-9.1168,7.159,-0.56633,-12.375,-4.2825,5.7354,-6.5425,4.404,0.13013,
-0.011054,-20.7557,-1.1137,5.0468,-3.2592,-8.8108,1.6683,-1.2552,-11.391,-8.1229,5.1503,-5.4266,6.3094,1.8096,
6.2561,-19.9923,-2.0112,2.8158,4.6491,-9.7284,1.0858,2.6765,-14.082,-4.261,1.9492,-7.5116,6.8947,4.1111,
-5.2065,-25.0598,-1.8906,5.057,2.9239,-9.1447,8.7334,-0.85859,-14.2014,-4.0058,4.2424,-8.5071,7.9273,0.0080528,
2.578,-19.9405,2.8024,6.9229,2.5077,-7.8729,13.2709,-0.56587,-8.2874,-5.4525,7.1211,-3.8991,8.6567,-3.6076,
1.218,-18.5031,3.8395,14.4613,0.18812,-8.6053,8.8596,-0.77289,1.1279,-3.4381,5.9709,5.2529,5.9681,-0.74007,
-7.532,-14.5007,-1.6937,20.8242,-13.8031,-11.9456,1.097,-4.1012,-0.38629,-4.6778,3.2023,4.4555,5.1279,1.7142,
0.63296,-7.3639,-2.0738,24.8777,-10.5641,-11.7106,2.4777,-3.8549,-3.2549,-4.3969,3.9743,0.81398,6.7486,-0.79852,
-2.7795,-10.2965,0.46076,26.759,1.6384,-8.1164,10.0413,-5.0699,-0.16805,-5.5798,6.6279,1.2471,1.0411,-4.1251,
3.1721,-3.412,3.8078,22.7436,2.5047,-7.1468,13.7778,-3.8016,-7.3886,-9.5831,6.2304,-2.6839,-1.4317,-3.3954,
3.2225,-8.2687,2.8557,13.9069,-3.1895,-13.7081,8.8536,-5.7429,-14.8992,-8.2855,2.7233,-11.9231,5.6438,-5.3611,
1.8241,-9.942,1.4793,15.2419,-4.2032,-22.7673,5.1891,-2.747,-7.0152,-0.79826,7.1395,-20.1255,8.9208,-5.7621,
8.7043,0.53672,5.9701,21.7989,-3.2278,-18.7504,5.1185,0.5511,-7.7993,-1.4735,6.4699,-17.713,1.8779,-5.6575,
-0.25363,-4.0752,11.1555,29.4091,0.58125,-3.8866,10.355,-1.6511,-9.9829,-3.0723,1.9844,-2.5502,2.0062,-2.667,
3.618,-1.4201,8.558,27.1626,2.4746,-3.1715,12.1443,-1.0697,-9.8659,-3.8518,0.41903,-2.2765,3.3321,0.38555,
5.3289,-0.85322,4.1883,16.3736,-0.56619,-8.284,9.0053,-2.452,-12.1662,-6.5135,4.2505,-16.1194,0.23984,-3.4942,
-2.2215,-5.1401,3.9368,12.4993,-1.0144,-6.3405,9.4291,-6.161,-7.5796,-6.1224,7.8521,-12.2599,1.6715,-8.587,
3.6962,-5.3139,0.80831,2.5901,-1.9176,-16.0832,6.453,-9.166,-7.607,-6.2373,7.3807,-12.9708,2.5353,-9.5178,
3.4746,-11.7437,-3.0963,-6.7241,-0.35653,-25.2413,5.1017,-5.7233,-9.079,-0.07821,14.6509,-17.0131,4.3116,-4.1262,
5.1943,-11.0396,-9.1775,-9.2132,-0.81707,-25.6551,1.9031,-0.077737,-3.714,2.3366,17.6278,-13.0998,4.0524,-4.361,
4.6419,-8.6897,-11.7601,-6.9729,-1.9731,-16.1618,1.5481,0.16812,7.3553,0.99135,18.7395,-3.8779,4.0505,-1.4476,
-4.0727,-8.8912,-12.7418,-3.4215,-1.1318,-4.8282,3.6244,-3.9393,4.7448,0.6909,14.4816,0.93409,-0.77183,5.6287,
1.9562,-1.6093,-11.4953,-0.32417,0.38234,-0.68213,1.4783,-4.1854,-6.1452,-0.79681,4.9361,2.8062,-1.2079,1.4346,
-2.4997,-3.9231,-5.9851,5.4801,-2.5329,2.733,3.318,-2.9701,-12.0432,-1.7131,0.78332,9.3865,2.7212,-1.5438,
1.5071,2.0973,0.15903,8.5262,-0.45272,5.944,12.2784,-0.38134,-20.4792,-3.538,0.73678,7.8595,0.14778,2.4052,
2.3803,2.9351,-3.2252,4.1575,2.4667,3.6589,11.0591,-1.323,-28.8916,-6.7009,-2.6821,-6.7121,-3.7177,1.2968,
0.55029,3.4824,-1.8264,10.416,-6.5993,5.1266,0.51363,4.3004,-18.2401,0.20909,1.0942,-17.0351,-0.84309,5.7983,
6.0609,6.4069,-5.8142,8.1038,-19.9417,-2.1709,-9.3991,3.3191,-9.1919,-0.52636,1.2695,-9.9875,-6.3361,2.3174,
3.0459,6.2632,-5.2246,10.7509,-4.6452,10.2517,3.939,3.3611,-0.68642,0.71029,4.809,1.9402,0.069371,4.8296,
-5.0906,2.7539,-11.901,2.634,2.7439,11.3238,0.087285,-2.8666,-12.4558,-8.7323,-3.9157,-6.1304,-1.622,-2.9324,
1.9633,5.9632,-4.9199,3.9222,2.5792,4.8598,0.56398,-0.76638,-8.816,-4.352,2.5858,-8.1727,-0.56037,0.13606,
-1.2873,-1.8662,-2.9378,3.9281,-0.22684,-0.97519,8.0022,-4.3356,-4.1894,-2.8858,4.6,-14.672,-3.1781,2.7792,
7.7075,6.6819,-1.0743,4.8977,3.4022,-1.1581,10.1736,0.5043,-17.1944,-2.9536,-5.076,-22.7093,-0.33584,2.3715,
5.3171,7.2446,5.7389,3.6393,4.1622,-3.499,10.0449,5.2945,-29.6606,-1.8123,-10.0738,-21.8289,2.0942,3.6752,
3.7928,4.1589,4.6716,-1.1584,3.1891,-4.0119,13.0576,2.3253,-21.8552,-6.7653,-0.55178,-20.7601,-0.68253,2.7318,
6.4575,3.9096,-6.2137,-3.9811,-0.3765,1.5317,12.2744,0.25782,-15.7234,-7.8054,3.3379,-18.0685,-0.64135,1.6038,
0.044534,3.434,-8.0101,-3.0194,-0.11294,7.4653,6.9582,7.7142,-22.2518,2.0629,-4.8161,-7.1024,2.0482,9.9433,
1.7293,6.3612,-8.7345,-6.4534,0.61696,10.1506,-0.44896,6.5282,-24.5319,-0.22976,-7.1784,-8.8452,-2.6542,6.2134,
-4.4007,-2.4568,-11.3442,-5.8255,-2.5533,14.1211,-1.6271,-5.1919,-13.6602,-9.6162,-1.2043,-11.9302,-7.0745,-4.0416,
0.44311,0.82409,-5.6018,-3.3068,-0.23095,9.6584,2.086,-1.7469,-16.456,-5.9062,-4.2656,-10.4915,-3.0346,2.7089,
12.2269,11.1387,-0.20427,-7.2055,0.50604,2.0893,-3.583,6.7938,-24.8684,2.8845,-8.1068,-15.4054,2.209,9.536,
-1.5224,0.34729,-2.6024,-7.2553,-0.0064893,5.3381,-4.8141,1.5657,-10.3611,1.7469,-0.38974,-13.9989,2.5586,2.2152,
-3.6002,6.8344,-4.6154,-5.6147,1.1992,2.3663,-0.42789,-1.1798,-0.82138,-3.4191,2.2852,-9.0616,0.23545,-1.5332,
-3.6249,20.5243,-5.5435,-11.3036,-1.0421,-3.3191,-4.9817,-1.3498,-4.8697,-2.0089,-1.4676,-9.723,2.3907,1.2101,
-0.033205,33.3929,-6.175,-13.0357,-0.015523,2.6649,-8.539,1.6235,-1.6852,2.9321,-1.8612,-12.9962,8.0321,-0.3085,
4.3073,45.4893,-6.7686,-9.3613,-0.014362,3.951,-10.437,3.4541,-1.1019,2.274,-3.196,-15.1087,3.2116,-0.77216,
-4.8689,45.7727,-2.7468,1.0825,-2.6648,3.9552,-11.4978,4.4523,2.5798,4.307,0.61138,-9.6227,3.742,4.3356,
0.48465,51.4622,-0.4131,1.7407,-1.7818,2.5123,-11.0491,6.3541,2.6658,3.8073,-0.63083,-12.1786,3.2763,2.8704,
3.8298,46.4466,3.4683,1.1546,2.1817,5.7363,-1.2269,5.9731,2.5061,3.5791,-2.5209,-8.0732,1.6337,3.1804,
-6.5229,32.0901,3.7421,5.9055,-10.4827,4.4278,-4.0458,-4.5086,1.3914,-0.492,-2.3697,3.0161,1.5357,-0.38491,
-2.0344,34.7442,5.687,13.5052,-13.4694,8.2597,-8.3826,-7.8533,0.58476,-4.5601,-1.0224,2.5939,0.72042,-4.9413,
-4.3227,29.2854,7.7557,14.6228,1.4388,14.9947,3.6893,-4.4898,-2.8245,-7.1788,-5.2996,-2.8642,-3.1794,-4.6451,
0.99835,28.7335,8.978,13.9864,15.4525,8.0695,11.4222,-1.5689,-6.7524,-8.9172,-10.0429,-0.52315,-0.33711,-5.0893,
3.3488,27.0093,9.8854,16.0395,15.0073,-3.0197,10.7366,-3.8851,-6.8294,-7.4181,-7.9943,-0.49153,2.5754,-5.2661,
1.9428,23.7017,10.9792,13.3902,16.7581,-4.5256,16.6001,-0.51874,-5.6965,-3.8397,-5.3452,-4.0777,-1.6767,4.4501,
3.9954,15.2898,2.8491,0.77663,11.1734,-9.3157,8.6147,-1.2105,-10.416,-9.6349,-8.6399,-5.5198,-7.6012,0.56768,
-2.0287,4.2492,3.6418,0.24787,10.0208,-7.3107,4.7231,-0.65618,-8.345,-4.7182,-2.3372,5.8984,4.4238,-2.3587,
0.021014,6.4047,3.9055,-3.6236,13.2762,-8.8,8.7783,-0.13465,-17.4855,-0.096596,-6.0531,0.72401,3.1943,-0.77112,
4.5993,7.2254,0.5379,-3.165,14.1666,-8.9952,11.3848,-0.3673,-16.1954,-1.2959,-9.7875,-4.8633,-4.9513,-0.001722,
0.46693,1.4893,2.4338,10.0403,10.4245,-1.707,4.4352,2.0649,-1.1237,1.192,-1.0056,6.0338,1.1303,1.4446,
3.09,0.19461,3.4926,13.0533,7.1475,-1.3636,-4.267,0.25374,1.4744,-1.0491,0.26007,9.7691,2.2678,-1.7755,
2.1817,-4.3964,3.0421,11.5468,13.2261,-5.3792,5.8709,-1.9311,-3.6758,-1.7091,-0.96083,10.3878,2.8546,-0.94609,
3.0149,-7.5068,-10.6376,1.6951,10.0227,-15.1795,5.5189,-5.1895,-10.2034,-5.9451,-6.6875,-3.2506,1.7193,-6.1917,
6.4494,-6.3335,-13.1328,2.3163,7.2522,-9.689,0.6085,1.1475,-4.53,-6.3113,-3.1533,-11.0093,3.7853,-1.2405,
-6.2298,-14.8713,-7.7653,10.1313,6.0939,0.77448,4.6696,0.83787,0.80369,-7.6196,1.1335,0.015318,1.8711,-0.92487,
1.3748,-7.7125,-10.1919,8.5596,10.5485,0.72801,10.1735,-1.1406,2.2013,-3.306,0.58358,10.6197,2.2408,-3.7619,
-0.15418,-12.5522,-17.2929,-4.4877,9.4339,-12.3313,-1.5239,-2.0363,1.1051,0.74848,-7.1644,1.7876,4.0348,-3.5364,
-1.591,-14.2094,-12.8811,-4.2182,6.4575,-12.0736,-7.6992,2.424,0.074694,1.1857,-7.2167,0.71576,3.3105,-0.91387,
-0.049241,-14.3212,-8.7338,-1.0731,4.6238,-3.154,-0.0064074,-0.13156,-4.2681,-3.7061,-4.3731,8.3861,3.5938,-2.7872,
-8.7234,-20.6923,-12.0662,-3.9007,5.7926,-1.0366,1.9222,-6.3902,-0.63757,-6.8577,-3.1469,3.5446,8.1989,-5.9944,
0.71785,-11.4968,-9.1733,3.3229,9.0603,-2.6618,-5.6652,-1.4272,1.5696,-3.313,-3.6812,-5.104,6.0195,-3.9473,
2.6032,-10.3253,-3.32,13.2467,5.6244,2.8007,-5.3251,1.5507,-8.1653,1.7062,-8.2808,-1.4235,0.35594,-0.33626,
0.75979,-10.4287,-5.7724,9.3184,1.6715,1.4274,-0.9082,0.73427,-16.5937,-1.5296,-14.2914,-2.0615,2.0218,-2.4852,
4.5706,-7.8747,-11.6925,2.9747,0.60732,-3.9609,-3.7458,0.69068,-10.2952,-8.1863,-15.3622,-8.6863,3.3468,-5.2287,
0.92213,-6.9205,-9.063,12.4374,3.4632,6.8818,-4.9675,2.5772,4.4225,1.4637,-6.7279,1.9581,0.7356,1.3518,
3.7591,-4.095,-13.3397,4.4601,1.8089,-0.76169,-10.4538,2.4223,-0.30185,1.8576,-6.8064,-0.087852,-1.7189,0.78854,
2.8104,-11.3208,-14.2263,-6.1716,1.4596,-10.5982,-6.6933,4.4464,-8.2379,-1.8691,-2.3004,-6.1084,7.3021,1.4644,
0.2312,-15.9442,-13.3727,-5.8013,0.88965,-7.0702,-1.4715,5.6259,-3.8873,2.5814,-5.5368,-1.8855,4.4538,2.8228,
8.1715,-8.962,-12.3294,-9.0686,0.11337,-4.9588,-4.0343,5.0473,-1.9668,5.0781,-15.5685,4.2532,-1.839,2.4124,
-1.9595,-14.2087,-10.6256,-12.3807,1.0711,-6.1068,-4.2739,2.3341,-8.5973,0.91722,-14.6342,3.5163,1.1637,1.3036,
-1.601,-14.5614,-8.7827,-6.0942,3.658,-2.6074,-2.8127,2.4351,-9.2865,1.1032,-10.1407,4.5106,1.8168,0.020072,
0.18209,-12.9646,-7.0507,1.743,2.233,3.0925,-3.849,0.11957,0.67071,1.2777,-15.0761,6.8909,0.50269,-4.0787,
-0.311,-6.8839,-1.3252,6.9413,5.4737,10.138,2.6487,3.0051,4.0047,2.1651,-16.5814,9.8521,0.95469,-1.4232,
5.0101,-3.579,-3.1737,5.0788,-0.15718,5.6731,-1.3668,3.3065,-10.2151,-1.8209,-19.9255,4.4405,-4.405,-2.7843,
-1.0751,-7.7026,-2.0194,10.5587,-5.4504,3.4045,-6.1051,-0.26584,-2.8533,-1.7117,-16.3194,-0.16427,1.6439,-0.20709,
1.6405,-4.5893,-1.6573,12.5762,0.90218,3.4412,-2.6057,-1.4552,5.2716,-8.1169,-14.6174,-6.1804,-1.5882,2.9388,
6.1218,-12.7496,-7.5834,-2.2783,3.9815,2.0299,-2.6904,1.2837,-9.1447,-10.281,-23.1403,-6.5325,-14.2674,1.0753,
4.0675,-16.5642,-4.959,-9.252,-4.6937,5.5233,-7.1085,6.2676,-15.7063,2.1458,-17.6543,-2.0434,-3.5292,0.28762,
2.3772,-11.232,-6.5896,-2.4299,-13.0887,2.7818,-13.9128,-0.37492,-0.66395,-2.8032,-5.0259,-3.3666,6.3235,-6.9605,
-0.41653,-12.2449,-5.9533,8.5617,1.7966,8.1585,-4.6419,-0.11146,13.4759,-4.8042,4.6757,10.9354,-0.081437,2.3752,
3.7058,-13.1979,-8.7296,-4.2441,4.9425,5.4998,-5.5687,3.0287,5.1955,-1.8649,-5.4868,14.9793,-12.3691,3.438,
6.8579,-12.8875,-6.7596,-12.1841,-6.9232,-1.5791,-11.5011,4.2932,-9.2162,2.5858,-13.8347,-0.019501,-1.0216,-3.5172,
-0.54343,-12.8376,-5.1487,0.35704,-10.1232,-2.6892,-9.1238,5.7229,2.3035,1.7073,-7.9429,4.1997,10.3679,-1.137,
1.8995,-10.6213,-4.84,4.1918,-9.0337,-2.5281,-5.2021,1.5229,16.2653,-3.6975,-1.682,15.0347,-1.8236,-1.0685,
-0.86599,-16.4915,1.476,0.80724,-1.5018,10.3981,0.17169,0.70862,26.4969,4.96,0.10613,18.23,-1.4732,3.5749,
-0.33187,-17.4304,-5.8432,-10.8106,-2.8581,4.4713,-12.8543,4.5223,10.807,5.1445,-14.0002,4.121,2.9537,3.3606,
8.8468,-11.5641,-6.4567,-11.6084,-6.0609,-6.884,-14.4934,7.6251,-2.2541,0.49732,-14.0038,-1.4291,-0.59772,0.26621,
2.7727,-14.4855,2.3666,-2.4756,-1.1177,-2.8553,-1.8134,2.1066,11.9811,2.1549,0.9364,5.1648,-4.1771,1.9377,
4.7755,-13.8573,-4.7653,-8.353,1.1185,-6.7818,-8.6945,1.7388,13.0699,5.1587,-4.061,2.6853,-0.7934,2.0624,
6.1764,-13.749,-9.5408,-11.949,-2.0819,-9.9901,-15.6444,8.1422,1.4397,5.5723,-10.8065,2.7654,6.7262,4.108,
4.3593,-10.9956,-5.1117,-10.7499,-10.6338,-6.9803,-14.2236,5.7257,-3.9491,-1.0288,-9.6764,-2.221,2.466,1.9331,
8.9185,-7.9258,-2.3949,-4.3203,-11.442,-2.2232,-11.4419,7.3104,-1.7839,0.47919,-6.2033,-8.8367,-1.5383,2.7815,
2.1164,-13.2353,-3.6975,3.6517,-9.3093,0.32036,-10.7554,9.7638,9.8923,5.7531,-4.8672,0.85256,0.48219,5.5066,
5.846,-12.4409,0.38098,3.9147,-9.2329,-0.66296,-10.1099,7.7319,14.1192,3.9619,-2.6468,14.9014,0.93542,3.2483,
5.7365,-16.274,4.9376,2.4743,-9.402,-0.86392,-9.2625,7.5092,12.067,6.3755,-0.80098,21.8408,3.0487,3.7765,
7.0793,-13.6105,3.9178,2.0847,-9.0791,-0.57134,-9.4299,8.7457,10.1377,11.0544,-6.2965,16.4328,0.69638,8.6114,
13.4034,-10.3833,3.6832,2.442,-3.7136,-1.019,-5.0077,7.2571,18.2063,7.4986,-6.8828,17.8569,-3.6837,8.0947,
-0.17524,-23.0167,0.81064,-0.35608,-1.3217,-6.5015,-8.8046,0.79563,28.924,4.3976,-2.3725,23.7754,0.63465,-1.3091,
6.343,-16.0923,1.4851,-0.57545,5.7473,-7.3164,-11.4096,6.2917,34.6606,11.6053,10.0621,21.1438,14.6966,0.93888,
2.5879,-21.3933,-2.4604,-6.3255,-0.38214,-12.662,-12.6532,5.4323,29.2065,8.9808,14.761,8.788,5.7401,3.7746,
0.74522,-21.7972,-1.5896,-7.151,-6.3845,-13.5898,-8.7608,8.7215,27.2134,12.0576,5.4395,6.0913,1.7805,7.6457,
8.4137,-16.1505,2.3622,-4.3118,-6.0015,-9.3999,-8.2351,8.1983,22.6881,8.924,-7.4201,12.4747,15.7737,1.8843,
-3.4193,-22.1714,7.2821,4.8649,2.7943,3.4566,-2.6793,0.23455,23.496,0.43439,-2.8774,24.9826,14.4656,-1.8442,
2.3293,-16.2616,3.2295,3.368,2.3859,3.008,-3.7236,3.8357,14.6146,3.0596,-3.4278,20.3504,-0.50237,4.2923,
12.3129,-12.3934,1.1076,-1.6548,-7.3982,-2.4751,-8.8029,9.8725,6.025,11.0712,-12.8631,13.3448,-2.5209,10.7836,
0.24567,-19.1218,5.1387,1.0958,-7.6774,6.5917,-4.1776,1.3262,19.402,4.3812,-7.5118,20.4981,7.5125,1.7007,
-2.1794,-15.5641,5.3125,2.9585,0.013808,13.4268,0.89356,-5.984,25.9504,-2.6304,0.16948,22.1605,-6.4358,-4.1861,
-2.0484,-12.2199,0.65523,1.3345,2.4233,7.8007,0.35824,0.15939,10.2934,4.7581,-10.9277,15.046,-7.0138,5.7062,
-1.9255,-13.4149,-2.2766,-2.1201,-2.5428,-2.3083,-3.5196,-0.81404,-0.3266,1.0981,-23.2877,10.7688,-5.1467,0.061209,
-1.569,-12.851,10.1525,7.8895,-1.6669,10.1222,0.78889,-3.8987,13.793,0.79128,-9.1157,23.8615,-2.6687,-2.5936,
-6.7775,-13.5262,13.3997,7.8981,-13.136,15.2999,-2.6329,-2.2185,15.4963,-2.1483,-2.3023,19.0553,-1.0623,0.93651,
5.6802,-5.0019,13.5601,5.0141,-14.2765,10.5251,-4.885,4.6631,0.46648,-3.4656,-5.0567,8.2706,2.8578,4.7362,
-2.3734,-16.7533,11.3002,3.267,-16.7939,9.8936,-4.5919,-2.3652,14.5385,0.11677,-5.2352,15.4876,-0.20574,2.0419,
-2.9541,-17.4351,8.9348,2.3478,-20.3658,12.9156,-6.4858,-2.9464,27.7662,1.7968,0.62231,27.8145,-9.1117,-1.2138,
1.8031,-14.7015,10.0861,-2.8545,-15.5282,4.1867,-3.9273,2.7742,18.2667,1.4482,-2.5478,21.0842,-2.5392,0.064524,
0.24844,-21.0505,19.1222,-7.5037,-6.8839,-8.1158,5.4672,2.6075,3.0707,5.2175,-7.6978,11.6242,11.1107,6.8089,
2.6437,-28.4644,16.5286,-16.2125,-1.1687,-17.2698,3.2109,-3.8154,6.3814,2.9762,-4.3434,10.9267,2.2489,-0.34811,
-9.3249,-40.8565,9.993,-14.999,12.6399,-15.5105,3.7414,-5.7559,20.0985,2.5565,10.0172,22.5634,-0.05495,-5.3891,
-10.9345,-52.5051,0.95776,-17.2321,23.6921,-28.6799,-1.5448,-9.9898,32.9926,-1.6943,5.9212,17.5942,2.5994,-6.2706,
2.7367,-63.4548,-1.992,-25.357,24.1986,-41.0591,-4.8263,-8.9083,16.9131,-2.5567,-5.0391,2.4385,3.89,-2.5202,
-3.6942,-61.2143,10.1784,-23.3539,21.7826,-41.4881,4.6221,-7.4101,1.7983,-1.4392,4.422,5.305,2.692,-1.4049,
-5.8829,-56.5773,21.619,-17.6141,34.5756,-40.927,12.5397,-9.8578,15.7904,-3.2813,11.3873,19.0867,-1.3257,-9.0336,
-7.2169,-62.1005,16.2247,-21.1368,46.6011,-49.3174,5.2796,-8.5432,28.943,1.9775,4.6787,19.9904,0.44087,-7.7684,
-6.061,-55.7234,13.0816,-22.0382,42.5997,-50.4559,-4.9191,-5.8615,36.6062,3.0637,4.1566,11.8011,3.5474,-2.2406,
-8.1077,-50.9337,26.3967,-24.572,27.0285,-55.6235,-1.7317,-8.4021,20.3098,-7.2433,5.3537,-1.4402,0.44277,-3.0703,
-6.416,-51.4929,38.9129,-25.7488,39.5068,-56.8651,7.2903,-0.42567,4.9912,3.0737,5.7554,-4.9692,10.7805,4.5857,
-6.0308,-51.7778,32.7222,-30.9526,51.2364,-56.8277,-2.3059,-6.6669,14.8151,4.8173,1.5539,0.14942,5.3128,-1.9562,
-12.8998,-48.6713,31.7228,-25.239,62.2622,-44.7414,3.6166,-13.4982,28.0262,-0.29203,12.5474,14.2405,1.6195,-5.6952,
-10.4386,-39.7253,43.9194,-27.3401,70.2161,-37.9593,10.3894,-5.216,40.4446,-0.033538,20.7126,24.594,4.1739,-1.738,
-2.8226,-31.316,53.2153,-39.7997,56.6034,-46.5278,-4.3339,5.943,23.9179,6.9581,5.3699,9.0183,7.0567,5.3559,
-7.233,-27.2679,57.0118,-38.2555,43.3248,-40.6031,-5.8816,8.2375,23.5672,11.6023,-5.9191,8.1153,18.4435,12.9883,
-5.5937,-25.873,67.6911,-30.4166,40.0024,-24.9105,4.8352,2.1996,20.4659,0.54185,1.9079,20.8848,13.7214,5.7015,
-12.9709,-37.336,77.7296,-21.8427,42.4225,-9.3159,12.7402,-2.7531,33.338,-2.3832,15.8934,33.7317,-1.2019,-0.42518,
-13.3979,-42.5674,85.8403,-23.6656,37.708,-8.1543,7.3965,1.9919,45.4377,10.5343,23.2552,39.5413,-8.9628,9.9642,
-2.7116,-41.7004,72.7361,-36.3457,21.3455,-21.765,-7.1473,8.3803,35.722,13.0357,7.7599,23.0688,1.9393,15.8743,
-8.0926,-45.2241,81.1464,-26.3315,10.5445,-15.0358,-7.5621,10.5286,34.3016,10.5663,-5.1184,24.6975,15.923,15.1628,
-19.4176,-47.5724,87.6054,-13.9053,1.4757,-2.8057,-8.3136,-4.2031,38.751,-4.1677,-10.8369,30.2055,0.86759,0.15303,
-12.7089,-31.9436,96.4491,1.029,15.4872,11.4627,3.9953,0.02569,50.5259,-2.833,3.0697,42.4931,-12.9232,1.2284,
-23.7565,-37.0166,85.2392,15.0673,17.8122,21.7419,-4.1981,-4.0727,37.2512,-10.1344,-11.2145,35.9669,-10.4606,0.91376,
-19.1979,-37.4469,72.1713,0.66565,2.6434,6.3374,-10.454,-4.5515,20.9162,-12.1776,-24.6416,19.7089,4.267,-0.34613,
-24.5537,-38.8158,75.3126,-3.4719,-11.6152,-6.4561,-7.6573,-5.002,25.0841,-6.386,-10.6301,15.2722,1.9621,-2.4948,
-18.0188,-28.5329,74.8912,10.4752,3.1817,1.885,-5.5107,-1.0865,37.679,-4.3156,-2.0381,27.6122,-1.7711,-4.0323,
-12.5991,-28.2669,67.0235,23.9467,17.0908,4.1827,-4.2159,-2.4673,41.3234,-7.4309,-9.1464,28.8478,0.74556,-4.7545,
-19.5564,-27.5352,59.1457,31.0661,12.4497,7.3058,-5.8912,-4.2475,35.4695,-6.985,-7.6337,26.635,-6.53,0.35153,
-6.5722,-11.7831,57.7664,40.5305,5.1955,-2.0504,-9.6353,7.3358,29.7261,6.6907,-5.9702,31.0627,-2.0406,11.6589,
-14.373,-13.366,54.2999,52.1987,-2.8295,-16.0274,-13.8779,3.0388,27.9421,8.6994,-10.4332,31.609,-1.9182,8.0663,
-11.3415,-4.6098,63.8164,63.1668,7.2227,-6.0272,-4.1271,3.0979,40.3656,4.08,1.0395,29.9535,-5.9005,5.8956,
-3.9123,4.3436,61.4339,73.4768,20.2865,8.4344,-3.8793,5.8043,30.8338,-3.8778,-6.7358,21.4076,-5.5467,3.1315,
-15.7285,4.5652,43.6479,83.1682,9.4285,22.0284,-16.6622,2.5638,14.8837,-7.5012,-20.4317,18.1952,-5.2136,-5.2513,
-8.7594,18.3913,39.944,92.2781,3.8009,34.8067,-15.9032,8.9177,18.6907,-3.9179,-11.1313,27.4675,-11.8905,-2.2849,
-6.7876,29.9415,40.4398,100.8414,5.9834,46.8183,-17.3591,7.4183,23.8362,-12.8419,-0.82248,26.3014,-25.277,-1.1835,
0.12713,40.9195,27.6491,108.8909,2.009,58.1092,-27.6462,8.1785,11.0774,-14.2405,-14.0295,15.8053,-25.8093,-2.3178,
-3.7369,51.9617,16.3492,116.4574,-5.8243,68.7226,-32.254,10.0979,10.4128,-9.0478,-14.1521,18.2314,-15.5837,-4.5888,
-16.5279,49.8081,21.1531,123.57,-2.1006,78.6993,-23.57,9.9742,23.888,-8.0227,-1.7336,31.2375,-18.9872,-4.7957,
-9.2694,47.3017,8.3145,130.2558,-12.5796,88.0773,-36.1354,7.9297,14.6217,-11.3975,-15.7295,30.2069,-31.948,-3.0619,
-13.7752,37.4735,-6.2844,136.5405,-25.9249,96.8927,-48.0672,6.7308,-0.35561,-8.0628,-28.8858,14.2945,-40.2747,-2.1551,
-15.5995,38.3588,-10.1254,142.448,-38.4694,105.1791,-46.9907,10.9065,3.1604,-0.58941,-18.2348,13.0751,-31.8329,-6.6053,
-9.3614,40.8776,0.12357,148.0011,-29.6537,112.9684,-37.4228,10.2521,17.0708,-5.8562,-3.0407,23.8598,-25.5841,-6.209,
-14.3429,34.3276,-9.7658,153.2211,-28.5974,120.2903,-42.1668,6.5035,15.2029,-12.4947,-7.5583,20.7414,-23.8081,-2.7029,
-9.6261,36.6065,-20.2673,158.1278,-32.6664,127.1728,-44.4573,9.0055,16.7011,-4.9964,-8.0689,20.943,-24.3076,-5.433,
-12.423,28.6255,-14.7129,162.7401,-37.4548,133.6425,-40.3441,10.8758,15.2171,7.355,-7.5847,20.1683,-23.8135,-2.215,
-11.1955,18.713,-16.2405,167.0757,-35.6897,128.034,-37.9232,10.223,1.2884,1.6108,-11.4682,9.317,-21.903,-1.5999,
-3.7751,17.1081,-29.2451,171.1512,-28.2459,114.5677,-32.7555,12.02,4.1034,-7.6447,-4.5134,4.9018,-17.2141,-6.8064,
-7.4047,16.0818,-34.7215,174.9821,-29.9254,104.8013,-31.7543,14.673,14.4627,1.009,2.0242,5.5718,-12.8066,-3.0238,
2.1981,28.6143,-27.3356,178.5832,-31.9862,94.1744,-28.4032,15.7208,16.487,10.107,4.3129,7.1653,-11.0748,1.0141,
1.8253,27.6203,-22.5624,181.9682,-27.8979,90.6931,-13.9246,13.5723,26.3436,12.1521,14.418,19.0279,-10.1689,-1.2159,
0.7519,19.2146,-29.8853,185.1501,-26.224,75.6106,-14.053,16.6148,22.3533,15.7618,11.6251,21.2606,-7.1486,-1.143,
7.2143,19.2666,-37.9741,188.1411,-24.8916,57.8176,-22.6098,17.3051,6.9121,13.6108,0.56331,6.7286,-5.5144,-0.83344,
-2.8598,15.7002,-40.0342,190.9526,-21.952,54.3487,-11.1301,9.0358,-1.3363,5.0811,2.9399,1.5044,-10.004,-2.2295,
5.2662,21.7483,-37.391,193.5955,-19.9118,49.8828,3.6377,6.8066,2.8415,4.0531,4.9329,3.1016,-6.7524,-2.8188,
11.9399,15.8639,-39.727,196.0797,-19.4402,35.0794,-2.0039,11.9416,0.019644,9.3538,0.057377,-6.4847,4.9807,-1.9266,
7.6079,10.3326,-42.8872,198.415,-21.889,19.718,-11.2837,17.2509,-0.22273,12.8897,1.7409,-13.5677,1.0666,0.84035,
13.6593,12.8461,-44.8933,200.6101,-30.94,10.5812,-9.8831,16.4568,12.0832,13.8035,9.1083,-1.425,-7.9154,-0.8973,
4.4036,1.2291,-47.2614,202.6735,-36.0734,12.1155,-4.7108,8.9614,24.1326,14.1806,16.0336,12.7605,-3.8251,-2.0488,
0.28303,1.1553,-54.5486,204.6131,-33.909,13.3168,-9.7308,8.4238,12.0794,11.4016,13.1434,13.079,-4.5599,0.0023646,
7.0147,9.2809,-55.6142,206.4363,-28.0179,10.1074,-10.111,13.7031,4.6059,9.7534,13.3189,0.24342,-9.5887,0.96632,
13.1018,14.7496,-48.662,208.1501,-19.8289,13.5988,4.5956,16.0144,7.4631,9.4092,17.5814,-2.4227,0.86899,0.66737,
19.0641,15.7929,-49.1167,209.7611,-18.1572,12.3005,12.6353,13.1254,-7.0847,5.9525,11.2239,-3.2412,9.4935,0.1454,
3.8203,2.0708,-60.2697,211.2754,-26.4678,-2.5376,-0.41533,7.2762,-7.7442,9.2104,11.2734,2.9788,4.3446,-0.10429,
-2.5552,1.2237,-69.5482,212.6989,-29.9414,-16.2443,-8.3441,6.1167,6.8204,14.2013,15.1767,11.7181,-3.8703,-4.6778,
4.5882,5.7298,-62.2421,214.037,-21.1553,-4.4232,2.0387,6.4728,12.0753,12.6261,10.1685,23.7893,-5.807,-4.6379,
0.6975,-1.122,-57.7846,215.2947,-21.0908,2.8316,5.0498,3.4329,7.2534,10.6637,6.9073,26.4593,-8.5921,-3.1547,
8.8504,-0.5727,-57.2096,216.4771,-28.9844,-11.4383,-0.073871,6.6014,20.7975,12.434,13.7233,10.7717,-8.5585,-4.8937,
6.8733,-1.9844,-53.7773,217.5884,-28.2094,-24.852,1.3766,5.7231,13.7649,14.5803,14.3463,0.60491,-2.2606,-4.5998,
8.6301,3.6783,-54.648,218.6331,-21.9375,-15.1659,-1.839,5.6207,-1.161,15.3927,11.7983,11.8968,0.044643,-0.22646,
13.4149,3.4576,-59.0819,219.6151,-20.1394,-10.8815,-2.693,9.6223,8.4293,16.8793,22.6596,15.0394,-0.44043,1.7153,
2.005,-6.873,-63.7319,220.5382,-22.3052,-24.3286,-0.60301,5.1883,22.0236,11.046,27.0848,3.05,1.5144,-4.1724,
15.623,5.3495,-53.4005,221.4059,-10.1206,-28.292,5.9406,10.4206,6.6022,12.0705,20.88,1.1798,12.2694,-0.30665,
14.9266,-0.5146,-45.6167,222.2216,-6.3799,-12.4945,8.2358,7.6262,-7.894,11.1053,13.1197,3.7606,9.8464,0.91704,
9.4515,-6.5097,-46.9773,222.9883,-9.6128,-13.3116,8.4643,4.5173,0.65412,9.7158,19.8041,9.5603,-3.519,-0.34304,
10.5716,-2.9857,-53.0763,223.709,-8.3127,-9.3794,6.2697,5.9335,9.0505,12.2664,20.3031,14.5302,-5.4771,-3.4559,
6.5631,-2.3246,-50.8563,224.3865,-4.9216,5.2834,4.9289,7.9879,-2.0975,19.2429,13.3001,22.3353,5.4566,3.9825,
8.5792,-0.73885,-48.7685,225.0233,-16.6776,1.4716,-5.0078,4.6163,7.6695,14.7141,12.0204,25.8157,-0.17319,4.2252,
0.59263,-6.2381,-54.7605,225.6219,-29.4158,-12.7167,-9.2868,0.24151,16.6093,10.6978,15.8785,22.5795,-5.2245,-0.60757,
-0.88873,4.7412,-62.5621,226.1846,-27.6506,-25.0898,-3.427,3.1195,3.5612,17.7687,11.0694,15.9221,2.3198,3.2853,
5.4311,18.5567,-60.7368,224.4236,-22.6173,-25.0307,-4.6676,2.9324,-1.4727,17.6669,3.1744,14.4848,1.2163,6.9445,
-6.7051,31.5433,-54.4412,215.0558,-21.0191,-24.252,-5.1105,3.4796,12.7157,12.0274,0.33257,16.749,-4.882,1.9484,
-8.472,43.3893,-62.9847,195.6449,-26.2656,-34.1246,-4.0807,4.4761,6.5296,9.1366,-8.605,8.7546,-5.312,-5.6404,
-6.7588,38.6168,-69.088,174.9877,-30.7155,-40.5132,-5.5233,0.59163,-2.7803,12.6857,-8.3301,9.4342,-4.7527,-3.1328,
-9.9682,36.5407,-63.7374,163.2836,-29.5955,-37.8415,-9.771,-0.6487,3.8945,9.7554,-1.8043,5.2532,-9.0464,-3.1858,
-7.4417,40.1331,-58.4669,151.0763,-24.4455,-37.4989,-7.2567,-2.5377,14.7478,0.97517,4.0883,-2.775,-8.0219,-7.8151,
-7.2364,33.6275,-51.8256,140.8066,-15.9891,-28.2594,4.989,-2.1447,17.9605,4.5319,7.4587,7.2732,0.89531,-4.2129,
3.8026,28.2354,-47.2701,122.7173,-14.5476,-27.0462,5.1716,3.7685,2.9032,8.5987,0.74416,1.0522,3.7336,-0.58572,
3.0925,22.6849,-46.8442,101.2542,-17.5312,-34.1001,1.4869,5.4706,0.80078,12.903,0.69951,-13.1109,3.0277,3.3058,
-4.5646,18.6725,-51.0232,81.079,-21.0588,-33.7415,-1.7356,4.4192,14.8527,17.6727,5.2371,-7.1421,-0.76916,5.7588,
4.6271,16.829,-52.0592,67.2962,-18.108,-25.6912,-4.7647,8.2517,21.5541,16.3712,3.7178,1.2404,-3.3743,6.1364,
0.011147,8.1065,-44.1151,64.7047,-8.8266,-13.0625,-1.5866,10.6486,15.9221,14.425,6.3872,2.1298,4.5409,6.7321,
3.6257,11.7172,-36.8889,55.2785,-3.2358,-7.6993,-0.76846,8.8046,6.0489,14.2822,7.2091,4.6534,8.848,5.1231,
7.9876,13.666,-32.0241,47.3828,-0.39011,-5.0679,1.9292,7.5537,0.62452,17.0409,1.7151,7.0255,5.6658,5.5388,
-0.92752,10.6766,-25.0409,42.8528,-0.60767,0.2976,8.3212,7.3412,-3.9925,14.3315,-2.4854,-0.38568,0.26437,7.8578,
4.9125,13.4103,-24.0209,30.6404,-1.5355,2.2077,5.4115,5.4547,-9.0553,6.2405,-0.40834,-10.9676,0.73067,4.0121,
2.9305,11.4008,-26.677,24.7042,5.5462,7.6189,3.8815,4.4041,-9.7173,6.589,7.5704,-3.3201,10.0864,3.048,
-2.3065,14.8141,-27.7277,25.3911,7.865,11.2591,3.8896,2.9345,-15.6422,5.9527,3.9827,0.012566,4.9019,0.696,
-0.23996,16.3354,-25.5821,18.0831,7.8751,11.5479,1.728,1.7946,-13.2574,4.1492,-3.0052,-11.5573,-6.4794,-1.7559,
0.2566,11.4991,-18.7445,2.8981,10.2948,9.8909,2.1065,6.0255,-8.6054,7.7569,-4.7529,-20.987,-1.2702,2.2056,
4.0976,12.255,-15.6916,-10.6527,8.2309,2.0666,2.9442,6.6278,-22.189,6.3276,-11.6985,-25.0305,0.73422,0.62749,
1.4412,10.0739,-14.268,-8.5673,9.1833,6.2809,9.9984,3.82,-17.8449,4.9836,-3.7658,-13.4053,0.20823,2.0356,
-0.33231,10.6745,-17.5095,-13.1147,8.3911,10.966,7.7115,0.45755,-2.6742,0.1051,3.9317,-7.0576,-0.5274,0.70844,
0.65172,11.962,-14.5305,-25.3434,3.5495,8.3796,-0.46418,2.8405,-5.2856,1.0629,-3.0528,-10.4907,-0.013588,-1.262,
-1.7975,8.3522,-9.8023,-30.0894,2.3722,8.8411,1.974,7.0083,-15.5733,5.3379,-6.2437,-8.415,-0.012774,1.7057,
4.8181,9.5381,-12.8296,-34.3098,1.5068,9.9977,4.9886,2.4903,-13.9162,1.402,1.1206,-0.43809,-1.2171,-0.083593,
0.91355,6.3147,-7.4803,-37.3124,4.0679,14.9414,9.751,-1.2741,-6.0914,3.487,3.2225,9.4701,1.9894,2.5725,
-1.3107,5.2127,-6.3086,-48.8122,6.4747,6.5729,10.8529,0.0069395,-8.3772,6.4111,-4.9248,2.8761,0.18262,3.1413,
4.794,5.1409,-7.6168,-59.9835,6.3277,-2.7391,2.7304,3.6224,-8.5975,4.8216,0.91431,1.0168,-4.8896,2.7119,
-2.0014,-0.71094,-3.5446,-61.0842,10.0456,5.3792,-4.4233,3.6458,-6.3946,2.8453,6.8852,7.4635,-2.9092,3.7542,
2.457,6.0802,-5.2601,-69.4707,13.2992,6.0203,5.0014,0.53499,-10.8312,-1.6642,-1.7226,-5.0359,-0.80644,1.1188,
1.3453,6.1973,-8.319,-76.3897,10.0907,2.7666,13.3779,-0.94337,-5.843,-1.5644,1.7548,-7.1438,0.6882,0.56976,
1.9877,3.6565,-5.1685,-78.314,8.2802,1.8779,2.6931,4.1747,0.53334,7.4473,8.1572,7.3848,0.40571,1.7406,
8.6171,4.4012,-4.8584,-87.7152,9.2294,-1.6094,1.5674,5.3702,-1.909,11.339,3.3292,5.6162,-1.5466,0.6721,
-2.9869,0.76293,-10.8336,-90.5263,7.2296,-0.54876,9.6683,-1.2183,-0.83038,3.4281,8.9143,-1.9519,-0.97209,0.14961,
-1.6026,4.8143,-12.8347,-89.1923,1.7344,0.20776,-4.6501,-2.3502,-4.3957,-7.1417,11.0307,-3.5218,-2.6008,-2.5107,
4.76,4.5254,-8.6906,-94.928,4.0405,-5.1078,-7.2636,3.093,-8.4708,1.9634,6.5125,-2.8285,3.3399,1.0144,
1.5824,2.3257,-11.0613,-103.3323,3.3161,-13.478,7.2722,3.8717,-6.0343,11.4866,2.2654,-5.0689,2.6575,2.8817,
3.8978,4.5965,-12.8079,-104.2427,3.5993,-7.8488,5.7513,1.2291,-0.85179,6.4593,0.68295,-4.2831,-3.7687,0.29848,
-2.3623,-0.25879,-11.7985,-105.9421,4.106,-1.8345,-3.994,-0.53215,-2.9701,1.9742,4.2576,0.55341,-0.89168,2.9319,
1.1543,0.23867,-16.8749,-113.6856,-3.8527,-15.8244,-1.3438,-1.4641,-12.9148,-1.5187,5.9304,-5.2644,-0.83772,0.82778,
3.254,-2.427,-16.5856,-120.0004,-0.97065,-17.4056,11.0291,-1.6174,-0.81146,-1.6683,9.1897,-6.1536,0.89954,-2.8371,
-5.1362,-8.0657,-17.5186,-126.2975,4.8724,-13.9509,4.1006,-2.0021,13.3372,3.7342,10.0848,0.96431,0.8458,-4.1133,
-1.2123,-3.4846,-25.3856,-132.8196,0.00053935,-25.4061,-10.2454,-2.6051,4.9445,6.6434,9.7205,5.486,-4.7488,-4.1073,
-9.5755,-8.337,-28.9241,-138.9504,-7.9535,-22.6767,-14.3307,-4.1362,-8.6088,0.70093,7.9322,1.0592,-5.6689,-2.6558,
-6.3499,-5.6676,-26.9475,-139.7724,-5.789,-9.506,-5.5169,2.6199,-18.9381,-3.9204,5.2871,-6.9581,-0.74904,-0.32727,
-0.90721,-4.6042,-24.6075,-135.9658,-2.3082,-8.2127,-7.3553,4.1499,-19.489,-0.069764,5.6928,-6.2996,0.98267,-1.0305,
-2.54,-6.0152,-14.6954,-131.9053,-0.00054787,-9.8891,-3.2985,-1.1608,-6.9915,0.65732,7.0384,-1.3419,-4.1375,-2.6559,
9.423,4.2277,-1.039,-127.124,7.9532,-5.6803,8.2276,2.5243,-2.4746,-2.0332,8.3034,-3.4305,-1.2382,-4.1838,
-1.0248,-0.12336,-1.2178,-130.3428,4.3425,-5.5805,3.6363,5.0239,-5.9416,0.25794,7.5642,-4.43,2.9335,-3.6918,
-8.1939,-2.5263,-8.3756,-136.5017,-7.9689,-15.3688,-10.6818,-1.0619,-3.6567,1.2066,6.6282,-5.1283,-4.9551,-2.9881,
-5.2922,-3.3391,-5.9449,-138.9169,-8.937,-17.3387,-13.2947,-6.3008,0.41912,-5.6143,7.1948,-8.677,-10.4426,-3.7732,
-7.1438,-5.7898,-4.3831,-136.1255,1.4812,-7.3808,0.7594,-2.3073,1.5988,-11.7854,7.0041,-5.0233,-5.2365,-3.7877,
0.99785,1.7886,-8.9404,-135.1886,9.1053,-3.0813,7.9449,3.1335,-1.8713,-14.9344,7.5479,-0.38293,0.38055,-4.5246,
-8.2213,-2.1753,-8.4042,-134.3084,-1.0822,-7.7169,0.23714,0.053231,-8.0258,-15.9668,7.5768,-5.6628,-1.5707,-3.7709,
-12.3075,-2.7679,-3.8024,-133.7214,-15.1173,-11.8334,-12.0694,-2.1194,-6.3392,-14.2856,6.3995,-10.8664,-6.5379,-3.7859,
-1.9283,-2.1201,-2.1282,-138.7138,-12.4028,-18.8364,-12.7915,-1.0281,6.0925,-10.5362,9.3897,-2.9838,-4.2177,-6.933,
-0.36615,-5.3667,0.89203,-143.4062,2.4414,-24.4549,2.076,-0.48425,2.3527,-4.6016,9.7905,1.5337,2.3021,-2.1784,
5.1992,0.98064,4.4537,-145.1659,16.3949,-26.6028,16.0515,2.1961,-10.0807,-5.0486,8.9618,-10.3686,1.9228,1.5675,
0.54916,-0.52423,4.6686,-141.2764,11.0731,-21.1505,15.5708,0.61833,2.5754,-6.1918,12.7627,-10.2287,3.2539,-2.3827,
3.4085,3.8458,4.3885,-135.2102,9.4446,-17.953,8.3695,-0.38286,1.9387,-5.3381,6.6945,-3.3482,6.4329,-4.1682,
14.7732,9.3996,7.9818,-135.7742,14.1806,-28.445,8.8317,5.9071,-12.2776,0.76678,-0.93802,-11.342,2.6727,2.8308,
7.6203,1.6048,8.9489,-141.7278,14.2936,-33.9692,11.1941,5.0703,-12.8665,2.649,2.4927,-17.41,-2.3081,6.9993,
9.091,6.329,9.858,-141.7807,15.8464,-22.2898,13.4147,-1.0183,-0.5251,-6.6688,7.1636,-11.0629,-1.6877,0.31258,
2.0378,2.816,4.687,-137.371,14.6544,-15.891,17.1894,-6.983,-11.3401,-10.3662,5.0468,-9.676,-0.38115,-7.1778,
5.0488,3.8521,3.6827,-139.4933,14.9802,-17.1069,23.1476,2.3538,-8.9722,0.13791,8.3592,-5.4803,6.149,-0.23938,
12.2179,7.7181,1.7745,-144.8622,5.1635,-23.5525,9.9484,4.3815,-4.8187,-1.0759,4.242,-7.3209,4.093,0.015721,
7.8692,8.4605,5.7656,-133.0368,6.0588,-13.2211,8.6284,3.8779,-5.7346,0.19419,6.6388,-10.0149,3.6063,0.73791,
9.8072,8.4348,-0.36513,-137.5881,9.0697,-12.4278,8.5926,-0.21116,-19.3703,-4.6382,0.4559,-16.6448,-1.9128,-8.4654,
10.906,6.2415,0.3799,-140.179,9.7304,-10.9592,7.3542,1.4887,-17.0028,-1.2264,-2.7045,-5.2823,2.7817,-0.9676,
4.2261,6.108,1.0802,-133.9375,4.5673,-11.9889,4.7438,4.0505,-1.8826,7.2829,-0.85499,5.8814,3.338,9.9367,
5.4188,7.6697,-6.6973,-138.9166,2.365,-16.0898,3.4953,-1.4952,2.6894,3.4719,-2.7319,-0.25653,-3.1291,1.6277,
3.4064,4.5584,0.2122,-137.5711,12.5875,-4.2782,14.1313,-2.1284,-8.3183,-0.83378,-3.2913,-0.96404,0.67411,-1.1215,
5.6122,6.2131,5.5019,-137.03,10.386,-5.9501,14.2473,-1.5187,-16.0139,-5.6049,-7.9146,-7.1732,-1.2945,-3.9467,
5.9988,8.4919,3.9669,-132.9051,6.6298,-8.7262,6.8855,-1.6686,-7.0993,-1.1708,-0.93175,-4.5732,-1.4578,-3.4685,
1.3003,6.0539,6.1391,-130.7156,7.678,-3.3821,4.062,-2.5325,-12.9396,1.3098,-1.8399,-0.92454,-1.3701,-0.85002,
7.0069,6.1726,8.6628,-136.9727,8.1812,-7.0356,8.1566,-1.4167,-22.769,-2.1432,-11.8529,-4.7255,0.63982,-0.31708,
3.2125,3.3922,2.3589,-141.1671,14.4392,-9.0236,16.8262,2.0432,-7.3029,2.3241,-1.9822,1.825,9.7609,2.1121,
4.9477,1.7426,-11.2802,-146.7971,9.7163,-20.5335,6.1755,-2.9003,5.5483,0.73819,8.7418,-6.4794,6.2825,-2.8351,
8.9891,2.12,-5.7829,-152.0892,3.8306,-31.835,-3.3539,-2.7263,7.626,4.0684,18.3402,-12.8395,5.9056,-1.2188,
3.3886,0.78794,2.518,-144.8919,6.7343,-31.1297,3.3551,4.9095,12.2301,10.8141,16.9988,-7.0075,9.6488,1.0235,
5.3542,-0.46486,-6.5514,-145.1166,7.0534,-20.8265,3.8769,1.9632,3.5419,4.6214,1.8789,-10.2027,3.0443,-5.5456,
2.1409,0.04497,-6.6402,-141.2304,8.0764,-8.9716,4.6081,-2.011,8.1501,2.416,0.19938,-5.7341,3.8255,-0.87455,
2.4941,3.8989,-6.7237,-144.3255,5.6634,-18.5564,-3.3811,-3.3364,0.9124,-0.13936,-1.2586,-10.2106,-3.1527,-2.2681,
7.1652,2.2187,-4.8743,-138.0761,8.2161,-16.4787,-0.28596,-1.6899,-11.1934,0.83333,-11.306,-10.5618,-5.8558,-3.5783,
4.3249,-0.32478,3.1309,-125.4534,13.0256,-1.39,13.8312,-1.1068,-2.3274,4.6395,-1.4688,4.1719,4.1365,0.97497,
4.0654,1.6229,-3.3237,-132.0262,4.5313,-11.0685,5.1681,-5.8607,-8.4542,-7.69,2.9576,-3.4302,-0.44999,-5.8324,
2.3752,-1.3665,-5.5344,-136.9993,5.7057,-11.3683,3.4117,-0.68833,-15.6597,-4.3365,-0.1119,-9.9728,-1.8693,-4.0362,
6.0893,2.0897,0.58251,-122.5126,15.4864,-1.045,17.1865,0.799,-9.4173,5.5653,-4.4437,-0.69713,0.65326,-0.90131,
5.2418,2.4465,2.4758,-125.285,6.3623,-1.9464,13.2631,-7.9258,-5.478,0.41047,-6.1051,2.237,-2.2782,-3.74,
1.5529,2.7816,5.7014,-122.5886,-0.28639,-3.2758,8.129,-2.63,-3.2211,6.1704,2.4559,3.5486,4.6074,3.2333,
3.3881,0.68629,-1.8715,-127.7666,5.0337,-17.059,0.89254,-2.472,-11.7052,3.3898,-1.548,-2.4492,3.8488,-2.2635,
-0.4306,-1.0421,-2.0004,-129.0186,18.8316,-9.0458,7.3465,-5.4571,-7.3875,4.3917,-0.24986,4.6877,5.787,1.0058,
-4.0204,-4.1128,-12.2442,-132.1235,8.4222,-3.9236,7.1469,-8.7449,-7.6674,2.9232,0.0058667,1.7551,-0.10406,0.70467,
2.2468,-3.6251,-17.0532,-128.2935,1.409,-9.2318,10.8154,-4.1229,-6.9659,2.0244,6.0311,-1.0013,0.14315,-2.953,
-8.7345,-6.0585,-11.4505,-119.3908,4.9401,-12.2931,9.9253,-5.5625,-7.753,-3.1585,5.4285,-0.70004,-0.58811,-5.4272,
-3.6307,4.187,-6.1839,-112.4683,4.4027,-10.3502,3.7862,-6.434,-12.8314,-5.6201,-2.3691,-4.7554,-7.0608,-3.8962,
0.20282,2.7307,-5.0898,-107.8896,6.7899,-7.5598,10.5491,-2.9147,-8.4464,4.5993,-1.0218,-0.37294,-0.12941,-0.52922,
-2.7021,-3.218,-8.1588,-112.0213,8.3104,-15.3014,9.9159,-4.1859,-6.0112,2.8773,1.4498,0.1316,4.2169,-4.3541,
1.5576,-0.85549,-8.3924,-117.5923,5.1605,-20.891,-2.007,-6.1041,-7.3379,-6.2136,0.6397,-11.6867,-2.5438,-9.6362,
2.6692,3.2934,1.5111,-112.7062,15.215,-9.2734,8.4775,3.18,2.0202,6.9334,10.0015,-7.8522,9.4192,1.788,
1.7859,2.8546,-4.1232,-117.2718,15.0252,-15.7067,13.5123,1.7841,-1.2343,10.1331,5.7858,-4.2478,10.0591,-0.48869,
-3.1415,0.75515,-0.019172,-106.861,14.6056,-16.2105,14.6297,-3.6251,3.6605,4.7044,6.8849,1.7921,3.189,-3.8338,
-4.158,3.8431,9.8639,-93.4597,17.3449,-1.9815,8.6905,-2.6845,5.6102,1.2888,10.5694,1.9253,4.6847,0.011861,
-0.052407,7.9511,5.8976,-94.1189,19.6784,-0.89853,-1.9541,-3.9699,-3.4037,2.1756,5.1143,-4.9389,5.8496,-2.3992,
-6.075,5.3046,13.9797,-84.3741,24.0411,1.8067,6.5991,-4.4548,3.3082,9.0347,4.5667,3.7933,6.7037,-1.0502,
-4.505,2.335,12.418,-84.8555,18.0191,-5.2913,11.2646,-6.8389,-1.9517,-0.90714,-4.6251,-3.4239,-3.5802,-7.9768,
2.2728,1.472,3.2368,-85.3078,22.4816,-6.6611,10.3477,-4.7413,-6.4139,-4.4681,-1.2146,-8.2801,-1.1962,-4.3652,
0.20798,5.7222,6.417,-73.9226,17.2766,-3.3691,-0.39626,-3.4927,1.2015,2.5486,7.0532,1.3755,4.6599,1.6815,
-1.2505,8.2712,13.2626,-69.9694,2.14,-12.326,-11.9419,-7.1398,-1.2809,3.3598,1.8095,2.7394,-4.2966,-5.168,
-1.4167,3.6773,15.1182,-70.8327,16.1116,-15.2019,2.8746,-5.0239,-1.4452,10.1479,5.7985,8.1185,0.54073,-0.76037,
-2.5368,-1.1228,5.2933,-79.357,28.1601,-23.2076,12.2229,-13.6403,-7.8658,1.5855,-1.0571,-1.7684,2.6777,-3.3661,
-0.45613,1.3549,11.7243,-74.5955,24.0606,-26.6356,8.5972,-13.786,-9.3223,-0.92,-2.9221,-5.5189,5.8912,-4.1282,
0.052943,-3.0649,15.8414,-78.3147,28.8832,-36.1247,15.312,-10.0666,-16.9579,1.5451,-0.81833,-3.2598,4.5737,-4.8446,
5.5936,-6.0143,10.7935,-84.4619,35.5861,-43.8392,22.3472,-13.5602,-25.8221,-5.0549,-5.3487,-9.5715,0.68406,-8.6515,
5.017,-1.0742,17.6175,-69.0303,36.102,-28.9168,28.9601,-7.2029,-15.8371,-2.5829,-4.7869,-11.6488,6.1862,0.30325,
4.2338,2.365,15.5966,-69.7087,27.6696,-29.5919,22.4021,-5.8067,-20.6717,-7.7303,-11.2483,-22.5188,-0.93322,-2.6068,
7.8362,-3.0796,16.1068,-77.0956,28.9015,-34.0831,22.9861,-7.3865,-23.2878,-7.2665,-7.199,-23.5782,4.425,-7.2711,
5.1971,-8.9206,17.7917,-77.0494,26.4443,-32.2791,18.9556,-6.2201,-14.9009,-0.32279,-4.5981,-20.9585,14.5236,-4.6654,
9.2236,-3.0827,7.0835,-81.5852,21.0017,-35.1626,7.6954,-3.9187,-15.4526,-1.2673,-12.5169,-25.4851,3.5292,-4.3855,
4.0907,-5.0671,1.5966,-81.752,20.4643,-34.7405,13.259,-3.9248,-12.3565,-1.9144,-3.33,-18.895,-2.2263,-1.4715,
1.4349,-7.173,-1.3913,-82.6313,14.8983,-38.4404,11.0174,-6.5816,-10.6506,-4.6918,-0.71984,-21.6174,0.31759,-3.7931,
8.0974,-1.9221,-1.3078,-81.5298,17.3787,-33.7237,3.6077,-1.8482,-17.2426,-2.4823,-7.4253,-28.0334,3.6732,-5.494,
5.9246,-1.0841,3.8321,-77.8433,23.3256,-25.1928,6.5245,1.8779,-21.7514,1.7642,-5.2928,-23.2181,2.7297,-2.0311,
4.3638,-4.6345,3.3612,-83.0546,13.008,-35.0094,3,-6.6704,-19.7234,-4.8491,-3.77,-21.1017,-0.085642,-2.6321,
-0.23632,-4.8384,7.0159,-76.1431,14.6381,-25.678,10.0508,-6.2702,-4.44,4.1184,0.79457,-9.2303,11.4887,5.2386,
2.9111,1.4777,6.3538,-67.9591,22.1952,-10.0373,16.9194,-0.83255,-0.19677,8.9328,-2.3864,1.2052,7.1841,4.2012,
7.316,-1.7442,2.8393,-63.6406,14.8382,-4.2531,10.3608,-2.952,-13.9235,-4.8593,-9.7152,-1.036,-5.0573,-3.0406,
2.0565,-5.9781,10.8641,-53.5552,14.912,-5.4437,10.7033,0.59982,-8.7491,-3.6037,-1.4193,-1.456,5.8517,2.9267,
1.21,-4.8963,11.4171,-64.0807,13.2942,-14.0354,11.7481,-1.6056,-7.0195,-1.2185,-0.61101,-9.3226,6.7052,-2.7928,
2.1015,-9.423,9.7682,-68.9125,14.9069,-14.6391,12.0073,-4.4015,-11.4189,-3.5553,-1.5385,-15.5119,2.4467,-5.9994,
4.8677,-7.4116,7.2537,-63.3319,18.3506,-10.3868,8.8765,-0.7632,-19.8925,-10.0911,-1.9283,-20.366,2.2997,-0.81897,
12.7706,4.6025,14.0493,-59.0498,22.0705,-6.3889,16.0569,2.6573,-19.6631,-6.5929,-0.84851,-14.3231,6.0183,3.5687,
4.0506,-0.73533,21.1603,-53.8194,21.9515,-2.8723,24.4935,-3.0458,-13.4216,-1.1357,-4.413,-3.0999,4.9343,-1.2247,
13.2076,4.3705,18.2032,-49.8676,22.3212,-2.9411,17.9622,0.75239,-17.1961,0.13731,-4.8711,-6.5293,4.8792,-2.8389,
15.0662,7.7237,10.1214,-56.7574,17.3665,-5.8979,4.11,6.7328,-22.6718,3.2626,-1.9278,-15.5375,4.3455,3.3574,
5.2446,2.1986,7.8271,-62.752,10.299,-8.1954,-2.1621,3.1953,-13.3577,3.7897,-3.9813,-9.0617,1.4332,2.4326,
5.6526,0.37965,4.7062,-61.156,12.8143,-10.3547,-2.2731,-5.4323,-7.0129,-3.4273,-6.8757,-5.3847,-2.7499,-4.703,
2.1804,1.0798,8.0392,-50.9787,18.5534,-0.81539,8.2276,-5.8292,-4.9044,0.39374,-2.3658,-2.4101,-1.862,2.0872,
3.4956,3.4253,9.0027,-55.6332,8.7628,0.19717,9.1795,-4.9978,-13.2875,-0.11205,-7.0443,-1.3018,-7.0531,2.4436,
3.7678,-0.63656,7.0165,-64.8285,1.4886,-8.4913,5.7367,-2.7693,-9.1158,-0.58726,-2.7653,2.6331,-1.8092,1.8151,
-4.6532,-5.9012,-2.5635,-69.6157,1.3991,-18.5871,-0.39235,-4.5315,1.5543,0.89401,3.1855,-4.2736,4.0841,-1.1861,
1.1699,-0.48526,-4.5787,-65.6797,1.5563,-14.8206,-3.5021,-5.4647,-1.1903,-0.84663,-1.1032,-8.1147,1.1877,-7.1407,
-1.3107,-0.93831,3.891,-52.5799,3.8733,0.048413,-0.88159,-2.7265,-3.5292,-1.278,-0.072948,6.4722,2.5625,-2.3737,
1.6602,2.0103,1.7291,-52.3174,2.1949,-1.8829,-7.0954,-1.1168,-10.0661,-1.6835,-2.4789,5.9636,0.96273,1.1429,
4.4529,2.8538,2.1073,-54.9631,3.5092,-3.6981,-9.562,0.39619,-8.98,3.7199,-6.6687,-1.6253,3.3149,-1.336,
2.0164,-0.45072,7.0425,-51.4244,7.3958,-0.34299,-6.337,2.5418,-1.9335,3.7379,-4.5812,-2.7329,6.7316,0.91354,
14.1879,3.6737,1.5583,-54.8464,6.2291,-5.3839,-9.5722,4.0765,-8.3254,-0.58368,-2.1371,-13.4151,-0.17975,3.9922,
9.9622,4.8995,0.98287,-50.5918,4.8915,1.6878,-1.2851,7.2064,-13.6105,5.7179,1.3655,-11.6459,2.2412,8.091,
5.99,5.0875,4.7801,-46.5922,1.7055,4.9608,3.6123,7.2559,-16.1683,4.4105,0.31929,-3.2344,8.3732,7.1236,
8.5231,1.4078,4.0116,-45.7246,-0.32501,0.32506,-3.8348,1.036,-7.003,-0.19204,-0.66373,0.81607,4.4968,-0.05226,
-1.1473,-1.5688,-1.5318,-41.5351,-0.78744,5.608,-6.4972,-3.3645,-1.2802,1.2653,-0.62391,4.1416,-3.4862,-1.4954,
-0.35512,2.6227,-7.9476,-44.5864,-2.9094,9.3689,-8.2766,-1.4754,-6.2651,-0.97979,-1.7918,9.4367,-1.1074,1.7274,
-0.33427,-5.7298,-6.5066,-51.5524,-5.6273,5.4323,-14.5289,1.0233,2.7875,1.0072,3.6184,12.7269,7.6357,6.9264,
2.3371,-6.5911,-2.5008,-58.8233,-8.9049,-2.3652,-16.7904,-1.6895,12.5024,2.6338,7.0165,4.0093,4.0443,2.8956,
0.26869,-6.6775,-8.6175,-63.4889,-7.8886,-9.9363,-7.5878,-8.337,5.9677,-3.3088,3.221,-5.8722,-2.4654,-5.4733,
-6.978,-12.0612,-15.3308,-64.0176,-4.0406,-14.1604,-0.86581,-4.4621,0.78957,-1.1819,3.028,-5.0377,2.5035,-1.2883,
3.8045,-6.2763,-11.278,-62.3462,-5.0035,-12.106,-7.3218,1.8312,0.9827,2.9864,2.6054,-3.0487,8.8608,1.4401,
-1.9674,-9.9971,-6.022,-56.4363,-7.8368,0.43053,-7.1235,-4.3047,7.4312,0.15564,2.69,4.1241,7.6058,0.1484,
-6.9106,-8.1925,-6.8657,-53.291,-8.0899,1.1278,-3.0806,-6.6975,9.6369,1.3516,6.626,6.5277,1.6058,-1.0653,
-2.6398,-4.8082,-10.7921,-55.396,-11.4607,-8.0986,-6.7524,-6.2954,-5.0413,-0.65747,4.3004,-7.9639,-1.8648,-4.858,
-4.1681,-5.2426,-1.7087,-43.6363,-10.0497,-0.62285,-4.66,-2.7842,-11.1258,-1.3409,4.2834,-17.2471,4.7551,-1.4331,
3.0716,0.13343,2.4912,-36.4386,-10.6522,1.5837,-7.0318,-2.8584,1.834,-4.3942,2.8213,-15.0072,4.2286,-3.9984,
-1.2103,-4.9365,-0.79154,-36.9036,-12.6644,-3.0909,-6.8506,-4.3743,13.5343,-0.99727,8.1954,-6.6352,4.216,-2.5534,
-4.2709,-7.7736,-4.8416,-40.233,-14.0735,-7.4849,-4.7526,-1.9425,12.4811,7.4985,9.3907,-3.1038,4.2038,2.1793,
5.3853,-3.2098,-3.828,-42.8807,-11.5418,-8.2409,-6.1546,-0.62062,4.7423,9.2182,1.8378,-6.533,-0.6277,0.8437,
-1.4455,-9.0427,0.49926,-42.959,-9.6443,-2.2028,-4.5803,-3.2347,1.3245,-0.25321,0.52249,-8.7924,0.13309,-3.7864,
-0.15394,-8.7414,0.22811,-42.5508,-10.7528,2.0267,-5.5103,-3.2821,3.4142,-9.1561,1.696,-10.9159,3.2581,-6.2108,
-1.3498,-10.8682,0.93732,-37.3467,-11.7951,1.6639,-5.4209,-2.8439,10.6809,-0.65275,1.8354,-5.6814,2.8219,-2.223,
-4.884,-14.7956,4.4965,-31.9724,-12.2925,5.1795,1.4121,-5.8066,6.9068,4.4479,-0.92603,0.68477,-0.96306,-2.3303,
0.71148,-9.5694,1.3347,-32.9464,-9.6265,11.1355,5.6659,-5.9403,0.22614,-2.5677,-0.38831,2.5721,0.058822,-2.1907,
-6.0799,-11.4053,-6.9404,-36.2722,-6.639,11.9134,-0.94079,-3.6555,2.6225,-0.003264,5.4193,6.7563,4.3938,5.1718,
-2.3406,-9.2747,-12.3085,-36.5058,-7.6865,12.1629,-6.187,-1.508,-0.90887,5.2996,4.6122,7.3153,4.1307,6.7897,
-1.959,-14.2619,-15.1854,-34.5566,-14.6969,12.1562,-3.6464,-3.5869,-6.8801,2.8127,2.1666,5.1889,2.1954,2.7671,
-4.2518,-19.1905,-16.6844,-41.642,-18.1536,0.33987,-1.9816,-2.8895,-4.5389,-2.1766,3.0007,0.057085,0.61762,2.1189,
5.6445,-12.7367,-13.7552,-46.8563,-13.2082,-8.3576,-9.0933,0.6581,0.55393,0.84631,5.7129,-8.1413,0.5808,2.9559,
-2.4072,-12.9368,-6.6633,-36.3324,-8.0772,0.33854,-8.066,0.13645,1.4843,7.0618,7.2981,-6.6887,4.884,2.7783,
-5.8784,-11.4374,-1.2019,-30.537,-13.1359,3.4517,1.3363,-2.5226,-7.0402,-2.7617,2.2807,-7.4924,-1.4348,-3.8961,
-6.2484,-10.5102,5.378,-26.0535,-16.9273,6.3779,7.2814,-1.6486,0.85381,-8.6217,-0.025515,-1.9814,-4.482,-3.9031,
-6.5966,-8.6743,6.7423,-12.6801,-11.3321,16.8415,0.33728,3.9942,13.0949,4.1879,6.0018,12.2374,4.7048,6.2128,
1.512,-8.1539,0.55339,-15.7755,-11.1342,11.0105,-11.2521,-0.58379,-1.7908,1.5265,0.3395,8.2497,3.4586,-0.90842,
-2.4354,-12.4853,5.8226,-23.0241,-4.1998,8.9034,0.99194,-4.8873,-10.7219,-4.3499,-0.1635,-2.3689,3.2509,-4.2286,
-2.7712,-10.7721,5.9552,-23.0889,-2.0196,6.9229,1.8963,-4.1121,4.0214,-1.1969,1.2926,-8.0113,0.16333,-2.0467,
2.9387,-6.9923,2.4646,-18.5701,-6.9601,1.9282,-4.243,-0.24999,1.0083,6.3472,0.010186,-6.3254,0.87689,-0.23666,
-4.7094,-8.7419,2.0758,-22.9993,-7.2654,0.60749,1.5552,-1.9222,-8.9341,1.8686,-0.23139,-6.1868,3.9578,-1.9092,
-1.5346,-9.1815,3.8796,-27.4039,-4.9011,2.4995,0.98015,-4.6992,-7.9159,-7.8843,0.74659,-14.9744,-1.1002,-8.5433,
-1.4425,-7.1846,10.3953,-14.6727,-4.1251,12.9546,-1.9712,-0.078904,-9.3692,-2.591,2.63,-12.1477,-1.0342,-2.7286,
-2.32,7.3465,11.6998,-6.5617,-3.8778,15.5515,-4.7452,1.3719,-11.2174,0.45676,-1.8668,-7.0808,4.8122,5.1482,
-1.6987,21.0057,4.2491,-13.8805,-2.1987,9.316,-5.9065,-3.0485,-7.1701,-4.3911,-3.6828,-11.9584,4.5237,0.018782,
-10.0327,33.7249,6.1636,-11.3605,-1.826,15.7467,-0.49068,-3.1068,-6.4987,-4.3684,-1.7744,-14.3741,-1.2911,-5.5257,
-4.1283,31.2192,17.3627,-0.55596,-2.6805,22.5147,1.4667,-1.9563,-7.0729,-4.1065,-4.0782,-12.5476,-1.2139,-1.82,
-5.568,31.5154,19.4542,5.021,-2.2785,13.692,1.138,-5.9365,3.2332,-3.137,3.1561,-11.0716,3.9204,3.3507,
-6.439,28.419,10.8151,3.5145,-3.8292,2.9883,0.82851,-3.8929,5.6905,-1.2618,6.5819,-7.7564,1.0339,-0.94794,
-1.4729,25.0271,9.9255,2.5809,-4.3224,14.6196,-2.3542,-1.4901,2.6985,-1.9085,1.1258,-3.1932,-3.1255,-2.5778,
-3.5537,21.8382,20.1762,9.8976,-0.44763,27.8424,-1.972,-0.67783,7.1159,-0.58917,7.0838,0.13185,3.0876,3.12,
-0.4482,21.492,13.6628,1.5908,-3.7955,14.7227,-4.7464,-2.0832,-3.9166,-4.4104,4.7303,-11.4454,0.010026,-0.44143,
-1.1447,17.069,14.0481,0.29027,-1.8805,5.8856,0.1181,2.1392,-9.7072,-0.53039,-3.9892,-13.4103,-0.23154,2.2362,
-3.4859,14.5989,20.436,8.4678,-3.2137,18.5479,1.557,-0.39956,-4.3043,-0.016406,-8.0884,-8.749,3.639,1.1379,
-0.86661,15.1692,13.4253,13.7443,-4.4671,24.6659,0.98168,-4.232,4.6311,-5.3181,1.556,-3.4038,3.9026,-1.8224,
-9.9734,7.9923,5.8715,10.9917,-0.82443,19.8117,2.3693,-5.4236,7.7279,-4.5168,6.7655,3.0676,2.7043,1.1792,
-4.7955,10.646,6.2419,-0.032144,0.4301,15.4897,1.9859,-3.8936,-1.6541,-3.0407,0.33378,-2.6603,-1.0731,-1.5429,
-4.0258,8.561,9.7238,-0.030216,-2.0058,17.4524,4.7588,-5.1058,0.85531,-3.3402,3.2058,-4.4289,-2.455,-2.4146,
-3.7845,6.1194,6.2481,5.7562,-5.2602,15.9231,5.4374,-2.8715,8.517,-0.72947,7.352,2.1036,2.0308,3.515,
1.5042,7.439,-2.0808,-2.5432,-10.0062,8.9419,-4.7708,-1.012,1.0161,3.4112,1.8492,0.29015,1.6676,2.0989,
-7.5039,3.8598,-0.26871,-1.1853,-7.7184,18.2878,-5.6896,-0.22811,6.9809,9.2323,5.3539,7.2624,4.2188,4.1423,
-3.1975,5.0743,1.6756,4.1885,-4.8449,20.5648,2.3643,-2.6248,14.757,3.3759,5.9968,8.2727,1.5558,4.3759,
2.2973,2.8414,3.5033,4.9013,0.26624,14.5104,8.9711,-2.4671,12.4251,1.2454,4.6729,5.3664,0.9803,1.2211,
-2.6613,0.26079,3.775,1.7147,-1.196,14.1217,5.5408,2.0193,9.7514,5.0266,3.4282,4.0801,1.4034,-0.29843,
-0.81438,5.3068,1.8615,0.40673,-7.1498,13.0334,-2.2634,0.2109,-0.71563,-1.7825,-2.3211,-0.74399,-3.7425,-1.9678,
-4.14,3.5422,6.0881,11.4696,0.99198,18.036,1.7287,-1.73,-8.8674,-3.6037,2.1565,2.6746,2.2667,2.971,
-0.034959,6.2219,5.7231,7.8893,1.8966,15.9902,-2.2311,-0.66206,-12.6739,-2.4234,2.5097,-2.7878,5.0234,0.86434,
2.1363,5.6076,2.7281,-3.9125,-8.5816,9.9687,-0.89243,-1.8276,-10.2262,-2.037,-3.185,-16.7205,2.5524,-0.87475,
-2.3307,2.3787,5.457,-0.78542,-6.138,14.1913,12.6585,-1.2356,-6.7206,-3.843,-2.9939,-16.8023,1.9173,3.0341,
2.3889,1.0306,3.9245,0.46676,-6.4931,12.1345,6.3553,-0.43854,-9.4509,-9.156,0.31925,-11.6968,-1.3312,-0.76334,
1.0405,-5.0565,4.8941,-1.2482,-7.7905,10.2014,-0.051293,0.79283,-5.7501,-3.5452,5.3615,-11.2358,2.3643,1.4518,
1.942,-1.8611,5.5645,-2.1374,-2.9848,11.9999,2.8438,-0.2186,-9.2615,-0.92191,-0.26279,-14.418,2.2224,1.3647,
2.7898,0.66119,4.2663,-1.5273,-1.8418,15.1358,6.5296,-1.1698,-3.4036,-1.8309,-3.6215,-10.6609,2.0891,-0.16341,
-1.7164,-2.271,3.0465,-4.3279,-7.5154,11.3356,3.7277,-0.61769,8.3702,0.68906,2.8628,-9.0569,3.41,3.7028,
5.1353,1.2395,-0.51075,-13.2273,-6.1009,1.9786,-3.2446,-0.098466,-0.8093,-0.79831,-1.1656,-18.1547,0.31266,1.0703,
0.24786,-4.378,-4.5775,-11.7105,-2.1189,5.4753,-1.8447,1.1127,-7.2682,-1.9552,-3.7468,-15.8601,1.9811,-2.127,
-2.9003,-3.3927,-4.5438,-7.3925,-5.6074,13.5827,0.91687,0.32284,-4.6627,-2.0791,0.57563,-7.4369,2.1035,-0.7943,
0.88917,3.3188,1.2725,-2.8513,-6.9578,15.9012,3.9953,-3.3119,-6.5521,-2.6773,-1.1461,-1.4471,0.77242,1.4225,
-1.0924,3.1197,7.9448,5.9966,-2.202,15.911,6.6481,-5.5234,-3.7489,5.6781,-3.0056,2.9785,1.6899,4.7116,
2.3476,1.4862,0.71942,-1.1119,-6.8906,6.2797,-1.4635,-5.6739,-0.63143,1.9629,-0.4151,-8.2874,-4.196,-1.8376,
-0.20359,1.3973,3.0864,0.88282,-6.9593,14.0974,-1.3759,0.93283,5.1908,-0.082813,10.6968,-1.042,1.3581,-2.2095,
-3.0839,2.2773,4.3472,4.2043,-3.6492,19.5185,-5.1498,-0.087011,-1.8695,1.8503,3.7885,5.7695,1.7586,-3.0413,
6.7426,3.5869,3.1225,1.5419,2.3543,10.6346,-2.9126,-3.9382,-8.5058,2.7032,0.18672,-3.2533,-1.239,0.51567,
2.4814,-0.002953,6.3094,4.8236,-3.0898,10.9602,8.8311,-0.32766,-0.28293,5.9152,8.3705,-3.0584,-0.20055,6.7515,
-1.7648,2.6488,-0.094938,2.847,-16.1608,10.544,-1.5807,-0.54897,-3.8814,-1.4291,-2.4961,-4.5621,-8.1427,-2.5717,
-0.21269,3.9361,-2.4994,2.6762,-4.5859,14.2497,-8.2343,-0.034098,-3.648,-1.3434,-5.7203,-1.3959,-1.3872,-1.4531,
-0.68232,1.7717,-1.3853,-0.85863,0.50999,12.4308,-2.92,-2.9246,-0.53709,0.66544,-2.0027,-1.3121,2.5524,2.4905,
0.32271,0.70135,0.14384,-1.2893,-9.1618,11.6848,-1.2988,-5.6414,1.4231,1.1072,-3.8109,-5.09,-6.76,-1.9975,
-4.7581,-2.9564,3.7506,6.2599,-6.4432,20.8658,1.4305,-1.6873,3.989,3.2102,-2.8591,-1.6513,-5.6312,-1.6369,
1.0712,1.3186,1.3567,2.2689,-5.333,17.9264,-0.34234,-1.3448,-8.0602,-3.4901,-3.4107,-3.7212,-1.1958,-0.33314,
3.1759,4.8551,4.4085,0.92768,-6.7005,17.574,-4.9013,-2.9516,-8.7817,-2.0757,1.8554,-0.84659,2.0097,2.3382,
-3.04,2.3944,3.9033,2.0773,-7.5035,14.3506,-3.8841,-3.0152,-4.6396,0.70065,0.057058,-1.5189,-0.2803,2.4391,
2.2036,2.0098,1.0175,-2.1449,-7.7762,6.0178,7.6771,-0.66516,-7.9766,-1.0291,-1.1517,-6.0075,-1.4688,1.0874,
-0.097744,-2.2082,5.0538,-3.7034,-2.7303,7.8259,13.2421,-0.86622,-4.3645,0.23796,6.3892,-1.5497,0.78852,1.7451,
3.2823,-0.1477,3.7865,-6.3735,-2.0843,6.3922,-1.0501,-5.1533,-7.9593,-3.151,1.6673,-4.349,-1.1868,-2.2162,
2.8447,1.5486,6.2106,-0.92943,-4.1287,4.8036,-2.1917,-4.1205,-6.7586,-0.31016,-5.4223,-3.8469,1.0538,-0.3958,
-4.7978,0.73234,11.3816,3.7056,-4.6039,4.7564,6.8575,-4.5966,4.4932,0.91329,-5.338,-0.4826,-5.5173,-0.61302,
3.9262,2.858,10.4577,-5.9165,-9.8712,2.7838,-1.5077,-6.4895,5.4289,-0.34634,-8.1507,-1.1765,-14.5863,-7.0837,
3.4492,0.034988,12.9633,-10.6232,-8.5561,7.196,-9.371,-1.5213,1.0053,8.1101,-4.5286,5.8835,-5.7574,-1.1155,
2.7603,2.443,10.2578,-11.4318,-1.2938,1.944,-8.8088,1.4625,-1.4651,6.6596,0.56379,4.0842,1.8189,1.8439,
4.0407,0.8504,4.3394,-11.2281,0.22986,-6.3676,-2.9778,1.8569,0.55123,2.8854,6.3143,-5.8016,3.1558,2.6974,
0.18308,-3.2982,3.3562,-17.0621,-6.2916,-8.1545,-1.5941,3.4325,3.1695,3.9178,10.515,-11.4793,3.2077,4.7049,
4.2697,0.032946,-0.46063,-22.5461,-11.4575,-9.3526,-9.9343,2.9858,1.2919,0.06706,6.2689,-12.4775,1.3282,-1.1212,
1.6031,-1.4151,-1.879,-14.4444,-7.3958,-2.5247,-9.338,2.3245,-3.1238,1.5095,4.4467,-9.3185,5.1047,1.8383,
4.3992,1.0802,-0.80241,-11.1676,-5.988,-0.92722,-0.58283,2.1848,-15.47,-0.50947,0.80523,-21.775,1.4242,4.6203,
5.0992,1.4973,1.6561,-10.4976,-6.1107,2.0209,4.7548,1.0898,-13.5775,-5.2996,-4.5453,-26.2531,-2.5177,0.0047948,
-2.1967,-1.2436,4.6898,-2.8781,-1.6467,9.371,3.2642,0.78348,-0.95273,0.56198,-4.514,-10.9396,0.76641,0.24547,
2.2737,2.2052,1.5161,1.6332,-1.5481,10.2552,-3.6803,-2.1558,-5.7161,0.52849,-3.761,-9.3191,-1.6895,0.71291,
-0.031899,-0.57818,4.0767,6.5966,-1.6962,16.1474,2.566,-1.3036,-3.6859,0.25581,0.56203,-4.6626,-1.3471,3.3212,
-1.7172,-2.2307,0.69858,-2.717,-7.6199,11.5631,0.24292,0.46187,1.1146,-0.4829,-1.6408,4.0533,-2.4716,-1.4573,
0.79595,0.31325,-4.646,-5.9284,-8.609,2.6747,-8.4488,-2.9403,-1.3624,-3.346,0.86773,7.6664,-3.2872,-3.7805,
-2.867,4.874,3.1048,6.7196,-1.1028,9.0219,-0.95218,2.78,-3.932,-0.49436,5.3952,5.519,1.9715,3.9184,
0.43851,6.7507,4.1234,2.219,-8.0261,9.2035,-1.136,4.7823,-11.6498,-2.6339,-7.2206,-8.5505,-5.1367,-0.89646,
-0.31093,2.2481,3.1533,1.8449,-9.7139,15.159,-0.34473,-1.0485,-2.5149,3.068,-3.6541,-0.083463,-4.5873,-1.0834,
-1.9795,2.8365,-4.026,2.9393,-9.372,12.0803,-5.3857,-5.5648,2.6972,1.1967,-0.78376,9.8035,-5.0354,-0.29551,
6.093,6.2818,-2.5792,-1.3344,-7.6044,3.8837,-5.7855,1.2765,-1.0796,-2.4905,-6.7623,3.1897,-7.3844,1.8914,
-0.78005,-1.085,3.6014,-3.9057,-4.979,2.4458,0.10526,-0.48728,-0.77386,0.7924,-3.2231,-1.5809,-6.2184,2.5013,
1.4357,1.1495,1.2159,-3.9123,-4.9214,-0.83467,-3.5162,-8.8939,-1.9325,-3.3527,-1.8246,-1.7273,-6.086,-5.6028,
2.0727,1.3213,1.3837,1.8658,-2.9392,3.313,-4.5108,-5.709,-2.0577,-4.3566,-4.3665,-4.7574,-3.5519,-5.9897,
-0.22085,1.001,3.9522,6.8153,-2.0395,12.0318,-0.62473,0.17716,-0.72944,-0.48027,-4.3454,-8.5693,-0.68773,0.87712,
5.3362,4.5566,2.9919,3.2734,-3.1222,14.4436,1.5821,-0.074203,-2.8546,0.27214,-5.2898,-2.0293,0.077127,2.5119,
-1.2509,0.42682,1.8486,4.0411,-4.863,11.1669,1.0053,-0.55168,0.20919,-0.22612,-4.9724,7.2514,0.072499,0.43304,
1.4757,2.5704,2.4605,5.9678,-6.2585,1.5788,-5.563,1.1682,-1.973,2.9205,-2.9868,5.1291,-0.65521,0.16609,
-0.54103,2.4161,8.0975,9.948,-3.9548,1.4841,-6.1931,1.5805,-1.8546,8.0479,2.977,7.7139,-1.0978,2.0843,
-5.5703,2.9941,10.7451,16.8229,-2.0302,14.1695,-5.0986,-2.1298,6.2104,1.5395,4.0032,9.9022,-5.6117,-0.21036,
-0.89772,5.707,6.244,18.7061,-1.9084,15.2475,-12.9874,-7.7866,1.9819,-5.3018,-2.9855,-0.81486,-9.1309,-7.4281,
-3.254,5.8465,13.1002,29.635,3.9907,16.7428,-4.4954,-3.9454,0.89862,5.1397,1.532,3.5723,0.093564,-1.6798,
-3.2997,8.1468,10.627,24.7235,3.0283,12.1228,2.2818,-3.4672,-1.8064,0.25154,-1.211,0.70691,-2.5631,-2.3024,
-1.4145,6.9351,2.0352,10.9478,4.5334,-2.7046,0.45771,-3.0187,5.2914,-1.9327,0.54841,-8.2536,1.2056,-0.95893,
-0.36576,7.0009,-0.014898,9.3268,7.1539,-11.8216,1.3946,3.4294,13.651,7.3423,4.8543,-10.6509,8.8465,3.4369,
-0.34359,2.2423,-3.3885,12.6236,-2.4341,2.8672,-3.9915,-2.5607,5.119,-0.81126,-3.15,-12.9041,-4.6999,-6.8924,
-7.3126,-2.9537,5.2508,21.7483,2.2914,16.7952,1.3094,-3.6126,8.4275,-3.8958,3.5467,0.16243,-0.80229,-3.3452,
-6.8741,-0.36612,3.9716,11.7663,2.1537,10.1232,-0.69756,-2.9137,0.69075,-2.698,-0.52223,-0.81142,0.69188,-3.6266,
3.6615,6.4045,6.1437,12.5066,-0.38587,-0.12543,-0.65548,2.5636,-2.7249,4.6945,-4.8294,-2.6907,-1.2781,-1.481,
-0.89652,5.5383,14.9341,25.8562,0.11968,13.9821,3.2402,3.856,-0.63323,4.4133,-5.0216,5.6655,3.1374,6.321,
2.7725,11.7137,16.2074,29.2458,4.2096,24.8333,2.3227,4.3478,-6.6206,3.4254,-4.4796,6.0487,4.6362,7.6288,
0.67792,8.1184,11.8605,23.6349,6.3676,20.4508,0.73753,2.6411,-3.3313,7.5582,0.60991,-3.4728,4.8404,2.8327,
-0.56782,4.498,5.6051,17.1549,-3.4147,13.1979,-3.8867,-2.5793,1.9301,-2.2956,-1.5961,-12.6652,0.45237,-6.7375,
-0.051817,3.7462,5.2688,16.6078,-8.9944,9.514,-4.6174,-5.799,1.3323,-9.8706,-1.9822,-5.1563,-2.9492,-5.3693,
-3.9051,1.5932,5.917,19.4677,-0.74192,13.7634,-6.7504,-3.0404,-0.6758,-3.4938,3.4393,6.2403,-3.2542,5.5581,
-0.53753,3.1846,0.50003,15.1664,-3.8307,7.8762,-13.8175,-4.0635,-1.8403,-2.561,-0.8646,-2.0881,-6.1927,-0.31876,
-1.2282,4.6808,7.9423,24.6205,-6.7343,16.8036,-1.1783,1.7239,12.3701,3.6182,5.6948,7.9196,2.615,2.3515,
-2.3598,7.051,10.1168,27.7225,-6.5712,22.7852,-2.7948,2.8258,21.1481,0.75,9.4504,16.8439,-0.19343,2.9333,
-0.048806,7.8335,9.2691,24.3724,-6.9001,16.3567,-11.5445,0.48728,14.8178,-2.4283,6.2325,12.7005,-5.7247,-1.3398,
-7.5175,2.784,12.8101,27.0074,-7.6911,8.3856,-8.201,-0.26509,14.6519,4.7071,3.2073,9.2871,-3.2123,-1.5007,
-0.076993,5.75,11.8005,17.9149,-6.9887,-1.5175,-6.986,-1.4545,-0.32724,0.3273,0.36327,-3.5626,-3.2606,-4.0617,
1.1327,3.236,11.8156,12.7427,-4.4,-4.0778,-6.8076,-1.6084,-14.4076,-5.7181,-0.86359,-15.1592,-3.3061,-5.0235,
0.58279,4.4881,8.6965,18.2449,-5.5822,-1.9049,-1.5784,-0.065639,-4.1429,-2.0006,-1.7756,-14.7316,-4.5536,-6.1679,
2.9582,4.2186,-0.50258,14.7398,-7.6577,-1.7908,-1.4839,-4.4003,-0.038188,-2.8446,-2.6332,-9.0272,-5.7268,-7.2443,
0.8525,1.073,1.4558,18.6759,-5.27,6.0294,-2.8412,-2.69,-2.9284,-1.7101,5.2376,-3.1829,1.3652,3.3137,
8.2729,6.5524,5.466,19.7248,-8.0871,7.3551,-3.8758,2.0509,-2.9934,-0.40196,6.1284,-11.4279,2.0069,4.3199,
3.438,2.7851,2.2458,13.2386,-7.6016,4.0215,-2.6791,1.9277,3.9348,0.10386,2.8684,-15.5627,-1.0058,-1.7236,
0.098464,1.4129,1.8703,14.6135,-4.0123,-0.3174,1.5792,3.0175,6.3501,0.33882,5.3476,-10.5313,-0.70472,0.54873,
4.1901,3.9795,5.8552,15.906,-7.8691,-5.3598,-0.68493,1.149,1.3895,0.077757,6.2318,-13.5151,1.507,1.7213,
-1.6049,4.4636,11.0475,18.5669,-8.6023,1.9512,-2.813,1.321,6.3674,7.5444,5.1345,-6.1967,7.4421,5.233,
1.8656,9.0163,7.0104,16.9709,-10.0141,0.87003,-8.429,1.7239,2.6111,5.6457,-3.8504,2.37,-0.71744,1.5448,
1.5127,2.9317,6.8308,19.0859,-6.7621,-1.3513,-5.7541,1.8615,0.2853,-0.71855,-1.4498,0.058667,-5.7356,-2.1633,
-1.7113,-0.85942,9.5542,14.3256,-5.6333,-5.8493,0.13497,1.991,3.8838,-0.43424,4.663,-2.1138,2.0801,3.0279,
2.7299,3.0483,4.6424,1.8967,-10.5977,-7.4268,-8.0681,-3.4314,-0.68775,-1.3727,-0.43772,-1.0229,0.027328,2.8465,
0.15578,0.45504,6.7742,6.1214,-6.5876,-0.23249,-6.138,-3.2252,3.6921,1.6024,0.55264,0.96648,-2.3847,1.2297,
6.1722,0.66894,9.9829,9.3693,-6.4331,-14.3185,-3.6003,-0.86234,2.265,1.265,-2.1318,-10.9019,-1.0365,-3.906,
6.2836,2.0748,10.83,9.2891,-8.9399,-27.5594,-4.8308,-0.81083,-3.1733,5.5272,-0.075507,-6.3911,5.2924,-0.29743,
-1.324,7.2528,5.8421,12.1062,-9.8495,-11.8059,-5.505,1.1658,-0.09061,10.4985,6.1953,8.0923,6.9028,7.4334,
3.8171,12.3612,0.42988,14.9952,-18.1766,3.0025,-12.1641,0.37293,-1.7724,0.95049,0.28043,8.2092,-1.947,3.372,
-1.2327,1.4966,5.2248,16.5059,-20.9419,13.9098,-10.4699,-2.0596,-5.5224,-3.4449,-2.6289,-4.8164,-2.7945,0.27762,
1.7338,1.8888,9.2496,8.7666,-12.455,12.5928,-3.5752,2.4023,-9.5294,-1.31,-1.5068,-12.7226,3.6401,-0.22143,
3.0758,3.2215,3.8742,4.3842,-14.1181,11.837,-4.3248,4.6685,-8.9579,-1.7135,-1.8986,-7.1387,5.3497,0.75595,
-2.8933,2.0643,1.2316,6.5315,-21.4657,2.9321,-8.886,3.9065,-3.5997,2.7281,2.0717,1.4848,6.9569,7.9414,
3.3061,4.1098,-1.0117,0.11411,-18.4905,-4.7154,-14.8606,3.9128,-11.3377,3.7694,2.6705,-10.8966,2.4419,7.2242,
-0.50794,0.72954,3.6285,7.0967,-8.4635,4.003,-6.9793,3.9193,-8.9704,4.2659,2.751,-11.4483,3.0185,3.657,
-1.4416,4.5424,6.785,18.2405,-9.4013,11.9582,0.18858,1.7561,-3.6113,3.5283,3.0681,-4.0123,4.7658,0.063394,
2.9837,7.1624,2.0396,14.7357,-14.1398,9.3125,-3.1972,1.6508,-2.9126,2.3523,4.3303,-2.8077,5.9261,1.0239,
-2.4982,1.9117,-0.97505,10.4771,-13.2917,5.861,-7.3439,2.9978,-2.2557,2.2113,2.6245,-2.1571,5.5703,6.7468,
2.2312,2.0382,-1.6397,4.3051,-14.1812,-1.4799,-10.5187,2.5767,-4.2898,1.3555,0.77999,-9.0173,1.139,6.5832,
-0.071816,-2.1815,-2.2642,-0.53272,-16.9457,-5.9708,-11.0926,2.1811,-0.41697,1.9976,4.8305,-14.9837,2.2759,4.0191,
-1.2726,4.4571,-3.3334,6.971,-14.2418,0.89515,-11.1502,3.2553,2.7413,-0.29168,1.4075,-13.362,4.3083,1.6085,
-0.23212,9.9745,-2.6512,17.1578,-13.3872,11.9289,-11.4453,2.0959,0.64887,-2.6845,-3.9799,-8.7037,-0.28873,-1.8622,
-3.5929,6.9652,3.2922,18.5385,-11.6199,17.4794,-6.9024,2.9343,5.43,3.7428,3.9715,0.49493,3.5848,3.5519,
1.4434,6.0658,1.1665,8.2674,-15.743,2.4514,-9.8623,-0.6158,-0.19803,-0.33767,-1.0871,-8.2114,-0.0043268,-0.035165,
-1.2943,0.15827,4.23,6.0841,-16.968,-6.1318,-6.137,-1.7841,-3.3196,-2.0046,-2.7091,-18.5645,-1.6913,-0.27448,
-0.011796,-0.09265,7.1092,3.0678,-16.6731,-5.5229,-6.0102,1.9383,-6.2535,0.2848,4.4433,-20.5841,2.0256,3.8393,
5.0506,2.0821,2.5853,3.1247,-16.878,-0.12989,-11.6754,-0.34759,-13.8325,-3.8301,0.078931,-18.1443,6.0014,0.4755,
-3.2062,-1.6578,4.5993,13.3013,-10.3215,9.7598,-1.0927,-3.9417,-9.3871,-0.94874,-1.1306,-8.1375,10.703,1.1703,
0.36064,-1.0764,2.3952,1.4162,-12.1123,-1.9125,5.2398,-4.6695,-7.8596,-5.2301,0.86585,-12.9515,4.7582,0.61817,
1.7853,-6.7964,-3.0512,-12.7688,-17.1701,-15.8978,-2.3054,-2.9431,0.3248,-4.4344,6.1161,-20.8515,3.0264,2.0273,
0.23166,-5.9069,-3.3503,-14.2925,-18.0683,-18.1979,-7.4697,-1.3205,8.5002,3.5447,12.0159,-26.8315,7.1834,4.3156,
6.7255,4.8116,0.46639,-6.4453,-14.3332,-11.5626,-1.4779,-1.4824,-4.3025,-1.248,9.1255,-35.1037,8.4394,6.2261,
-1.873,5.4875,5.7408,6.957,-5.278,-1.2277,4.3955,2.4631,-17.0596,-3.1011,0.86545,-29.1409,10.3434,4.4065,
0.16758,5.6401,4.4325,13.7702,-3.5151,3.1843,-4.0634,1.8334,-14.5897,-4.3613,-5.4535,-23.5361,7.7946,-1.1606,
1.3628,0.24005,4.4075,11.257,-6.4376,8.0549,-3.5781,-2.8559,-12.991,-7.7146,-1.5104,-19.9543,9.0141,1.0782,
-1.1291,0.22565,5.5893,8.6532,-7.9796,7.0892,2.9031,1.1714,-20.8886,-3.3953,0.50799,-17.3112,9.9196,3.4237,
3.5182,5.756,1.6383,8.8571,-6.2957,0.15664,-2.8149,2.7886,-17.9483,-1.5046,-2.6557,-16.5133,6.6731,2.9775,
-6.8163,-4.7128,2.9863,11.2177,-7.3643,3.5212,0.24601,-5.092,-8.6767,-7.1989,-4.907,-14.5586,4.344,5.6909,
-0.86345,-2.2606,6.9047,11.268,-11.0198,6.9256,3.8469,-3.5809,-12.2532,-6.5258,-5.8172,-14.8902,0.46819,3.6625,
5.6958,3.4186,10.1058,10.351,-11.0815,1.4484,-1.9275,3.1414,-18.0257,3.2658,-3.7809,-19.0584,1.1635,2.2374,
-2.1177,-2.8125,4.4378,3.222,-12.586,-3.2183,-4.9454,0.30136,-22.97,-1.9923,-6.6875,-27.7969,1.8165,3.3085,
2.5889,-2.8845,-1.8542,0.85974,-10.1436,-4.2298,-1.9969,-1.4033,-14.6017,-9.8263,-3.153,-27.816,3.395,3.8331,
-2.6279,-3.9165,0.90833,9.726,-5.9195,-1.3251,3.1844,0.36793,-4.3258,-5.6215,2.5795,-20.1218,7.7704,4.8082,
-2.2293,3.3079,6.3974,14.2039,-5.3236,2.3698,4.6801,2.515,-15.8768,-7.4534,-6.0109,-23.0118,4.6531,3.7963,
-0.89046,4.7969,6.2548,17.9314,-4.7628,8.7358,2.2304,1.1591,-18.539,-8.6932,-6.8553,-23.3181,0.75868,5.256,
-4.6934,1.617,5.3976,24.0861,-6.8874,12.068,-1.2779,-3.7307,-6.3399,-6.2434,-1.6233,-16.6164,3.1233,5.4226,
4.0239,7.0632,7.2429,23.3639,-6.7153,8.2105,0.96793,-1.3382,-10.0568,-10.4485,-8.0338,-18.2709,4.1407,2.9281,
-1.761,0.6136,2.7107,17.8647,-6.0715,8.4405,4.525,-0.052845,-9.6946,-8.1342,-4.9005,-19.826,5.5797,3.9574,
-2.8604,1.3004,-0.10324,14.6239,-5.4657,9.6215,2.567,-2.7005,-3.5691,1.2722,2.8656,-14.0569,6.9324,6.8537,
2.3729,2.9091,5.9285,11.0949,-4.4149,5.9108,0.7253,-1.8156,-16.6116,-0.0094363,-8.635,-16.347,3.383,3.7909,
0.78407,1.7705,12.3215,12.3574,1.6344,7.9665,4.5384,3.1138,-19.4713,-4.8298,-14.3836,-21.1505,4.626,0.67118,
2.1835,5.0389,11.5824,7.2776,3.9466,4.5962,7.1584,-1.4116,-12.0362,-5.9861,-3.3975,-23.2557,9.6509,-0.81512,
-5.1783,-0.56605,8.9593,10.2152,-1.5928,1.4279,7.2108,-3.737,-2.6374,-3.2168,8.3755,-18.4864,15.3383,4.054,
-5.1088,-2.2191,3.3603,13.6999,-8.4866,-7.5756,-1.1753,-1.3434,-0.30978,-6.6389,1.3657,-23.4027,8.3927,4.052,
3.6338,-0.88111,8.2199,10.7085,6.1226,-9.7722,5.8846,0.90638,-4.8705,-5.0353,-9.0805,-25.1318,8.6121,2.6036,
-2.61,-5.4073,17.6088,10.3072,19.8552,-5.5702,19.2701,-0.35307,-14.9423,-4.492,-7.3302,-26.275,13.6392,3.1705,
1.162,3.3528,14.3831,12.822,13.8432,-12.2259,11.6064,-3.4654,-21.9995,-10.2485,-3.7573,-36.991,10.6517,0.32917,
-1.8,5.5615,12.0737,20.7295,6.7458,-10.0463,6.0891,-5.6678,-15.8593,-8.6695,-1.6039,-32.3615,11.4586,1.7555,
0.23622,4.7459,18.5801,27.1985,14.5363,1.6437,14.4008,0.45684,-12.9796,-5.2568,-3.9178,-19.3325,13.6631,5.5065,
4.5601,0.60455,18.4294,25.0845,11.7357,-3.7578,14.5009,-1.0166,-17.9854,-9.2799,-8.0213,-22.029,7.5409,-0.60869,
-6.3181,-3.2879,19.252,28.4001,9.1036,-8.3523,14.113,-4.8118,-13.0496,-7.2771,-3.2015,-18.7788,6.1244,2.3206,
-0.87754,1.4889,14.9637,23.0807,6.8699,-8.5748,6.7585,-3.8004,-8.1695,-7.5636,-1.3224,-19.3395,5.5157,2.4221,
-1.307,-3.4209,7.7991,16.3932,3.0835,-9.5063,2.0144,-3.5721,-1.8946,-6.6276,1.6492,-24.9278,8.5595,1.3127,
-3.8797,-3.9386,9.9822,17.579,8.4421,-7.7306,7.4372,-1.1886,1.3526,-3.5789,1.7917,-22.2269,12.6252,7.7418,
2.1374,-1.7743,11.3117,14.5961,9.3816,-8.2309,5.5449,-2.5634,-4.0314,-6.2564,-3.1363,-22.3395,5.6009,4.867,
-3.7756,-7.9346,13.0434,13.2381,5.9264,-8.7011,10.5146,-4.338,0.067076,-5.8808,0.42612,-21.9633,5.2651,4.0928,
-2.3436,-5.771,11.5377,13.6491,3.4019,-9.8661,16.3919,-2.8722,-1.142,-8.1793,-0.32257,-23.7785,9.0468,0.71397,
-0.275,-5.425,10.3632,19.5789,8.0183,1.8129,15.4082,-1.7357,-2.0376,-6.2425,-1.7493,-15.1212,9.95,-0.29296,
-1.4636,-4.8583,9.0183,24.9118,7.7779,6.2836,8.4579,-3.801,3.6281,-3.2166,-1.8855,-10.5987,9.1118,2.8579,
5.8551,2.6636,9.4415,26.3092,3.9368,-6.1449,7.9504,-1.1628,-1.8923,-6.3981,-1.7724,-22.496,8.5651,1.7221,
0.44211,-4.4857,12.0081,25.9359,3.9415,-9.3917,11.0888,1.0761,-13.1069,-7.7014,-2.3889,-31.0284,8.2922,2.824,
2.8259,-3.7344,13.6979,21.4875,6.5973,-5.4535,8.0131,1.4937,-14.7306,-5.3109,-7.0661,-30.1308,6.8305,1.6905,
0.48722,-0.8592,13.117,20.9211,4.9967,-6.3316,11.1478,1.6451,-1.0726,-4.7513,-3.5091,-25.6717,8.5899,-0.098155,
-5.5678,-5.8691,5.8223,20.389,0.59927,-7.1567,9.7558,-0.62303,1.6431,-7.5995,3.6911,-29.675,10.7258,2.0771,
2.4791,-3.5888,4.5091,17.2377,1.5276,-6.7273,5.796,-0.58519,-12.5555,-7.1435,-1.8325,-32.2328,10.5646,5.8089,
-3.4538,-5.3016,13.3976,20.542,5.2924,-9.2158,13.1615,2.342,-6.3788,-0.93032,-3.1689,-23.5499,8.9664,8.3529,
-0.11356,-1.3681,13.7986,20.0324,1.8413,-14.2069,13.5766,2.4424,5.8141,-2.5617,6.9032,-22.8603,7.2232,7.1283,
2.7855,-3.2144,7.1863,17.8661,-5.4998,-11.426,2.6389,-3.0065,-3.2117,-7.7104,6.0069,-27.2732,10.1644,5.7365,
-0.27388,-1.5751,10.6113,27.8816,-1.7955,1.7928,5.8548,1.5124,-4.465,-1.9454,-2.0661,-17.9241,14.3751,5.3926,
5.0452,4.7859,8.0469,27.655,0.72278,6.9879,6.4678,2.3855,-3.2332,-5.6851,-8.2086,-12.5099,6.2817,0.7307,
-0.077994,-0.8041,6.5995,23.1031,0.19679,8.4965,5.5976,-4.5063,-7.8597,-8.2362,-1.4498,-9.3494,6.8689,5.025,
-0.55548,-3.6477,5.7218,16.8965,-1.2606,-3.1002,4.78,-5.6819,-14.6187,-8.7062,-0.88069,-16.019,7.4209,5.2056,
5.9856,-5.1163,5.1373,12.2673,0.98398,-9.4219,7.1441,0.6843,-8.6804,-6.4968,-3.9611,-19.1555,10.5908,6.5803,
1.0469,-11.7989,0.24956,8.398,-4.1365,-9.0978,4.0641,0.88444,-6.4723,-2.0094,-4.9285,-13.4266,12.1248,9.8011,
5.0814,-6.9937,-2.4165,6.689,-8.4676,-11.203,1.6516,2.5186,-12.5915,-0.20162,-2.9456,-13.3439,7.2999,8.9721,
-1.249,-7.2974,1.8254,6.0465,-1.4521,-5.9516,6.1313,5.0186,-9.6671,0.051445,-2.0459,-13.7486,9.513,8.6743,
-0.93308,-2.2798,0.99296,4.4784,-1.124,-4.8711,4.5586,5.9228,-4.0254,-0.19261,-2.1641,-14.129,10.6295,9.3591,
5.6306,0.025911,-2.1999,6.3789,-10.4568,-10.6046,-2.2226,6.2905,-4.025,1.024,-1.3112,-17.8607,1.0739,9.5207,
-1.4561,-5.2778,-0.62162,7.9246,-12.2395,-9.004,-4.9818,5.4312,-11.4963,0.48064,-3.1607,-22.0915,2.4557,11.842,
6.1033,5.4029,1.1027,6.7259,-4.0333,-6.2949,-1.5492,10.1667,-13.9398,-5.574,-6.1048,-22.4532,14.1182,11.8541,
1.6395,1.4636,-1.1324,5.1173,-1.1398,-9.5324,2.6409,5.4591,-6.5957,-9.8191,-8.8717,-20.8649,8.6921,6.5638,
2.0233,-1.5165,2.3097,10.5951,-0.58922,-6.0681,9.2316,2.2393,-5.7178,-3.4451,-6.8929,-20.0949,4.7959,6.6521,
9.1323,1.9485,1.2068,8.031,-2.9647,-7.1503,3.857,3.5512,-13.0877,-2.2745,-5.0336,-25.1562,4.9901,2.8781,
2.5588,-0.81955,0.41153,7.7901,-2.0637,-8.8904,1.9383,6.4712,-4.3485,-1.4147,-0.1518,-19.0673,6.3779,2.9464,
3.8515,0.19349,-2.5057,3.4661,-4.3502,-12.2139,1.822,5.119,-2.6415,-0.84788,-1.589,-17.9232,6.9591,8.5542,
0.24621,-2.7104,-6.2115,-0.59806,-7.4632,-9.5526,-0.69765,3.3659,-3.9291,1.6133,-0.52952,-17.3298,7.988,13.3438,
-1.9377,-3.2707,-7.526,1.607,-8.2207,-5.846,-1.3787,4.8511,1.3681,1.2756,1.6714,-11.7105,4.8576,7.4815,
6.6144,0.54075,-2.9769,2.7159,-7.0043,-12.0029,2.3192,4.8008,0.080959,-2.8985,-0.5978,-8.8387,2.3968,4.3813,
0.433,-3.3481,0.093782,3.9989,-6.5841,-15.1391,5.0726,4.5128,-1.8521,-1.2784,-1.0439,-6.3802,6.1094,10.3854,
2.0942,0.95015,-3.0449,4.4821,-7.3941,-13.0255,2.5991,4.483,-1.0178,-1.4426,-5.561,-11.541,6.4657,7.1107,
4.3785,4.2678,-1.8981,7.5877,-4.0581,-8.3878,10.1557,3.7323,0.48926,-0.87437,-8.1196,-13.2586,11.3806,7.6482,
3.6338,1.6012,-0.3384,1.8297,-6.225,-11.7409,10.0283,3.9903,-7.735,-1.3038,-8.1144,-15.3557,7.8053,8.1536,
10.1647,2.4694,-1.282,-6.9569,-8.7436,-18.2668,2.6781,6.161,-15.9476,-3.1538,-8.1094,-21.6649,1.0705,2.8441,
1.3599,-0.57103,1.2053,-0.27298,-3.3987,-10.9045,5.8917,4.8272,-6.796,-3.4467,-0.39227,-17.9549,10.165,4.6014,
1.7602,2.3558,1.133,1.1897,-5.123,-13.1423,4.0919,0.19927,2.7708,-5.6501,3.9696,-7.2364,10.0375,4.3254,
5.511,-0.67811,-1.8275,-2.2562,-12.0462,-18.6208,-1.4558,-0.77701,9.8352,-0.0084112,6.1415,2.3566,3.1683,4.5478,
-1.0864,-9.3143,-9.9128,-4.049,-15.662,-16.5394,-4.7431,1.68,3.9426,2.4024,2.8808,-2.6053,-1.3603,3.7927,
5.0048,-7.0682,-11.9691,0.77346,-9.6606,-11.4492,2.5313,7.1228,-10.3939,-2.3214,-8.6203,-7.9924,-1.5197,0.91408,
6.6325,-12.9109,-2.5741,13.2605,1.042,-4.0136,15.3946,10.552,-9.8908,4.0846,-7.139,3.5742,6.2845,14.8388,
7.9215,-22.0184,-5.071,10.2955,-5.0461,-4.4959,7.4813,7.7495,4.8027,4.0807,1.7253,2.1547,4.22,19.0099,
10.8207,-27.4457,-7.6592,7.2677,-9.5638,5.4148,4.1404,10.1766,9.4555,0.46141,3.068,-0.86691,5.413,10.1565,
4.3871,-37.8505,-2.8611,8.7598,-8.0259,5.5721,9.6763,9.5662,-5.2119,0.4335,-10.6136,-1.2971,7.0167,9.5469,
16.1752,-32.205,7.9156,13.0547,-3.206,-0.06513,13.4343,10.4383,-9.1172,5.7104,-9.9766,-5.5576,7.0778,17.169,
9.902,-42.806,7.4407,9.8611,-10.7264,3.7952,10.2181,5.9556,-1.3393,1.5114,0.7449,-12.4549,1.8324,7.4622,
6.6564,-46.2636,6.7533,4.2077,-16.1086,6.7009,12.2561,6.3212,-0.053914,-2.6771,1.9055,-10.9847,-0.44712,2.4348,
16.8625,-38.1849,12.6148,2.5092,-9.8395,-2.378,18.2694,9.3166,6.2161,1.3401,4.6835,-16.11,8.739,10.4836,
9.343,-40.4734,10.1709,-0.77459,-20.5771,-15.9739,12.5942,3.2142,8.9766,-2.8379,8.5,-29.2434,9.9021,6.2394,
11.1926,-33.7064,8.1144,-1.2103,-33.4424,-21.7641,6.0535,2.057,6.0276,-4.5958,9.9182,-32.43,4.4873,-1.3658,
5.9415,-33.3715,11.2427,-2.8249,-26.7361,-18.2891,9.7879,2.6567,5.9069,1.2238,3.7793,-16.3842,2.531,5.2239,
14.7438,-21.728,13.9428,-3.6193,-11.032,-13.3354,19.8057,11.1742,9.8911,5.9708,-1.268,-1.3011,6.2353,16.4794,
23.7416,-12.9525,12.3829,-2.679,-5.911,-23.3813,19.3407,11.709,10.9848,3.9254,0.49535,-4.3563,8.5127,13.8038,
8.2171,-20.3703,13.0864,1.8201,-13.2691,-30.6555,15.7699,1.3653,8.3973,2.2438,1.9117,-0.23857,8.0018,8.1547,
16.7624,-9.7481,14.9526,3.88,-5.4833,-25.6827,18.4389,4.4166,2.3501,3.3142,0.5919,3.3912,6.3166,11.763,
19.6133,-6.2707,13.5733,7.0217,-1.7799,-23.1776,19.7429,7.5263,1.245,2.6332,1.0385,4.634,1.599,12.5037,
14.3389,-5.6537,12.0357,13.1081,0.97824,-25.4024,19.7634,5.8692,5.7496,3.1984,0.2531,6.0429,-0.66629,6.6915,
23.1197,2.8809,17.0984,15.6961,6.7044,-26.7703,22.4342,9.8556,4.4407,5.8988,-2.6544,2.3063,1.7845,8.2185,
15.4654,-1.1488,18.4824,13.308,3.8915,-36.7337,21.5699,10.7103,2.2459,5.0627,-2.0129,-3.1349,5.0512,13.0278,
13.3324,-4.2131,10.8657,7.4481,0.52476,-48.6297,14.2503,6.4525,12.4752,-0.30254,3.1693,-5.5981,3.5431,4.2921,
8.4353,-11.4321,3.7061,2.9036,-2.6402,-57.6425,7.8515,-0.44235,18.2344,-0.043195,2.7379,-5.5032,-3.1772,-3.9189,
8.6521,-2.7925,8.0635,7.3089,0.65169,-52.0148,13.4059,-0.17485,9.6685,4.5387,-2.0056,0.37059,-4.1914,2.8237,
13.4356,7.0165,10.9541,14.1012,3.987,-46.0014,16.4584,-0.16435,6.6783,3.7844,-1.4034,13.3638,3.7728,4.5825,
-1.4705,-7.5045,-0.067466,7.2294,-6.1343,-44.9285,7.9987,-2.8056,11.3393,6.2085,-3.0064,19.5516,7.6438,-2.1999,
1.1485,-5.4879,-7.5352,-3.5685,-12.274,-49.2227,0.047393,1.4601,10.418,8.9694,-6.9234,14.2811,2.124,-0.38072,
6.1411,1.3491,-3.9499,-0.70304,-0.69129,-42.6539,1.7315,3.5419,9.5517,5.7799,-3.8566,10.291,0.30907,6.6318,
5.0495,3.4373,-2.5078,6.329,2.9654,-26.8383,2.3508,2.6062,9.2196,2.7818,-0.97391,6.0581,1.4956,4.0645,
11.4952,9.0158,0.53496,12.698,-2.9971,-23.7817,1.2456,3.414,11.5589,0.20456,1.4949,-0.5721,2.3699,-0.51795,
1.4057,5.8236,4.1185,15.5515,4.1726,-28.3806,7.6786,0.07541,14.9625,-4.3872,5.9847,0.18536,4.8791,-3.6201,
7.5877,17.5255,2.9068,10.7618,18.0222,-18.0009,13.0022,4.4094,0.085225,-4.6062,1.769,-2.7183,8.4425,-0.51063,
10.2661,20.0891,2.0098,6.0187,18.9896,-6.0746,7.1607,5.8323,-14.0199,-6.9807,-10.6294,-15.8113,6.2489,1.2075,
4.1065,18.6428,9.361,10.7191,13.2707,-3.0588,6.0081,5.241,-18.3606,-6.3208,-5.8943,-12.6935,2.7405,0.41166,
4.1009,18.2474,-0.11851,2.1222,10.7872,-16.9753,-3.2702,-0.61688,-15.0898,-6.6647,-7.7096,-10.7268,-3.4492,-5.1564,
1.6857,12.5733,-5.1731,1.7539,12.3094,-13.9081,-3.315,-0.3389,-15.8714,-1.6856,-10.3805,-3.0933,1.3375,0.21464,
4.959,14.229,-1.4882,2.6127,8.1963,-10.6632,-2.1522,2.092,-10.5808,-3.9945,-8.7933,5.7691,1.2572,1.1656,
3.2152,11.4471,-2.8452,-5.739,9.1506,-18.2184,-5.3975,0.037845,-2.2332,-1.8267,-4.8917,9.7613,3.5919,-1.3144,
-6.3777,5.6986,-6.2899,-9.01,13.6632,-16.4021,-3.8684,0.75893,3.9266,3.3446,-0.50088,8.9347,8.4376,-0.51267,
-0.21026,13.0696,-3.0202,-2.2027,16.2179,-8.1874,-0.74398,0.23123,8.5114,-4.5691,-0.4706,5.5063,0.70075,-3.8561,
-5.5005,13.2496,1.4995,7.0883,18.619,-1.4294,0.26476,-6.0494,12.8212,-9.1154,1.968,12.8887,-4.6437,-5.5532,
-5.8934,14.1418,-1.242,6.9042,18.2248,-5.9232,-3.8485,-4.4811,1.2057,-6.3993,0.64462,8.018,-3.1603,-6.9072,
-0.47788,13.0521,-7.1928,0.94653,15.4443,-7.7367,-8.679,-2.5248,-4.41,-7.2204,-0.59912,-5.2373,-2.7294,-10.108,
-5.993,11.0639,-5.0738,4.5052,14.2769,-0.28286,-7.4352,-3.5784,9.9546,-6.546,0.64189,1.1027,-0.87822,-6.3678,
-0.33082,17.6309,0.53285,8.091,14.3842,3.5905,-3.1327,-1.4359,12.8522,-6.1533,-4.6993,11.1595,-3.2361,-5.5038,
-6.5777,11.2707,-0.46322,8.5699,13.5214,9.6418,3.3216,-2.7958,5.3324,-4.338,-1.525,18.6848,-4.9699,-3.2456,
-12.2088,6.0144,-8.3894,6.8504,11.5046,11.2322,-0.010964,-7.2076,10.5559,-2.8727,4.5923,23.1071,0.87167,-1.3639,
-3.5223,9.2692,-8.1272,5.2341,11.5374,7.425,-4.1079,-6.052,13.0558,-2.4591,3.5936,19.5515,3.9526,-3.9334,
-3.5522,5.5798,-3.0601,7.5714,14.9427,3.3641,-0.72816,-2.5556,10.5854,-2.0708,2.6548,11.8707,-3.2742,-2.4923,
1.2407,5.9679,-2.1531,7.8404,13.3233,-6.2375,0.038889,-3.1252,4.8886,-4.1153,1.7727,6.5792,-8.6213,-3.5476,
-0.52097,4.8869,0.62762,13.8775,13.2468,5.9469,2.2057,-5.5892,-2.3941,-5.5556,3.3535,6.9073,-2.0785,-4.0576,
-1.2128,10.1371,5.6514,25.3371,20.4059,19.6901,3.2784,-4.0488,-16.3505,-8.8379,-2.8735,4.3237,-2.1945,-4.0554,
-1.8634,9.7699,2.6608,25.9861,21.8327,32.6087,-0.051756,-6.457,-29.4694,-16.7438,-16.8011,3.8231,-10.9809,-11.2839,
-6.8131,5.0865,1.778,22.7399,20.7639,27.2779,3.567,-6.3108,-18.0605,-12.1235,-11.8161,10.1014,-7.1888,-9.8837,
5.647,10.5657,-0.73903,15.1085,19.0359,20.8203,2.8708,-5.4499,-6.3718,-7.058,-0.50209,-0.62777,-3.3833,-5.4345,
3.6212,4.8703,-2.3817,8.6586,18.6169,19.8123,1.0116,-5.8461,-4.3023,-5.9109,2.6617,-5.1694,-1.4928,-4.3853,
-0.69364,5.7831,-3.4439,4.5237,13.4023,15.9722,0.70968,-2.844,0.53513,-2.9054,4.189,4.5405,-1.1625,-2.4352,
0.79423,6.8824,-17.3372,-5.8706,0.54707,5.8551,-11.8659,-3.1553,4.3596,-5.6231,4.4196,5.7146,-7.3593,-2.7706,
-8.1713,-4.3766,-24.1302,-5.2777,2.6832,11.5293,-12.8414,-1.279,14.4622,-0.70624,9.2159,16.2175,-2.8206,2.4567,
-4.3068,-2.6679,-20.7545,-6.407,7.3427,13.7299,-9.6606,-0.72007,12.1484,-0.1817,7.2169,19.1011,0.24139,-0.10063,
-5.2536,-0.82063,-20.714,-5.7816,5.2149,13.147,-9.8039,-2.846,8.286,-3.3043,5.0967,11.9292,-2.4246,-3.2281,
-10.2411,-0.28946,-20.4355,-1.0964,5.3839,15.2507,-12.1081,-0.74707,12.6091,-2.1422,4.3089,14.5877,-6.6175,-1.1062,
-3.8418,2.1383,-20.6554,-4.4046,3.6153,7.1048,-16.2021,-0.22008,10.8889,-0.085209,1.64,13.2307,-7.6665,-1.0396,
-8.1906,-1.6054,-18.2108,-4.8635,2.1931,-0.79302,-10.6503,-5.2686,5.1739,-1.2849,6.1214,1.5909,-3.1091,-2.6645,
-3.8432,6.6856,-13.2622,-0.23335,3.5073,5.0387,-5.6734,-6.8806,3.4172,-8.9211,6.718,-3.3255,-1.9587,-7.8072,
0.72616,13.0334,-5.2352,9.4218,10.0458,18.8364,-0.029876,-3.0933,8.0329,-6.9395,2.9404,10.974,-4.2513,-4.4463,
-6.0663,11.287,-4.9215,14.159,10.8893,16.6216,4.7922,-0.49762,8.9967,-0.73859,0.35389,19.3541,-3.5143,1.1227,
-5.4611,6.9946,-14.9899,1.0171,3.7282,1.5243,-4.4132,-3.1191,5.806,-8.1659,2.984,4.0929,-4.9904,-5.4524,
-9.4716,-1.1376,-19.3934,-7.2386,6.3968,5.169,-8.9689,-4.378,16.5447,-2.3735,12.4461,2.2808,1.5757,-2.2325,
-6.0114,1.3405,-20.1582,-8.2508,8.9053,13.5357,-7.9491,-3.1512,20.3725,7.4097,6.8784,13.7129,1.481,0.79329,
-2.2763,3.1883,-11.2355,-1.0066,5.4789,24.2927,-6.5078,-2.4802,15.7761,4.073,1.6455,13.3725,-6.8026,-2.1464,
-6.9602,-1.3411,-5.2589,9.1767,5.6324,29.5843,-6.599,-5.2237,15.7937,-0.99184,4.439,5.8215,-10.2506,-1.5354,
1.1702,6.9341,-6.8716,10.5543,10.1147,23.9529,-3.311,-2.9821,14.846,0.99586,2.2445,7.4004,-7.2254,0.96683,
-6.3716,3.8667,-4.7718,9.1979,10.7129,27.0947,1.9491,-2.08,3.5907,-3.161,-1.5054,12.0178,-3.1767,-4.1526,
-6.7124,-0.9448,-5.6906,8.4053,7.4188,32.9411,2.0733,-7.9805,-8.4346,-14.7817,-8.4047,2.3789,-5.637,-11.8574,
5.0185,2.2454,-8.4826,5.7316,7.2146,29.2774,-0.22068,-10.6352,-11.062,-13.6538,-11.5163,-7.646,-9.8785,-9.9407,
-2.7546,5.2439,-4.3585,5.1465,8.9511,25.3514,3.8901,-3.4898,-15.46,-10.6657,-6.7277,-8.3925,-9.527,-7.1753,
-2.8303,9.5086,-1.9278,8.9353,5.2806,23.5893,5.344,-2.5571,-24.4143,-16.5332,-10.4214,-5.7196,-10.1602,-12.288,
-3.1427,2.6713,-3.7401,14.1837,2.0714,28.4407,3.0954,-8.6704,-11.8622,-10.2388,-13.1704,8.7236,-6.1764,-7.6945,
-0.7845,3.2344,-4.721,7.3072,0.74232,23.6008,-3.5983,-5.0167,1.142,-1.1883,-5.3903,21.3361,-7.0111,1.2033,
3.6009,4.4866,-7.3303,-1.8084,-1.2309,9.1693,-4.8287,0.10458,1.5554,-0.63511,5.0561,13.3072,-10.4468,3.0588,
-1.6766,0.60174,-10.5056,4.8079,1.9767,16.5731,0.040578,-1.1068,4.1134,-1.8021,5.9578,11.7857,-7.6506,-0.25797,
2.0394,5.6273,-9.6343,5.2425,4.5092,29.6787,-2.613,-3.6914,-0.23118,-6.2737,-3.7997,13.2477,-6.9506,-7.7143,
-0.97548,3.3615,-7.61,1.0716,4.2386,33.3209,0.91828,-5.3982,5.0853,-5.8973,-6.4642,16.7916,-1.2309,-6.7691,
2.9397,7.0164,-11.492,2.4535,5.9127,34.6963,5.6837,-0.25378,13.4575,-1.6868,2.6009,17.7121,1.2533,-2.0244,
4.4505,7.3183,-18.2738,-1.791,6.2809,29.9635,-2.1292,-2.8896,3.732,-6.1649,7.5061,8.6956,-5.8118,-8.4108,
-8.8324,-0.35161,-15.7316,-0.71992,8.3141,26.7189,-0.55561,-8.0194,4.9539,-5.7955,4.6456,12.5122,-4.0173,-5.978,
0.85704,8.8285,-11.4132,4.144,9.7435,30.4189,8.6372,-2.2351,15.262,0.33731,2.4387,21.4024,2.4907,1.6115,
4.9027,7.5757,-12.8978,-2.6124,6.0256,32.209,6.4315,0.067931,15.5513,-0.40652,5.4256,18.9132,-1.2744,1.2736,
-0.21168,2.3009,-9.2314,-9.2041,5.1822,24.4918,0.26106,-2.3463,10.7618,1.5465,5.582,16.3326,-5.0538,0.23335,
3.175,6.5007,-5.7855,-9.1342,4.8712,23.5043,-0.237,-3.6518,9.6342,2.8995,2.3546,21.6187,-1.8585,-0.74497,
-3.5227,0.56772,-10.0174,-12.2014,2.41,22.8171,0.50081,-4.1553,14.1176,3.9311,5.8289,24.9016,3.7968,-0.45908,
-0.41931,-9.5897,-13.2732,-13.8796,2.265,12.771,-1.9398,-1.9783,15.6807,3.6952,6.4431,18.5868,1.6404,1.9786,
1.5338,-22.5119,-5.7281,-1.4777,5.9857,18.7534,2.997,-0.41354,13.2938,3.4733,3.6466,14.0973,0.57784,4.2702,
-0.96811,-27.9099,-2.4922,-2.8351,5.6263,18.5923,4.7456,-2.7986,1.8911,0.85452,2.4637,1.1999,1.9892,-2.2527,
5.5975,-17.7996,-4.5118,-11.583,4.5658,6.6305,1.3274,-0.94394,0.57235,2.4905,3.0388,-5.3798,1.1469,-4.2867,
-4.3794,-18.6598,-3.7591,-3.175,7.6663,15.3917,4.1403,1.0413,9.2151,3.7873,-0.035606,3.6201,-1.332,-0.65506,
-1.2241,-12.7195,-1.6054,4.2461,10.0984,26.0378,7.7483,-0.94933,7.2159,-1.2606,-4.3722,4.8489,-3.1803,-3.5083,
1.2597,-11.4742,-1.5089,-2.2752,7.0826,16.7626,5.3549,-4.2666,1.4806,-2.1486,0.22864,2.1479,-2.0254,-3.2976,
-5.565,-16.0886,-5.2749,-7.9235,4.2473,13.8284,1.6594,-0.63637,6.6941,1.8364,6.4817,11.66,-0.45781,3.649,
1.0359,-12.2308,-11.7069,-11.3045,3.0281,14.9269,-2.7785,1.8119,7.2568,-0.20195,6.5747,13.3707,-3.3224,1.0195,
-2.8829,-16.7993,-11.0047,-11.5903,3.3286,12.5852,-4.0582,-5.0455,10.6776,0.77427,7.6262,10.1581,-1.677,-0.48775,
-5.8429,-14.5861,-10.5849,-11.6178,-0.48653,9.661,-7.9116,-8.8401,16.5449,0.0049108,4.5176,4.9694,-5.1918,-4.5558,
-3.0822,-8.8907,-10.4322,-4.6542,-0.93927,9.5632,-10.3295,-4.4533,14.1059,-2.8879,4.7285,3.7069,-8.7367,-9.5851,
-6.0306,-6.6702,-8.1193,4.0609,1.7684,15.4972,-7.0584,-2.981,9.6439,-1.9915,5.6498,12.4023,-5.5612,-8.7688,
2.5257,0.96105,-5.2218,5.2636,6.9647,22.2803,-2.7787,-2.32,7.6192,-1.3898,1.4547,13.5866,-1.8533,-5.3504,
0.44624,-1.025,-2.4981,5.9116,10.403,27.2098,1.2442,0.71103,8.1262,1.1034,0.40329,5.5403,-1.7423,1.2369,
-0.0627,3.857,-1.8665,6.0391,4.9583,25.0955,-0.27651,2.1149,1.3719,0.55507,-2.9956,-0.57668,-7.9041,1.1629,
2.3516,7.9643,-1.2721,6.1589,2.2507,21.1796,-2.67,-1.8684,-0.63818,-1.406,-4.2617,2.3504,-9.358,-7.5835,
-5.5025,0.25539,-1.196,7.7173,2.1154,14.606,-1.5457,-4.1667,7.5946,0.12442,0.81453,8.4759,-3.976,-9.0569,
-2.0393,1.9273,-4.2578,4.121,2.7119,13.9706,-0.24817,-2.2294,4.9698,-4.4628,1.0066,13.511,-3.0146,-4.8981,
-7.4601,-0.35751,-7.1353,2.6689,4.2364,27.2324,0.0081469,-2.3366,6.8407,-4.9179,0.70526,23.0647,-4.5205,-0.98877,
-8.4587,1.5921,-8.153,4.437,0.60775,29.0936,-7.2232,-1.2321,7.3946,1.1622,-0.78332,26.0191,-9.5519,-1.8933,
2.6536,7.7631,-1.8797,8.0269,1.0532,27.8299,-5.8255,2.2158,2.1302,4.4665,0.22801,21.0835,-7.0506,1.5943,
-6.182,1.9949,-0.80237,8.0275,1.9546,28.5705,-3.0656,0.63682,2.4846,0.82424,0.2141,14.5161,-6.6278,1.0169,
-6.2932,1.3931,-8.4672,0.79715,0.87321,18.1794,-6.7383,0.11645,5.2278,-4.5276,-1.7267,11.2347,-10.5687,-6.2752,
-8.8084,-2.5471,-9.4057,1.231,0.82058,14.6782,-5.8523,-2.3009,8.7703,-4.2562,0.30485,13.453,-8.9704,-7.3451,
-5.8693,7.729,-4.0206,8.3882,1.2533,26.3306,-1.1623,-1.1985,3.4238,-1.5907,-1.6416,8.3075,-9.8785,-5.4582,
2.9188,16.1831,-2.0919,5.7158,3.3475,17.2792,-0.85141,0.56039,-10.0378,-2.2184,-6.6046,-3.519,-12.4186,-7.2996,
-7.8614,4.6071,-2.4486,3.4446,7.9671,4.6735,-1.2825,-3.3294,-10.4001,-3.0494,-3.316,-2.8261,-5.4072,-7.3438,
-5.2206,7.4641,-5.9171,2.9968,8.212,6.5622,-3.8571,-5.2992,1.5521,-1.1792,-0.9479,-1.4513,-0.50345,-9.0723,
-5.3897,4.1238,-10.3828,2.335,3.8629,3.276,-7.964,-5.9452,4.8335,0.33782,-4.7474,-4.2567,-7.7036,-10.4562,
-7.4763,-2.8723,-5.4213,1.7128,8.934,6.936,-7.4859,-5.1063,7.4357,3.2098,-2.5341,5.158,-12.5438,-8.8647,
-9.1973,-1.4947,-6.3013,-5.3799,8.1565,17.3657,-10.1702,-7.9334,13.9795,4.7045,-3.1055,18.5868,-10.1044,-9.5381,
-16.3582,1.4871,-7.8514,3.62,8.6315,15.3599,-6.668,-6.4931,12.6588,8.7605,-0.026607,19.8817,-3.2312,-2.6989,
-9.1098,6.7005,-5.4521,14.0079,13.4162,5.2792,-7.7137,-8.0317,-2.2008,-1.4061,0.93886,4.5888,-7.858,-4.4651,
-8.5634,2.4418,2.588,20.398,19.8418,19.0625,-6.2872,-10.9245,-6.7689,-8.0704,1.3647,8.2904,-8.8326,-8.0538,
-11.665,5.4288,7.9763,27.1283,26.6051,32.0187,4.4543,-5.2073,2.5553,-2.0425,1.0418,18.1573,-1.3128,-7.3296,
-4.9396,14.0211,5.8105,29.598,23.3215,20.2155,-0.39268,-3.2076,-3.1417,-5.5354,-0.7079,2.9678,-6.2957,-9.059,
-12.8381,7.877,4.4978,35.5347,19.9938,26.2331,-4.7077,-7.3537,-2.4715,-10.5062,4.1551,-8.4184,-7.3644,-7.5514,
-8.4522,12.4663,4.4691,33.1618,19.0354,32.1312,0.15476,-9.0819,-0.15379,-3.85,3.6646,3.4151,-2.825,-7.3395,
-0.47327,22.0822,5.4058,27.0748,14.7602,20.3214,-0.57788,-7.8136,0.096864,5.299,-1.1346,8.2719,-3.8603,-8.104,
-8.1576,27.0238,4.5995,34.1269,10.9821,27.2968,-5.8459,-3.9708,2.9831,4.9811,-0.10266,13.5602,-2.1829,-3.7618,
-10.0785,25.885,0.46741,41.2386,12.7335,39.759,-5.4949,-5.1786,4.2502,0.82608,1.35,17.567,-3.016,-3.5359,
-16.4635,13.0034,-0.28422,37.0768,10.2821,51.4735,-4.4421,-10.4113,8.5747,-0.91094,2.956,10.9696,-7.4146,-6.9389,
-5.5935,18.249,2.8665,34.6115,10.3887,61.6417,-12.6114,-2.7969,14.5679,0.83117,4.948,6.2139,-7.6924,-4.8356,
-0.67883,19.8049,5.8278,33.7398,13.8625,57.22,-12.5779,-1.906,8.6324,1.9859,-3.7848,5.5998,-8.9183,-8.643,
-7.8685,14.2783,7.4063,30.7511,13.5127,67.8868,2.1561,-5.648,4.258,7.1694,-5.0039,7.6744,-7.4189,-7.1601,
-4.5043,18.2423,-4.1253,24.5677,5.4716,77.9136,-4.2398,-5.3091,3.0382,4.811,0.59894,6.7316,-4.5636,-3.838,
-7.1261,16.6654,-0.9857,28.8782,15.2662,86.0133,-11.6982,-2.0985,5.7485,4.0404,3.4551,17.8973,1.0129,1.2125,
-3.5653,15.9067,8.9556,29.3145,28.4502,94.9525,-10.2732,-2.2138,0.82403,6.9313,-0.36743,18.0281,-5.0737,-0.54766,
-1.1822,14.2294,1.9108,25.3869,40.8432,103.3553,-1.703,-0.87524,-2.3589,7.2388,0.85991,3.6905,-3.564,-3.6478,
-10.7525,7.1089,-1.5785,20.489,46.3463,110.4099,4.6659,-1.3053,1.6393,1.5016,2.2543,0.57628,0.98796,-4.3931,
-0.4659,11.5026,12.6162,16.8495,36.8171,117.8853,-6.2194,-4.601,-0.86923,-2.9269,-1.7373,7.7725,-8.7123,-5.5757,
-3.0895,7.6794,16.8006,19.454,43.0438,124.9122,-15.7281,-1.6739,-0.57611,7.1307,1.9824,12.8498,-5.538,2.713,
-14.9552,3.8442,1.6926,13.466,54.5611,131.5175,-0.68444,1.3191,-1.9878,10.0773,3.7916,8.2224,7.3273,3.5141,
-9.2377,8.4342,-12.509,11.2123,65.1465,137.7264,12.2518,-1.1702,-2.8329,2.7242,6.9386,8.6934,7.852,0.41119,
-9.6475,1.6614,2.3416,15.36,47.1377,143.5628,-2.5833,-9.7773,-0.73446,-1.2959,1.2194,15.4024,-6.7191,-3.952,
0.33158,1.3206,4.0086,14.6796,53.3482,149.0491,-11.7081,-7.5032,3.8891,1.4332,-4.8791,20.0221,-14.6314,-3.9561,
-12.2216,-9.3637,-10.332,4.6396,64.2473,154.2061,3.0944,-10.4272,3.1736,-5.8834,-1.2121,14.9642,-7.0048,-8.0568,
-21.3704,-7.1145,-15.6169,7.9769,74.4925,159.0538,-2.7551,-11.971,-0.632,-6.2535,2.9582,13.3432,-2.005,-9.7428,
-12.8576,0.54303,-7.4492,8.4619,68.0945,163.6105,-4.0363,-9.3248,0.37002,-0.57588,1.3342,15.4349,-6.7052,-6.7483,
-12.8093,-6.9616,-9.6536,4.339,73.8906,167.8939,10.3059,-10.9342,7.8194,-2.2288,-0.43285,19.0883,-7.026,-6.5842,
0.010835,1.1689,-0.3973,7.935,72.3496,171.9203,-3.6893,-4.0116,3.4938,-6.9153,-3.2994,14.569,-1.3018,-6.6711,
-0.71295,3.7501,10.9545,10.1098,61.9829,175.7051,-17.568,2.7368,-1.7772,-0.95701,0.99615,12.4894,4.8016,-0.72741,
-13.9266,-3.9467,-3.8028,-0.37873,66.2177,179.2627,-2.4139,-5.8636,-6.7323,-4.0326,2.6236,11.981,-1.512,-2.371,
-6.3421,5.9315,-17.6746,6.8753,76.3446,182.607,11.8309,-3.5831,-1.0257,-7.1651,2.4662,20.4216,-0.45699,-3.1926,
-9.095,6.7804,-22.6397,16.3447,84.4181,185.7506,19.4367,2.6574,-0.72319,-3.1198,-1.7791,17.0267,4.6321,1.0963,
4.948,8.7837,-7.1813,10.0614,65.253,188.7055,5.2546,2.9799,-14.1772,-2.9326,-5.5292,1.9051,1.4617,-0.41573,
8.9895,5.3646,7.3496,7.5295,48.9251,191.4832,6.3861,-2.9835,-15.2547,-7.5769,-3.2688,-3.3912,-2.9644,-8.1036,
0.25563,6.9707,13.8983,13.8264,60.0896,194.0942,9.8591,3.4623,-1.8062,-2.7842,1.7478,4.0429,-1.3405,-3.2788,
3.8553,13.5424,4.1463,13.2378,52.2659,196.5486,6.134,9.762,-2.4207,1.4802,1.402,4.0413,-2.4653,1.9792,
-8.6681,2.8479,-3.5738,14.1307,44.0687,198.8556,10.8277,1.7045,-2.9984,-3.6698,2.0407,15.1275,-0.63018,-2.237,
-14.1736,-0.45647,-14.6876,9.1856,53.7171,201.0243,24.278,-5.3872,3.689,-8.5113,0.23106,20.7273,0.13099,-7.164,
-12.8412,-2.3573,-21.0372,-1.9709,63.9914,203.0628,28.7266,-2.6538,3.4677,-3.6623,0.2172,9.8427,-1.3231,-5.7703,
-11.83,0.43548,-7.4831,-3.0577,57.0182,204.9791,12.903,3.5307,0.1259,0.17262,3.8194,8.0466,-5.8233,-0.84452,
-1.4788,10.5323,2.6073,-0.4641,48.7769,206.7803,-1.9711,7.1757,1.0827,1.609,5.5188,12.8665,-3.0637,-1.7577,
-7.4156,0.018386,-4.0571,-7.9081,46.5732,208.4735,1.2804,3.6117,0.29481,5.6098,2.5362,11.8535,0.25357,-2.8575,
-5.7661,-4.0803,-3.0905,-14.9052,46.912,210.0651,0.48043,0.74367,1.4822,5.9959,1.1789,17.1681,-4.8231,-1.963,
-2.7683,-2.148,-2.182,-15.6983,42.8923,211.5612,-12.805,-1.4703,6.9366,0.092741,3.2776,20.7175,-7.667,-5.9428,
-16.7022,-7.0808,-16.151,-18.3714,41.524,212.9675,-12.7596,-6.9253,5.3156,-1.6001,-0.052555,6.7,-6.484,-8.7192,
-16.303,-2.3174,-29.282,-23.0539,53.1326,214.2895,2.106,-5.0637,4.5145,3.3164,-2.9417,6.2982,-1.2745,-5.3042,
-17.0118,-9.168,-16.1969,-21.9119,61.1521,215.5321,0.65406,-7.4112,7.3769,-0.015807,-1.5601,20.0203,-4.3313,-7.6369,
-11.6528,-6.6897,-1.1251,-16.7408,47.3601,205.7339,-7.098,-6.9666,7.4167,-2.9069,5.7643,27.6163,-10.8203,-8.143,
-9.5076,-6.7705,-11.3009,-22.9669,54.1597,179.2899,-0.40534,-6.5488,3.597,-3.2147,4.9363,11.8593,-8.2427,-7.6542,
-16.4087,-11.9081,-24.7229,-24.7222,64.6482,154.4325,1.306,-9.7711,3.14,-0.85286,-2.3495,16.3297,-2.6867,-10.8106,
-7.9526,0.61671,-12.9959,-15.2849,74.8693,131.0665,-9.1365,-5.5696,2.2289,2.814,0.92471,24.7501,-5.6587,-10.8851,
-13.7422,2.5081,-6.9137,-11.4755,84.4771,109.1025,-7.1423,3.9238,11.254,7.4656,10.028,19.8909,-8.2115,-0.10882,
-10.0251,-1.0168,-14.2117,-24.887,93.5085,95.8075,5.8198,5.1342,15.399,4.6075,2.6779,14.3586,-7.2369,1.8259,
2.6277,5.7929,0.74102,-29.0581,73.798,75.959,3.0602,-1.4401,4.8343,3.367,-1.8213,14.9436,-2.4641,-2.6222,
-11.63,7.6145,6.6016,-16.4685,72.5034,57.3015,-8.9335,-6.8973,-4.3738,1.4778,4.3135,15.2518,-0.14711,-3.6697,
-10.5707,14.3887,-7.8945,-12.1058,82.2532,39.7634,-1.6488,-0.69868,-3.6292,-1.5032,4.0549,12.4088,-1.1024,-1.0392,
-0.2955,7.7403,-11.6391,-19.0926,91.418,23.2776,4.7166,-3.0673,-3.4115,0.032788,0.43717,8.7717,-0.072368,-0.49534,
-14.0161,3.6609,-2.9866,-22.5264,71.8329,7.7809,-7.3765,-12.2833,-4.894,-0.69208,2.0982,9.4507,0.65533,-6.4907,
-21.3698,6.3333,-16.9074,-17.8003,76.8029,-6.7859,-5.4877,-16.3666,-0.74398,-4.9889,0.044084,12.2581,-3.2404,-12.8502,
-12.6161,4.7483,-22.7623,-9.2603,86.2947,-20.4788,8.9416,-6.9487,7.7366,2.3001,-1.1636,13.2096,-3.2871,-4.6076,
2.2409,10.9713,-7.2966,-9.428,67.017,-33.35,16.4793,1.9039,6.0671,3.8493,-2.781,6.8734,-1.4027,-0.23378,
3.432,6.2152,7.2412,-13.9238,56.4883,-45.449,19.106,-1.3438,3.5339,-0.96092,-4.3014,5.7381,0.3687,-2.8708,
-6.1739,-0.18324,7.2887,-17.1859,67.199,-56.8221,3.8596,-1.0222,8.8655,6.5681,-0.42789,9.9731,5.8902,-0.047501,
-13.2751,-3.7874,-0.13828,-22.6625,77.2671,-67.5128,-10.4719,-1.2016,16.2875,7.8614,4.6592,10.0979,3.3674,-1.2497,
-24.2889,-17.2987,-14.23,-34.077,58.531,-77.562,-11.7718,-11.0117,18.9259,-2.4924,7.5134,7.805,-3.8243,-10.5745,
-12.7085,-13.8505,-27.4762,-46.1324,41.1599,-87.0083,3.0345,-11.797,9.113,-5.2351,4.6518,-1.8226,-9.3792,-14.2786,
-7.8486,-1.2093,-23.1763,-35.7724,52.7903,-95.8878,-11.2476,0.72095,14.5918,9.179,8.9524,6.2405,1.5474,0.31645,
-21.4777,-5.2341,-22.9908,-21.8154,63.7229,-104.2345,-24.6727,-4.3835,10.5833,5.1335,7.6924,13.3384,5.5519,-2.3536,
-9.7042,-5.4022,-27.3957,-26.7732,55.8024,-112.0804,-9.0924,-8.9415,-4.1517,-6.7439,0.48215,7.7176,-4.4219,-8.9611,
1.7243,-2.9085,-11.6519,-21.5514,38.3543,-119.4556,5.5532,0.031159,6.0998,3.0608,3.1043,13.762,-8.7363,0.012712,
4.0307,9.7993,3.1472,-6.1583,50.153,-118.1931,-8.88,7.2599,19.8338,9.6258,13.5231,25.9519,1.429,5.7963,
-10.3111,1.0162,-1.8626,-3.4992,61.2438,-125.2015,-12.9267,-4.7449,4.5438,-4.9311,4.999,14.2715,1.8252,-6.1206,
-8.8486,-4.1062,2.8287,-10.7611,49.2538,-131.7894,1.9489,-5.6652,-8.9852,1.8725,-1.8087,11.2458,-1.4176,-5.5127,
4.4568,5.0582,0.4898,-12.7665,47.5034,-136.6568,15.9319,-0.26363,-2.4206,7.3038,-2.9055,17.079,-3.5017,-3.0123,
-9.9106,-4.6455,-13.6396,-13.6877,58.7532,-139.3034,0.87602,-4.3454,-0.10596,-2.5347,-2.4899,14.3668,-3.5328,-7.8935,
-23.416,-5.8128,-26.9212,-13.8306,47.1535,-145.0452,13.4774,-4.5668,-7.3302,-3.8286,-3.7866,4.8279,-1.8748,-8.8659,
-7.911,-1.1257,-13.2548,-9.1446,30.2243,-150.4425,26.7688,-5.7391,-6.4085,-0.70685,-3.0774,6.9484,-2.2442,-5.9238,
-1.0494,-0.33506,1.6404,-0.64192,28.7723,-132.7388,11.0627,-5.6355,6.7503,1.505,0.72239,15.4497,-5.7247,-2.4351,
5.0391,3.3005,15.642,-5.1829,39.8204,-138.8745,2.6859,-2.1643,9.9607,5.0301,0.92002,11.3893,-5.6222,-0.60178,
-9.3632,-10.8771,0.60349,-18.9719,51.5312,-144.642,16.6247,-9.747,-2.6883,2.3179,-2.5094,3.4753,-1.9107,-6.832,
-13.0193,-6.85,-13.5327,-16.2669,50.247,-150.0635,24.6658,-8.6803,-7.3472,-1.6775,-2.8408,2.7849,-0.83216,-9.3146,
1.8619,7.661,1.3792,-1.1909,33.1322,-143.8315,9.0859,4.8562,7.0731,8.5462,7.9347,12.7409,3.0744,3.7776,
-8.0117,-4.0064,9.3712,-7.5069,17.0443,-149.3016,2.8766,-4.5947,0.38174,5.1409,1.6741,8.1196,-6.2691,-0.7874,
-6.3257,-4.4894,-5.2911,-15.4921,30.1216,-154.4435,16.804,-5.5238,-3.7385,0.73513,1.8146,3.5351,-4.2057,-6.2838,
-7.3924,-10.9684,-17.1454,-18.419,22.4093,-159.2769,1.6958,-7.6025,-3.0323,-4.1292,2.67,-8.7281,-4.4353,-9.7631,
-2.1282,-0.18743,-2.0167,-9.6011,10.4599,-163.8203,-12.506,0.084024,5.8268,4.7952,7.3301,-3.8661,-0.31282,-0.50025,
-1.7595,0.54718,-3.7036,-9.266,17.786,-168.0911,2.3444,-3.054,-0.54839,2.8202,-0.58152,1.9095,-3.9095,-2.6399,
-14.6691,-11.055,-17.5814,-5.8177,21.5393,-172.1056,16.3037,-8.1737,-5.336,-2.169,-3.4389,3.7233,-0.78261,-5.8557,
-18.1275,-8.9457,-27.0111,-8.3612,6.147,-175.8793,3.1537,-10.5755,-2.6059,-6.3779,-4.1967,1.5715,0.22844,-11.7711,
-14.6293,-6.9627,-15.749,-3.0386,1.0784,-179.4265,17.0645,-7.5304,6.7099,1.718,-4.4268,10.6362,0.69667,-9.6186,
0.34845,3.096,-0.70409,11.123,14.0287,-172.5173,30.1406,2.0804,5.343,11.2559,-5.1251,13.8544,0.65487,0.11759,
2.8579,8.9358,13.4382,8.2863,24.9971,-173.9769,14.2322,4.6067,-6.3062,4.0726,-3.6127,1.2126,0.37461,0.3515,
-11.4136,-5.7003,-1.4681,0.076534,33.1384,-177.0354,6.7503,-7.721,-1.5888,-5.3305,-0.98561,-1.752,-2.0582,-7.8645,
-9.162,-6.6836,-3.1882,4.4103,17.6528,-180.393,3.9347,-8.2221,7.6651,-1.1543,1.9656,4.6196,-4.8268,-6.9107,
-7.8891,-7.0058,7.8496,3.9047,2.4936,-183.6694,12.1345,-7.4876,1.6618,-1.3258,4.017,2.6555,-6.7066,-6.2549,
-11.9951,-2.97,-6.7214,7.2858,16.444,-186.7492,25.5064,-1.4947,6.1418,-1.0053,12.2122,3.701,1.1676,-4.1924,
2.8246,2.993,-6.9205,8.7769,29.5574,-189.6443,13.0098,4.3798,13.0039,8.2138,8.5871,4.9254,3.9899,-1.0485,
-5.1781,-3.4535,-2.167,4.3939,32.002,-192.3656,13.675,1.2249,15.5981,11.5774,-1.5691,10.8964,-0.10592,2.8708,
-4.8681,3.5024,-7.3398,7.9864,18.9944,-194.9237,26.9545,3.079,16.5902,7.9905,3.3451,17.4732,2.7927,6.5547,
-4.0939,-0.082008,-7.3812,10.8819,27.4959,-197.3283,18.95,2.8944,13.1844,6.5469,9.4111,10.1581,3.5893,5.6797,
-1.1969,-3.2108,3.9077,1.3107,25.605,-199.5886,21.9101,2.9615,17.9368,9.2874,11.4978,4.0052,0.24065,6.0616,
12.9749,5.8999,17.7733,-0.93689,9.9687,-201.7133,11.6779,8.3279,24.3328,6.561,14.9053,6.416,2.3954,6.9032,
0.024833,-0.96179,29.6018,13.2193,2.7426,-203.7105,-3.1228,6.1408,13.4726,1.1059,11.3596,1.9339,3.4567,2.3919,
-3.3509,8.7371,13.7257,22.6695,16.678,-205.5878,5.621,6.2545,3.9874,3.4499,7.3038,-4.9308,4.6953,4.1763,
10.9502,22.3129,-1.1978,22.2735,29.7774,-207.3526,19.3837,7.8072,6.6404,6.6171,5.9015,-4.1532,1.0394,10.6744,
23.1881,29.5307,12.974,33.9525,30.6418,-209.0114,32.3207,11.6775,0.93937,7.6663,4.5836,-5.8322,-0.95116,13.8903,
21.5554,34.7483,25.5722,37.4589,21.3315,-182.3707,16.2814,11.6998,-3.2143,6.0011,6.4772,-10.544,0.79313,4.6208,
12.0676,31.6993,14.3972,39.55,15.7135,-157.3285,28.4407,9.5518,9.9942,4.195,8.9814,-2.6803,2.1916,-0.95842,
19.5385,32.6896,27.6333,46.3358,0.67071,-133.7888,12.6343,6.0864,-0.72862,-6.1799,-5.6575,-6.3756,-9.0269,-2.3469,
16.4375,28.3181,38.8698,48.3763,-1.6596,-114.5537,-2.2238,0.41853,-8.8801,-7.7373,-13.8747,-2.1372,-14.2699,-1.7247,
1.472,24.2089,22.4376,44.0275,12.4197,-108.6446,12.0096,3.2859,5.7527,4.2961,1.0578,12.0911,-5.7009,4.6458,
6.9273,31.1921,6.9914,35.3603,6.6128,-88.3874,25.389,10.0782,9.3847,8.1357,2.0789,6.1837,0.18475,4.1261,
13.5015,22.3311,5.367,29.1413,-7.8839,-87.6634,9.7657,9.7149,6.6524,5.4784,-0.69692,-5.0331,2.3428,4.6014,
18.9575,17.1344,19.145,23.536,-18.1369,-96.5036,-4.9202,10.0959,11.0735,7.0779,4.1651,2.9812,-0.69026,10.1099,
8.4207,11.0449,12.3322,18.991,-7.1661,-104.8134,9.475,3.4648,10.6503,7.3764,4.1564,1.5977,-0.40765,4.4419,
-6.1845,-1.9099,-2.5077,7.0053,-16.6185,-112.6246,23.0065,-5.6611,6.8783,5.7285,2.7022,-12.5982,0.8221,-3.2965,
1.0552,-3.0006,-16.4572,-6.6714,-29.7214,-119.9671,7.5261,4.0785,-2.4525,8.5183,2.2987,-19.4348,-2.3607,0.99869,
10.1512,-0.89211,-1.3698,3.3696,-37.2176,-124.0975,-7.0255,13.4746,2.0328,15.2378,2.6429,-4.1687,-1.255,11.5438,
0.38308,-5.6593,12.8124,8.952,-49.0846,-114.7235,-20.7039,-1.4339,8.6597,2.7544,-7.1566,7.0481,-10.3387,-0.71796,
3.2524,-2.4274,-2.0564,11.3072,-43.6089,-115.5528,-5.3617,-3.6375,18.7452,4.9994,2.9135,8.5532,0.40475,1.2535,
-11.0428,-16.3818,-16.033,-3.4712,-34.0025,-122.7197,9.06,-2.214,3.5205,3.0123,2.4982,-4.252,2.0677,-0.5089,
-2.7879,-10.6991,-7.3585,-5.3116,-40.6392,-129.4565,-5.5836,0.32876,0.77817,5.7238,0.9018,-0.14075,-0.94866,0.003341,
-1.8973,-10.2977,-0.89095,-2.8233,-52.3008,-131.571,-19.3486,0.55046,6.2756,7.5495,-1.3215,7.8219,-3.0609,1.2084,
-3.9528,-13.7774,-14.9375,-8.1978,-53.3806,-135.005,-19.7546,2.6864,5.6578,4.4452,1.4091,6.6294,-0.22593,0.4128,
3.5147,-13.9151,-14.6441,-13.0085,-49.6959,-137.028,-16.6412,1.5613,7.7285,5.1429,5.181,3.3392,-1.1767,3.2805,
-8.7472,-22.7211,-14.7293,-14.1562,-60.8141,-129.7704,-1.5427,-1.9068,4.3727,9.6545,0.049406,1.2106,-4.4805,5.0119,
-2.6786,-14.8502,-10.7123,-11.1377,-68.8549,-123.1893,-1.8116,0.37698,-8.6643,8.3521,-5.4969,-1.5133,-2.0423,3.0237,
6.6407,-9.1389,-0.91055,-4.2029,-55.5646,-118.2083,-15.8029,3.2464,-6.6982,8.8153,1.5813,-0.45867,3.3829,7.663,
-6.0498,-17.9901,-14.9559,-12.3864,-47.169,-120.0336,-21.7239,-2.492,1.1755,6.1173,3.1737,-6.9386,-3.81,1.6596,
-3.9993,-17.6338,-21.6508,-20.5611,-58.0774,-117.8931,-6.3205,-0.655,6.6488,8.8835,2.2606,-6.2811,-4.3045,-0.60888,
-5.6876,-20.4322,-6.2518,-17.8811,-68.6928,-113.2296,-16.426,-0.13376,8.66,10.7606,4.0531,0.8442,-0.18986,2.3197,
-0.28487,-18.0012,-15.3972,-14.1572,-58.4252,-110.0512,-16.6455,-0.36693,3.0789,7.4636,4.5326,0.55281,-1.3835,1.4574,
2.3831,-17.6443,-19.0531,-12.5848,-51.3045,-100.3151,-1.5468,3.2703,0.24289,9.1852,5.9477,1.7242,-0.57739,5.4671,
-0.89293,-20.201,-3.8099,-11.5888,-57.1443,-93.0912,7.1022,5.7256,8.1821,10.3213,8.2424,1.3798,3.0727,7.7906,
7.5968,-16.8198,-1.7731,-4.8675,-43.8332,-88.2284,-7.424,6.5874,12.2709,9.943,9.435,2.0204,6.0218,6.6003,
-3.2234,-23.2824,-15.7668,-4.8166,-37.1059,-86.5501,-17.4627,1.6124,-0.27596,8.6235,7.1817,3.5864,4.4552,6.4452,
-3.5119,-16.5828,-7.7106,-11.2761,-48.9795,-87.6238,-2.3149,3.4438,-4.5977,9.5524,6.7508,-3.3772,2.2597,6.5404,
-0.16791,-18.2392,-4.5967,-13.733,-50.4996,-79.7151,-16.0348,2.5145,4.114,5.846,7.5513,-6.7903,4.7754,3.4972,
-4.4964,-25.8217,-18.4209,-12.9088,-41.6848,-68.1833,-26.1602,0.91762,1.9392,3.0849,5.6522,0.84823,8.3455,3.769,
1.0756,-18.4878,-6.5903,-16.4733,-49.3071,-67.9491,-10.4906,5.2004,-2.5159,5.3094,2.4201,3.6889,3.0241,5.4711,
-1.3991,-20.753,7.9051,-15.4846,-56.472,-64.8363,4.2389,5.8527,6.7941,9.3297,7.0956,5.3963,1.3964,6.5891,
1.0952,-22.4001,-6.6692,-15.0375,-49.709,-59.9818,-9.754,3.0912,0.1197,8.7701,5.7057,2.1802,3.241,4.2653,
0.065411,-21.0559,-20.369,-17.0275,-39.0134,-57.3469,-23.2688,1.9416,-11.4564,5.3516,6.3275,-4.2174,2.5644,4.4916,
-7.1694,-21.7209,-13.7238,-15.042,-40.0473,-49.5678,-7.7726,1.8249,-3.0565,3.1021,7.8763,-1.554,0.00017342,6.6324,
3.143,-16.8023,-2.0541,-17.7547,-48.4903,-49.2448,3.54,2.9207,-3.596,3.6393,-0.068115,1.1904,-0.2408,6.4754,
1.2674,-22.3018,2.6485,-21.2691,-50.1608,-52.7981,-4.6264,1.5404,-14.7087,7.5181,-6.5717,-4.9068,0.97871,4.8818,
5.5297,-16.1435,-6.6693,-15.6544,-41.8485,-42.8815,-5.7951,4.8224,-5.6314,8.9952,-1.8391,-6.5406,-1.4901,6.9991,
9.5364,-10.3539,-7.7151,-13.7509,-44.1581,-32.5956,-8.8216,8.3892,6.2758,3.1531,6.9481,-2.7735,-1.401,6.5794,
-5.1357,-16.7223,2.1478,-14.1309,-48.4983,-33.7731,-9.0154,6.1989,-3.0185,0.31256,5.3262,-7.1866,3.2626,1.6051,
-1.5736,-11.8626,-11.4787,-14.2473,-40.7677,-35.6034,-18.5974,4.3807,-12.9603,-0.67052,-1.7423,-12.0581,4.0312,0.54444,
6.4748,-5.6075,-21.636,-7.8487,-36.1522,-20.6925,-27.3637,6.7692,1.9173,8.288,4.388,2.7654,4.9944,10.8759,
-2.3501,-9.3686,-12.3841,-11.9575,-44.8296,-26.923,-13.4296,2.2654,8.4304,8.0315,7.7399,6.3352,-1.813,5.1619,
-1.486,-10.0115,-8.9897,-10.5169,-35.1502,-37.1177,0.63279,2.3707,7.6834,0.55993,17.1577,-5.8548,2.8753,0.27264,
-3.8069,-14.2313,-22.4298,-8.9218,-34.4872,-31.0343,-13.5052,2.2287,3.8482,-1.4021,17.5747,-7.9139,6.077,1.2204,
6.0625,-5.1825,-6.9841,-10.7966,-46.5179,-20.4953,-20.2874,5.9516,2.1713,2.0567,8.3253,-3.1005,2.3382,3.5575,
-1.7729,-7.5229,5.1249,-7.9797,-56.3806,-18.0603,-4.9701,2.4608,3.2461,0.24632,-0.1282,-3.1557,-0.45345,2.6209,
-0.94359,-5.3843,-6.0289,-0.99317,-38.8978,-15.7719,4.3666,4.9642,-3.9386,-0.0098853,0.12046,-4.1716,-1.6315,3.669,
11.8875,2.4106,8.0714,2.1999,-22.4639,-6.3894,-9.9954,8.7642,-6.8353,1.196,5.1749,-4.1618,-0.81029,2.2435,
4.6665,-0.38539,20.3613,5.6831,-31.2392,3.3939,-23.4957,4.6227,6.831,-1.0451,6.5514,-1.2608,5.746,4.7602,
7.761,2.0479,5.0397,5.3421,-39.0058,-2.5945,-16.5425,1.9352,-1.774,-9.6591,-4.9289,-2.1495,-0.3833,2.0645,
7.5361,0.71993,-7.9165,9.1189,-22.5655,-2.1979,-1.45,8.3268,-13.4775,-3.0542,-7.7664,5.4511,-3.494,3.1457,
-6.6547,-6.3131,-0.45184,1.5819,-15.0655,-0.86094,5.7474,5.1756,-9.5358,-3.1119,-4.6493,0.062318,-0.63283,1.7517,
7.001,1.5377,8.4931,-2.6103,-28.2616,0.87794,-8.6975,2.6957,-3.4203,-5.0946,2.1373,-12.2337,-1.318,2.3697,
9.9556,-1.9288,14.2503,2.367,-32.4712,0.82549,-11.1884,4.4624,-0.80425,-2.3786,7.312,-10.5351,-2.6849,3.6735,
3.3323,-4.4646,7.3695,2.4657,-26.4256,-5.732,-13.1686,2.5074,2.377,-3.9231,0.36531,-6.2881,-0.35468,1.284,
6.2658,-0.58133,8.6148,6.4154,-29.9012,1.6018,-17.9217,6.9367,7.2961,-0.07228,1.0667,-1.813,3.282,4.8224,
13.3615,2.1049,12.6772,7.2355,-31.2409,8.9773,-20.462,13.0282,0.35061,0.65519,6.5461,-5.3198,-2.4587,6.7019,
14.7294,2.2195,2.5168,0.77582,-26.2329,0.0029745,-10.7982,9.595,-9.0704,-1.0714,3.0203,-14.4006,-1.5879,4.6131,
-0.25437,-9.2418,-11.7342,0.97024,-25.8643,-2.1666,-9.9093,-2.7908,-10.2134,-6.0688,-8.4895,-14.7419,1.6404,-0.72541,
2.0508,3.3642,-4.402,15.012,-22.8657,12.0634,-12.2073,1.7154,-3.816,-5.7042,-5.5696,-3.734,1.0601,-0.19995,
5.5429,4.8494,-0.52268,19.0523,-25.1094,18.2088,-16.5363,3.7814,-4.3102,-5.6031,2.2362,-0.37673,-2.1368,1.9814,
-2.2617,-0.021094,10.8369,13.3296,-21.9158,13.501,-15.7853,5.2415,-2.8465,-2.1337,5.2353,0.369,2.5709,7.4059,
7.9974,5.2828,24.2867,10.1197,-25.9031,9.7987,-7.125,2.9993,-7.9779,-7.7902,-6.1656,-3.9915,1.9348,-0.75119,
5.1072,3.5198,20.2991,14.3332,-27.7231,12.5852,-7.1796,0.40897,-6.5352,-6.3587,-7.2417,-3.2698,1.3365,-4.5623,
3.1135,5.4778,4.9811,16.1243,-25.8188,15.9275,-20.8488,1.5897,-2.5276,0.048352,-4.1561,-2.3507,-1.8772,1.2551,
5.0963,7.3183,10.1052,18.7723,-24.5106,17.6234,-22.8517,-0.19289,-4.0632,-3.0876,-5.112,-1.4863,-0.55925,-0.025526,
-7.7432,3.9869,17.6938,21.0202,-24.0045,15.6016,-7.3806,-3.0736,-6.2298,-5.3127,-2.8769,-0.91543,-1.0079,-6.7727,
-5.3502,10.4964,10.8474,14.4566,-22.0821,13.7014,3.5469,1.4489,-6.8201,-1.1378,2.5981,-6.1629,-4.8035,-4.4379,
-0.69061,7.4562,13.0888,12.6251,-29.916,13.3613,-10.766,0.39787,-3.0366,-1.0693,0.031885,-3.8652,-2.5874,3.059,
4.4123,8.2139,22.6676,13.5546,-36.075,5.0878,-24.22,-2.2773,-3.5776,-3.6564,-5.9958,-1.4639,-1.709,2.6343,
3.6654,11.0958,27.5743,16.1157,-30.5363,9.603,-10.7159,1.2335,-3.8451,0.41911,-1.2975,-8.6071,1.2858,-3.7905,
-6.9184,2.4758,18.9299,17.3182,-36.1759,16.4989,4.027,-3.4198,-7.2293,-3.221,-1.9426,-15.0801,-1.9248,-9.5887,
7.5967,16.4273,16.8298,29.7764,-24.3644,22.7396,-10.3146,4.4982,0.4348,2.2745,3.4762,-0.0753,-0.84499,2.0739,
0.99463,8.332,9.313,21.0004,-19.2866,14.8677,-23.7957,1.0953,-3.2062,0.93315,-1.3112,5.8345,-2.4815,3.6367,
-8.7062,1.5651,10.682,8.1708,-29.699,6.2626,-8.268,-1.863,-8.7989,-1.051,-7.0176,-6.0852,1.0418,0.044031,
5.9161,12.7994,17.0309,18.5268,-35.3889,7.5741,-10.423,7.1669,2.5753,4.5556,2.3215,-2.5866,0.25596,0.76475,
10.2614,10.8261,19.6245,26.8152,-35.4347,9.771,-23.8976,7.9417,10.3745,6.4515,8.2078,2.6303,-4.8206,2.4061,
10.1274,8.2486,16.519,15.5651,-28.0062,5.8103,-8.3638,3.1271,0.59323,3.654,0.002783,-4.7586,-1.1572,2.2615,
0.12,-2.1285,7.0915,7.1596,-20.782,7.6308,3.2253,-1.6405,-3.5399,-1.1447,-2.6492,-8.0883,-3.7391,0.92074,
0.59496,2.3378,8.5945,15.8888,-22.9093,18.7424,-11.0682,4.7251,2.9392,-0.11196,7.6329,-6.1569,-2.0687,3.2759,
7.7899,3.6435,11.453,13.4895,-35.6348,11.3511,-10.2834,1.5493,-3.5039,-0.10501,4.2826,-11.5719,3.8403,-2.7055,
0.81477,-4.5291,12.4533,10.5107,-47.5967,7.0546,-11.8358,-2.6412,-4.4987,3.9984,0.4105,-8.2267,5.2968,-0.37379,
6.3095,2.7326,7.1264,14.4598,-35.3409,15.5494,-21.4898,3.5428,1.3148,3.0356,3.0374,-5.5635,-1.5285,2.2997,
8.3408,2.5684,1.8783,14.5559,-37.077,16.0624,-14.4158,3.812,0.27182,3.3352,-0.037572,-6.1942,-1.9189,2.6439,
1.5741,-2.8881,0.8015,8.3806,-48.9524,3.5295,-16.4431,-3.165,-11.7958,1.2071,-11.1223,-9.6787,-1.3216,2.0031,
7.7464,1.1418,6.5382,5.4671,-43.0025,3.3178,-15.4565,1.363,-10.124,1.1349,-5.6345,-5.7238,-1.7245,2.3651,
4.8715,-2.7831,9.5204,3.6931,-41.8686,13.2418,-0.42915,6.5839,4.5835,6.3695,6.2727,4.2611,-1.621,1.7413,
7.712,-0.44721,7.2617,8.5329,-47.7924,18.9548,-7.9959,2.5737,9.2492,3.3355,3.727,8.5845,-0.80062,1.3956,
0.01866,-2.3483,1.5236,16.2159,-37.2118,20.71,-21.6162,-3.8475,4.8381,-5.541,1.5754,3.2494,-0.27042,0.82968,
-6.4899,-3.8947,-1.7013,16.4478,-27.9893,19.7084,-23.8139,-0.96557,9.6095,0.33458,7.0245,2.813,1.433,-0.90732,
7.9995,4.7749,4.4265,9.4356,-40.4099,13.9464,-8.2851,5.6005,13.1305,8.7509,0.57724,5.2955,-0.82234,1.3165,
5.9525,-1.5374,9.7043,11.5208,-50.8805,13.8327,-8.3904,4.5414,14.0297,6.5384,-2.5906,6.1829,-1.9781,5.817,
5.3546,-2.1682,5.5069,9.624,-46.1402,10.3514,-19.2154,4.5096,9.0903,2.0485,2.1443,6.0531,-1.1362,3.7806,
6.7203,-3.2432,3.0071,1.0931,-52.2901,1.2944,-8.6622,0.14147,-4.2293,0.23857,-3.0458,1.5923,0.13699,-0.061471,
2.4607,-3.5306,4.7548,3.9195,-49.6346,7.0014,0.052213,-2.2771,-3.0113,2.1525,-3.8274,-1.8777,0.6107,1.8704,
7.8565,0.7784,-1.5562,-0.41298,-38.2206,7.7863,-14.0509,0.51081,-1.1436,0.81824,2.428,-6.3445,-0.631,0.55312,
6.9034,-3.6064,5.2863,-3.2803,-49.4245,7.3194,-10.918,5.3006,-3.9673,2.2152,7.1028,-2.5892,0.85289,2.9303,
11.0687,0.70757,15.3332,5.8344,-60.559,12.4238,-1.827,6.1877,-6.3805,2.3235,3.0615,-0.26444,-5.2236,4.9239,
15.2251,8.3777,12.4848,19.4634,-66.2052,22.2832,-10.3945,4.8523,2.1972,2.6658,3.3595,2.1613,-2.5003,8.0022,
8.286,5.7058,10.5304,18.0551,-68.7404,24.5619,-8.0836,4.8021,5.1989,-0.62721,1.4712,1.7907,3.6757,7.2816,
12.3684,7.5329,11.586,12.3923,-78.716,17.5446,-6.8754,6.6834,-0.6569,-0.34839,-2.7147,-4.3425,-1.1243,4.6753,
6.0824,5.3935,8.2396,22.0128,-82.5496,26.856,-14.4167,5.5593,4.9264,6.1798,1.5458,3.872,-3.2263,8.9743,
3.3074,5.5522,0.99673,23.1022,-77.5964,29.101,-12.1054,2.8156,2.2207,-0.93947,-1.9214,8.4604,-3.9965,2.1693,
11.0626,7.3883,6.4805,19.5469,-84.2688,19.4012,-3.9073,3.37,-1.0461,-3.0523,-3.4934,4.8193,-1.1057,-2.5406,
4.6141,1.6421,9.9479,17.41,-91.7462,15.8268,-10.4217,5.5777,3.3548,5.8077,-1.3558,-0.29037,-1.5215,4.8424,
9.3989,5.159,1.8792,12.268,-92.7491,14.6362,-17.2682,6.4483,1.4667,6.6641,-5.8537,-2.924,-3.5994,2.3827,
10.0403,6.0547,2.4893,15.6293,-87.4254,17.3732,-7.7962,4.8561,1.6197,3.6132,-2.8514,1.8307,-0.25037,1.5169,
7.2682,1.1117,11.258,13.0043,-91.5799,12.2333,-6.1236,0.46696,-3.0572,-1.6653,-0.51118,-2.377,-6.2609,0.22057,
10.93,-1.6061,18.5363,2.3417,-93.0747,6.4378,-7.4432,-0.28396,-6.4892,-2.7707,-3.1316,-10.1881,-9.5007,-5.8182,
7.6228,-1.2685,15.2552,1.9604,-80.5004,10.1491,-10.6118,2.8668,1.3722,3.9037,-4.6307,-11.7457,-1.4586,-2.8178,
11.0219,5.0741,5.6628,6.663,-76.1525,8.5761,-19.6163,2.2124,0.32551,0.29506,-5.7991,-15.3798,-2.8173,-2.6487,
7.2273,-1.2561,9.9025,9.8789,-78.5732,7.3384,-15.3061,-0.089279,-2.3453,-5.2665,-1.354,-7.9493,-3.8534,-3.2129,
6.5527,-0.93979,13.8877,3.2606,-80.8485,6.1752,-10.7721,0.15704,-3.4095,-1.3351,-1.5133,-2.8926,-1.453,-2.7792,
8.8104,1.286,5.5828,-1.5145,-80.5771,7.0095,-12.2951,-1.5398,-7.3025,-0.049907,-5.5206,-10.1911,-3.5352,-3.8175,
3.2205,-3.8528,6.9351,10.3865,-72.609,20.6889,-2.1574,-0.72408,5.9101,2.6046,0.83668,1.7491,-0.1896,2.9195,
4.7145,-1.9345,5.3137,3.2558,-82.3524,21.2555,-8.5357,-4.778,4.3502,-7.4336,-4.7571,3.3309,-7.1676,-1.3535,
6.1189,-1.0955,7.646,-0.55496,-85.4857,15.8826,-11.1568,-0.87589,-3.3826,-6.2647,-4.7127,-3.3764,-4.5684,-3.4414,
5.0284,0.17554,11.285,11.2885,-75.7771,19.9913,-2.0515,4.7203,-1.0105,1.1011,0.14938,-1.4866,1.7312,-2.994,
5.932,-1.5222,3.618,5.5495,-79.6664,14.2123,-11.8106,-3.5171,-4.0829,-7.883,-2.0287,-6.941,-11.1471,-3.5373,
1.7197,-3.3591,5.3292,5.2165,-82.5994,14.8056,-17.3687,-2.3418,-0.94584,-0.66161,4.3595,-1.2224,-6.6219,3.9054,
6.6779,0.45811,5.2506,6.109,-81.2586,11.266,-16.5675,-0.031891,-5.9505,2.9937,-6.2662,-1.8717,0.28314,-4.7644,
9.8927,1.1535,5.6585,6.4654,-73.732,13.7235,-10.9939,-0.2714,-3.9063,-0.31937,-11.9158,-6.3392,-3.8312,-6.6477,
3.2736,-6.3875,6.0419,8.7286,-78.2259,15.5514,-11.5394,-2.4243,4.2818,2.8333,-0.83648,-0.4152,-10.1093,1.223,
8.1386,-13.4758,8.8131,7.9641,-87.6324,6.1822,-20.247,-4.9301,6.6762,2.4221,-0.54555,5.1536,-8.7796,-0.53787,
7.6503,-19.4162,13.5869,7.4863,-90.6896,8.2216,-18.0681,-1.2599,5.7937,0.34857,-6.7793,2.9161,-1.5039,-0.50559,
10.0833,-19.6975,8.4329,7.0371,-71.1482,8.6924,-12.1635,0.7439,-2.7491,-1.6005,-10.229,-4.4897,-6.2344,-0.47526,
10.9248,-26.7106,5.5166,8.0609,-62.6615,-0.024059,-6.1311,-2.675,-7.4046,3.316,-10.0974,-1.8099,-10.1989,-1.8928,
14.1257,-28,10.4882,-1.0999,-60.83,-14.0019,-0.94272,0.3776,-9.3704,8.4197,-9.0092,-9.4141,-1.8737,4.9697,
