AF3,AF4,F3,F4,F7,F8,FC5,FC6,O1,O2,P7,P8,T7,T8,Frontal,Temporal,Parietal,Occipital,Fronto-central,Participant,Game,Emotion
-107.6659,-0.98799,-173.8456,7.9025,-119.5189,0.98799,15.8045,25.6816,11.8535,30.6211,-183.7232,-24.6941,-3.9505,61.2407,-65.52131666666666,28.6451,-104.20865,21.2373,20.74305,S21,G1,Boredom
-115.034,-9.8183,-175.2679,5.4524,-119.2618,-5.9858,10.9052,18.2147,8.1788,23.8453,-183.5648,-30.126,10.3865,69.4203,-69.9859,39.9034,-106.8454,16.012050000000002,14.55995,S21,G1,Boredom
-107.6382,-1.8209,-164.2581,1.668,-107.6614,-2.1694,17.6592,23.5425,1.2673,19.9448,-177.9837,-32.7642,23.8633,62.7853,-63.64666666666667,43.3243,-105.37395,10.60605,20.60085,S21,G1,Boredom
-96.7356,2.7331,-162.7989,-2.8769,-112.5614,7.3441,2.4996,29.5373,-12.9087,4.6481,-180.64,-42.1576,9.0471,54.5725,-60.81593333333333,31.8098,-111.3988,-4.1303,16.018449999999998,S21,G1,Boredom
-84.017,8.4957,-157.9695,7.1733,-108.7708,21.0034,-3.7996,41.8651,-12.3565,3.1585,-170.7891,-36.6651,-1.3733,65.3981,-52.34748333333334,32.0124,-103.7271,-4.599,19.03275,S21,G1,Boredom
-90.829,5.0224,-158.3689,2.7919,-108.1706,24.4113,-6.5352,35.1307,-17.5412,7.9084,-171.4073,-33.4768,3.6486,75.5743,-54.19048333333333,39.61145,-102.44205,-4.8164,14.29775,S21,G1,Boredom
-88.3423,11.6361,-144.9152,0.64884,-97.7293,22.9471,-4.1675,28.0848,-10.5622,10.397,-172.9754,-30.4802,9.3562,70.4979,-49.292460000000005,39.92705,-101.7278,-0.0826000000000002,11.95865,S21,G1,Boredom
-80.5725,13.4067,-139.6781,-1.8598,-98.2863,23.0515,-1.4477,27.881,-14.3742,2.3649,-170.9931,-34.0846,4.3501,52.168,-47.32308333333334,28.25905,-102.53885,-6.00465,13.21665,S21,G1,Boredom
-75.2444,11.121,-132.7791,-3.2295,-96.8344,18.2112,0.12039,32.6279,-17.9565,3.7043,-161.2278,-31.5458,-0.35665,60.1744,-46.4592,29.908875,-96.3868,-7.126099999999999,16.374145,S21,G1,Boredom
-66.7782,15.3928,-113.9464,-5.0113,-77.1948,18.1065,2.0887,36.5977,-12.9276,12.372,-163.4067,-25.7015,4.6038,70.6639,-38.23856666666666,37.63385,-94.5541,-0.2778,19.343200000000003,S21,G1,Boredom
-59.3147,16.9385,-114.5183,-7.1798,-60.2168,17.5134,4.4326,39.8337,-7.7076,17.0625,-161.011,-17.7391,18.4275,79.4875,-34.46295,48.9575,-89.37505,4.67745,22.13315,S21,G1,Boredom
-66.1272,3.5749,-121.7472,-5.2673,-56.1096,4.1153,2.6849,32.0118,-3.7875,17.5205,-140.9786,-11.242,26.928,81.1385,-40.26018333333334,54.03325,-76.1103,6.866499999999999,17.34835,S21,G1,Boredom
-60.6783,0.89065,-111.2079,4.432,-38.643,-10.2316,8.9446,18.7309,0.88456,23.8766,-134.0021,-2.1717,19.8791,75.7764,-35.90635833333334,47.82775,-68.0869,12.38058,13.83775,S21,G1,Boredom
-47.6533,1.3314,-99.1022,7.6238,-22.2244,-23.7177,10.8772,3.5071,-0.65026,21.9507,-140.062,-1.5472,23.1325,57.1298,-30.623733333333337,40.131150000000005,-70.80460000000001,10.65022,7.19215,S21,G1,Boredom
-30.6941,-6.1567,-88.7113,21.2664,-6.7909,-36.3947,13.6818,-10.8034,6.797,27.0544,-142.2519,2.0029,35.8445,39.602,-24.58021666666666,37.72324999999999,-70.1245,16.9257,1.4392000000000005,S21,G1,Boredom
-14.7525,-12.2076,-75.9808,34.0904,7.7165,-48.311,11.3791,-15.0446,13.797,37.7775,-121.3695,11.2656,40.336,51.1031,-18.24083333333333,45.71955,-55.051950000000005,25.78725,-1.8327500000000008,S21,G1,Boredom
-13.9164,-17.8954,-71.9157,40.8854,21.3535,-59.5123,9.2146,-15.6236,13.4634,35.0175,-112.6056,14.0474,33.4715,62.137,-16.833483333333334,47.80425,-49.2791,24.24045,-3.2044999999999995,S21,G1,Boredom
-6.1674,-13.8582,-59.6988,52.5323,34.1723,-70.0416,22.7618,-19.6248,26.4846,35.88,-97.9477,18.1431,45.5632,72.5087,-10.510233333333334,59.03595,-39.9023,31.1823,1.5685000000000002,S21,G1,Boredom
8.3026,-4.6314,-46.7331,63.4804,46.222,-79.9391,35.4961,-18.9415,20.4503,37.184,-85.6505,17.5487,56.9295,82.2582,-2.2164333333333324,69.59385,-34.0509,28.81715,8.277299999999999,S21,G1,Boredom
19.3865,-8.7983,-40.4718,73.7715,57.5487,-89.2427,35.7874,-18.2988,11.815,36.4351,-81.9928,16.9895,67.6137,72.0641,2.0323166666666665,69.8389,-32.50165,24.12505,8.744299999999999,S21,G1,Boredom
19.7051,-18.6417,-38.5373,71.9882,59.8267,-97.9882,34.1339,-28.5601,20.4894,38.6938,-73.616,20.4149,51.3832,53.6402,-0.6078666666666663,52.511700000000005,-26.60055,29.5916,2.7869,S21,G1,Boredom
8.1506,-25.9194,-41.6583,61.2486,58.7063,-96.0871,28.6281,-33.2673,13.8273,35.878,-65.7422,16.7208,52.7446,40.8153,-5.92655,46.77995,-24.5107,24.85265,-2.3195999999999994,S21,G1,Boredom
2.2292,-26.8335,-41.6276,61.0309,55.6777,-79.9501,27.4051,-18.924,6.5778,32.244,-68.218,15.2238,57.9766,52.4663,-4.912233333333333,55.22145,-26.497100000000003,19.4109,4.240550000000001,S21,G1,Boredom
-0.86802,-32.138,-52.9589,55.3931,46.411,-77.1286,22.7973,-14.825,5.1947,26.3574,-66.1004,15.2979,42.645,57.4432,-10.214903333333336,50.0441,-25.40125,15.77605,3.98615,S21,G1,Boredom
-4.767,-25.2712,-52.7449,43.1795,46.5894,-66.5748,25.38,-21.838,12.7855,28.7274,-48.0344,16.3555,45.0243,59.9231,-9.931500000000002,52.4737,-15.83945,20.75645,1.770999999999999,S21,G1,Boredom
-7.444,-15.8525,-42.6657,31.6996,48.733,-48.4804,26.8203,-28.4298,15.969,34.9054,-35.5462,10.4352,56.4229,66.2053,-5.668333333333333,61.3141,-12.5555,25.4372,-0.8047500000000003,S21,G1,Boredom
0.41094,-16.3826,-33.685,31.2799,50.2538,-33.4952,32.6203,-27.2173,12.542,34.2933,-36.8702,5.3643,61.1628,48.1329,-0.2696933333333333,54.64785,-15.752949999999998,23.41765,2.7015,S21,G1,Boredom
3.3493,-11.4491,-32.6519,34.3412,48.2266,-39.3875,35.6011,-27.5602,14.7525,28.2842,-20.558,4.0544,51.5665,31.145,0.404766666666666,41.35575,-8.2518,21.51835,4.020450000000002,S21,G1,Boredom
2.6551,-7.3044,-34.1496,26.8484,42.8632,-29.616,28.0328,-24.4244,19.3006,30.0453,-6.2612,6.2809,52.9173,26.8561,0.2161166666666663,39.8867,0.0098500000000001,24.67295,1.8042000000000016,S21,G1,Boredom
7.9276,-11.3119,-28.6438,23.7553,39.7977,-13.7391,26.8445,-8.8589,20.6114,32.6864,-15.2698,6.3978,52.211,28.7011,2.9643,40.45605,-4.436,26.6489,8.992799999999999,S21,G1,Boredom
16.8362,-10.1389,-29.3944,20.8482,29.0136,-3.3086,17.8251,1.2787,9.9909,20.354,-23.7369,-3.3698,34.9784,22.5347,3.9760166666666654,28.75655,-13.55335,15.17245,9.5519,S21,G1,Boredom
29.926,2.8167,-22.198,24.0426,27.767,-3.6039,16.2623,0.70775,10.8732,17.6519,-20.8309,-4.6485,24.262,19.7009,9.791733333333331,21.98145,-12.7397,14.26255,8.485025,S21,G1,Boredom
42.2304,-10.1933,-26.7927,13.7109,24.1255,-10.3021,9.3601,-9.2123,6.2703,16.5923,-28.4706,-5.3575,28.7328,7.6538,5.463116666666667,18.1933,-16.91405,11.4313,0.0738999999999991,S21,G1,Boredom
53.7966,-11.064,-28.6428,10.4181,20.2077,1.6748,4.3532,-3.2268,4.4114,18.0661,-19.355,4.3468,35.4042,21.2945,7.731733333333332,28.34935,-7.5041,11.23875,0.5632000000000001,S21,G1,Boredom
41.8529,2.4414,-28.8993,10.781,17.0207,14.4158,4.0925,1.9059,3.1596,13.0315,-16.2178,5.0739,25.3784,34.1169,9.602083333333336,29.74765,-5.57195,8.09555,2.9992,S21,G1,Boredom
35.884,5.7517,-30.6226,8.6524,18.4687,20.9587,6.3162,2.2848,-0.48674,13.7305,-3.8854,4.2762,21.3864,25.6004,9.848816666666666,23.4934,0.1954,6.62188,4.3005,S21,G1,Boredom
25.3352,-8.6934,-36.1935,-2.2381,4.0258,14.2684,-2.459,1.6544,-4.9028,8.4623,2.768,4.5129,22.5725,11.7171,-0.5825999999999999,17.1448,3.64045,1.7797500000000004,-0.4023,S21,G1,Boredom
17.8886,-15.3082,-35.0094,-4.0793,-1.1548,11.4372,-6.262,4.5182,-6.5841,16.8446,-11.4981,5.2301,19.2426,25.1141,-4.370983333333334,22.17835,-3.1340000000000003,5.13025,-0.8718999999999997,S21,G1,Boredom
30.1496,-1.0549,-26.4886,2.5857,1.3838,24.851,-13.295,2.7653,-7.6708,23.2417,-10.043,6.3981,16.6063,29.7561,5.2377666666666665,23.1812,-1.82245,7.785450000000001,-5.26485,S21,G1,Boredom
40.6883,4.4407,-22.4295,-7.9412,-10.0581,35.9295,-18.9172,7.0451,-7.7043,7.7472,4.6596,6.508,16.1037,18.5874,6.771616666666666,17.34555,5.5838,0.0214500000000001,-5.936050000000001,S21,G1,Boredom
29.8508,4.6685,-20.59,-21.5647,-14.8873,41.1816,-20.2514,19.9563,-5.7603,0.63932,9.0476,3.6482,14.6442,25.8684,3.109816666666668,20.2563,6.347899999999999,-2.56049,-0.1475500000000007,S21,G1,Boredom
13.9597,3.8942,-15.8973,-23.9499,-4.6103,40.1924,-24.4691,22.2166,-6.8965,5.0462,4.0599,-6.942,14.2588,24.8106,2.2648000000000006,19.5347,-1.4410500000000002,-0.92515,-1.1262500000000006,S21,G1,Boredom
17.8384,11.563,-5.0664,-12.6354,9.4944,40.7439,-32.8794,32.7362,-0.55614,7.7065,5.7919,-2.5749,20.3173,16.407,10.322983333333331,18.36215,1.6085,3.57518,-0.0716000000000001,S21,G1,Boredom
11.8291,12.8447,-13.652,-11.8777,-4.9038,39.2873,-45.0066,38.6745,-11.3878,3.2926,-8.3842,7.4571,9.2208,24.3126,5.587933333333333,16.7667,-0.4635500000000001,-4.0476,-3.1660499999999985,S21,G1,Boredom
4.2053,5.1595,-26.6614,-22.0306,-18.7096,40.881,-56.4062,29.4396,-21.5701,9.022,-12.8202,13.9242,-4.173,36.9538,-2.8593,16.3904,0.5520000000000005,-6.27405,-13.4833,S21,G1,Boredom
18.053,6.3312,-11.7274,-15.2755,-7.9318,36.9469,-59.8873,23.2284,-17.8071,13.913,-5.6307,12.595,2.4971,31.9959,4.3994,17.2465,3.4821500000000003,-1.947049999999999,-18.32945,S21,G1,Boredom
31.0698,18.7929,3.0762,-2.5059,6.6441,25.8396,-42.194,25.7857,-5.8731,10.1157,-5.2924,6.9008,16.4473,19.2106,13.819450000000002,17.82895,0.8042000000000002,2.1213,-8.204150000000002,S21,G1,Boredom
40.5162,21.1221,12.0045,-10.7519,15.3583,18.8574,-32.5251,17.8183,-4.039,-0.86257,1.4455,-0.92203,29.5605,13.6136,16.184433333333335,21.58705,0.261735,-2.450785,-7.353400000000001,S21,G1,Boredom
41.542,14.422,9.8025,-3.6855,10.98,23.1587,-26.1283,17.2434,-7.2534,1.6584,15.4587,1.6035,39.0979,18.2296,16.036616666666664,28.66375,8.5311,-2.7975,-4.442449999999999,S21,G1,Boredom
43.9885,8.6177,3.2878,8.3882,19.2103,19.7927,-15.6715,16.2083,-8.7937,5.5095,17.717,4.4703,39.7151,21.0864,17.2142,30.40075,11.09365,-1.6420999999999997,0.2684000000000006,S21,G1,Boredom
35.9164,13.5334,4.5718,5.4147,23.4904,12.1849,-19.1765,10.7906,-9.7479,2.7097,20.1108,1.7319,23.9974,17.351,15.851933333333337,20.6742,10.92135,-3.5191,-4.192950000000001,S21,G1,Boredom
33.2672,20.1301,12.6937,2.6215,21.5868,11.948,-21.4827,13.6009,-11.6323,4.0288,33.0041,4.0982,10.2103,16.8041,17.041216666666667,13.5072,18.55115,-3.80175,-3.940900000000001,S21,G1,Boredom
30.7779,16.453,13.4139,1.97,17.8223,8.7619,-22.663,11.3031,-18.3421,7.2439,22.8509,4.3456,5.1534,13.3266,14.866499999999997,9.24,13.59825,-5.549099999999999,-5.67995,S21,G1,Boredom
28.9308,5.5874,13.5966,-0.12374,11.8139,4.2847,-23.2787,1.7349,-22.1806,1.8702,7.3798,4.0853,16.6967,6.6005,10.68161,11.6486,5.73255,-10.1552,-10.7719,S21,G1,Boredom
23.7381,7.7214,14.2625,-1.5981,13.5744,9.4604,-18.4252,5.0876,-16.4055,6.2033,12.6408,7.297,16.1892,10.6497,11.193116666666665,13.41945,9.9689,-5.101100000000001,-6.6688,S21,G1,Boredom
18.3624,8.2461,13.4068,-3.4777,14.7364,12.8442,-14.3557,6.7578,-12.4572,9.7826,17.8089,9.8222,14.2298,11.9862,10.686366666666666,13.108,13.815550000000002,-1.3373,-3.798950000000001,S21,G1,Boredom
10.8408,7.2576,11.1211,-7.7138,14.3459,15.5308,-13.0006,7.8346,-10.2285,10.6769,22.1731,9.7276,10.9072,11.7608,8.563733333333333,11.334,15.95035,0.2241999999999997,-2.583,S21,G1,Boredom
4.2643,5.8346,8.4783,-11.202,13.4852,16.574,-11.2321,7.3645,-8.6263,12.0122,24.7942,10.1314,8.2778,11.0552,6.239066666666667,9.6665,17.4628,1.6929499999999995,-1.9338000000000009,S21,G1,Boredom
-3.4003,4.0028,5.5003,-15.9626,11.1943,17.0613,-11.0524,6.4284,-7.6154,11.7848,27.7513,9.0293,4.3234,10.8861,3.0659666666666667,7.604750000000001,18.3903,2.0847,-2.3120000000000003,S21,G1,Boredom
-11.0983,1.7871,1.2188,-19.9429,9.5347,18.0132,-10.3898,5.0557,-7.158,12.0657,30.0373,8.488,0.11248,10.2325,-0.0812333333333329,5.17249,19.26265,2.45385,-2.66705,S21,G1,Boredom
-14.3834,2.6679,2.1337,-8.8688,14.8891,15.9444,-3.8399,6.7278,-5.7415,10.3538,36.137,22.0787,9.9842,11.594,2.0638166666666664,10.7891,29.10785,2.30615,1.44395,S21,G1,Boredom
-12.0391,3.0016,-6.3906,-18.7085,1.649,14.494,-12.9928,6.817,-13.7928,8.2513,34.4626,20.9763,9.878,-0.46091,-2.998933333333333,4.708545,27.71945,-2.77075,-3.0879000000000003,S21,G1,Boredom
1.0305,3.3157,-0.57439,-20.0552,-3.8827,26.9591,-12.7074,20.508,-11.4835,-4.5911,37.8276,5.6178,10.767,4.9995,1.1321683333333332,7.88325,21.7227,-8.0373,3.9003,S21,G1,Boredom
8.3765,2.6225,6.8683,-14.4076,1.783,29.7868,1.3898,22.9575,-11.2887,-16.662,44.9417,-8.8193,9.6277,2.2303,5.83825,5.929,18.0612,-13.97535,12.17365,S21,G1,Boredom
9.3561,5.9224,1.0235,-22.9265,-3.7563,20.5913,-2.1508,9.2333,-15.0562,-17.1445,35.8249,-16.1431,6.5803,-12.0035,1.70175,-2.7116,9.8409,-16.10035,3.54125,S21,G1,Boredom
12.2515,15.9384,-0.51921,-25.9961,-11.9272,20.8376,-4.4911,7.1975,-22.5481,-13.6465,25.2792,-10.7302,3.7162,-10.0244,1.7641650000000002,-3.1541,7.2745,-18.0973,1.3531999999999995,S21,G1,Boredom
5.0957,12.5123,-4.9338,-24.9301,-15.6573,19.0926,-8.6673,6.2719,-27.6169,-10.3589,30.1827,-6.6291,-10.6067,-8.9291,-1.4700999999999993,-9.7679,11.7768,-18.9879,-1.1976999999999998,S21,G1,Boredom
2.3211,8.3053,-3.1555,-22.9405,-8.2961,19.4293,-13.5786,4.4143,-14.5997,-0.35315,35.7805,-6.7251,-24.0703,-14.8132,-0.7227333333333329,-19.44175,14.5277,-7.476425,-4.58215,S21,G1,Boredom
8.1079,10.7695,0.98482,-18.6006,-6.8108,25.1781,-5.8503,7.112,-10.7611,-0.33196,36.5967,-9.2851,-10.2302,-14.9129,3.2714866666666667,-12.57155,13.6558,-5.546530000000001,0.6308500000000001,S21,G1,Boredom
1.2007,4.6911,-2.532,-23.9053,-15.7864,24.1602,0.92144,3.228,-21.4748,-5.7453,28.9676,-2.3072,-6.16,-28.1181,-2.028616666666668,-17.139049999999997,13.3302,-13.61005,2.07472,S21,G1,Boredom
-0.8464,1.4461,7.4979,-26.422,-16.8143,23.699,-5.0608,1.0593,-19.1978,0.52644,14.389,1.7822,-11.7165,-40.4819,-1.9066166666666664,-26.099200000000003,8.0856,-9.33568,-2.00075,S21,G1,Boredom
11.5512,4.8166,15.4443,-16.44,-11.3607,26.7219,-2.2875,7.4165,-8.6626,0.00109,17.9709,-9.684,0.34579,-23.953,5.122216666666667,-11.803605,4.1434500000000005,-4.330755,2.5645,S21,G1,Boredom
6.4129,-0.90517,2.1704,-26.8133,-10.1857,19.6858,11.1846,5.4898,-13.5756,-14.099,30.9927,-21.4503,4.7703,-13.8977,-1.6058450000000004,-4.563700000000001,4.7712,-13.8373,8.3372,S21,G1,Boredom
-1.8735,4.0881,7.9667,-30.1435,-4.6356,26.4072,15.4525,8.1234,-11.7731,-16.4384,36.2699,-16.2118,-9.6159,-27.1638,0.3015666666666667,-18.38985,10.02905,-14.10575,11.78795,S21,G1,Boredom
-0.77306,14.7079,12.4272,-22.4084,-10.284,35.6878,5.6353,16.526,-9.0912,-12.489,27.1792,-14.252,-22.597,-29.2131,4.892906666666668,-25.905050000000003,6.4636000000000005,-10.7901,11.08065,S21,G1,Boredom
6.1874,14.8134,9.7065,-19.0884,-9.6665,34.5345,3.3217,29.6345,-8.5453,-0.87371,36.414,-5.4944,-7.1412,-13.3603,6.08115,-10.25075,15.4598,-4.709505,16.478099999999998,S21,G1,Boredom
4.8281,13.9242,4.1851,-18.9311,-6.1234,35.4255,-1.8166,36.474,-12.9716,6.0918,37.1922,6.6888,7.3873,-3.9401,5.551400000000001,1.7235999999999998,21.9405,-3.4399,17.328699999999998,S21,G1,Boredom
0.093201,12.5954,1.4643,-26.1905,-8.2253,41.6962,2.7377,23.9143,-16.6385,7.2081,24.5889,6.7808,1.9568,-17.8037,3.5722168333333326,-7.92345,15.68485,-4.7152,13.326,S21,G1,Boredom
4.0396,2.9501,3.3524,-31.5336,-15.6338,29.3164,7.5119,12.6024,-10.7017,-2.114,25.0895,1.4354,-9.0261,-16.9578,-1.2514833333333328,-12.99195,13.26245,-6.40785,10.05715,S21,G1,Boredom
14.6618,6.7232,7.1018,-26.679,-17.6593,23.6064,3.1102,15.7963,-7.0961,-5.9382,37.6842,5.3003,3.3685,-4.0882,1.2924833333333332,-0.3598499999999998,21.49225,-6.51715,9.45325,S21,G1,Boredom
16.2523,15.7045,4.2064,-21.6206,-17.094,36.29,4.4053,15.3427,-6.1761,-2.1251,38.6089,3.5005,-0.29039,-16.1893,5.623100000000001,-8.239844999999999,21.0547,-4.1506,9.874,S21,G1,Boredom
11.8199,15.256,3.4603,-23.7806,-16.5621,40.7557,7.5983,11.9534,-5.3118,-7.4299,27.8961,-0.16677,-14.373,-14.7242,5.1582,-14.5486,13.864665,-6.37085,9.77585,S21,G1,Boredom
16.543,15.8219,8.6859,-23.835,-12.1111,35.8416,3.6851,15.681,-5.4868,-8.4654,27.7046,-5.5891,-27.6106,-5.4449,6.824383333333333,-16.52775,11.05775,-6.976100000000001,9.68305,S21,G1,Boredom
13.5754,19.8112,7.1763,-25.3684,-13.3595,32.7026,5.439,11.7766,-3.1826,-5.9824,29.9929,-18.0952,-21.46,-19.2182,5.756266666666666,-20.3391,5.94885,-4.5825,8.607800000000001,S21,G1,Boredom
5.8463,12.6964,10.6972,-22.8588,-14.5339,29.7529,12.0272,6.1315,-0.028111,-13.5255,36.0953,-16.0211,-8.3194,-32.1651,3.600016666666667,-20.24225,10.0371,-6.7768055,9.07935,S21,G1,Boredom
12.9034,3.5384,11.5367,-20.0055,-16.1311,24.51,3.8978,6.2569,-8.4227,-26.814,39.3624,-16.5415,-2.3875,-25.2471,2.7253166666666666,-13.8173,11.41045,-17.61835,5.07735,S21,G1,Boredom
20.5254,11.7223,-0.51436,-32.14,-25.5345,17.6076,-4.7323,9.3392,-22.0173,-27.8967,32.5558,-29.649,-16.3442,-37.8323,-1.3889266666666664,-27.08825,1.4533999999999985,-24.957,2.30345,S21,G1,Boredom
11.8856,15.4638,0.010259,-34.6564,-29.4348,10.1304,2.9599,18.1631,-27.3384,-15.8511,21.2187,-31.5497,-29.4636,-49.6623,-4.433523499999999,-39.56295,-5.1655000000000015,-21.59475,10.5615,S21,G1,Boredom
-0.68056,9.5965,14.1096,-18.477,-14.8291,17.4246,14.6353,27.9379,-13.846,-8.974,24.8841,-15.5567,-25.1783,-35.2756,1.1906733333333337,-30.22695,4.6637,-11.41,21.2866,S21,G1,Boredom
2.3238,14.9477,15.9546,-12.7008,-9.9874,26.2562,10.7937,28.2376,-9.0642,-3.497,37.4911,-0.52329,-9.5676,-19.059,6.13235,-14.313300000000002,18.483905,-6.2806,19.51565,S21,G1,Boredom
11.0739,27.8798,13.0223,-15.8898,-16.3026,22.7058,1.2565,21.6048,-9.5079,-3.2872,37.9341,-1.0348,-23.0935,-3.8155,7.081566666666666,-13.4545,18.44965,-6.39755,11.43065,S21,G1,Boredom
15.8422,21.7618,18.6613,-16.4181,-19.7688,28.7522,-4.2516,18.8268,-17.3327,-12.4728,31.2133,-4.4295,-35.8079,-11.5363,8.138433333333333,-23.6721,13.3919,-14.90275,7.287599999999999,S21,G1,Boredom
16.8672,7.616,15.5666,-24.3221,-28.4602,30.9776,-5.972,12.7582,-30.1213,-20.6145,34.279,-15.0288,-27.9543,-20.7217,3.0408499999999994,-24.338,9.625100000000002,-25.3679,3.3931,S21,G1,Boredom
10.4224,18.5169,14.1379,-18.4194,-22.3092,27.6372,-0.18095,20.388,-17.9437,-16.9093,46.3223,-14.6222,-12.177,-13.059,4.997633333333333,-12.618,15.85005,-17.4265,10.103525,S21,G1,Boredom
1.4008,31.5059,18.7224,-3.2143,-6.8707,35.3627,8.2262,33.2647,-2.7671,-7.4985,57.643,0.35512,-19.6204,1.0602,12.8178,-9.2801,28.99906,-5.1328,20.74545,S21,G1,Boredom
-2.6338,15.5156,15.6235,-11.6882,-11.1742,31.2655,11.6831,21.6145,-1.3898,-6.0606,48.7025,2.5326,-22.3946,-7.8934,6.151399999999999,-15.144,25.61755,-3.7252,16.6488,S21,G1,Boredom
4.4383,3.2258,6.7841,-25.0869,-24.6037,15.561,4.0681,6.2177,-13.1599,-19.5255,39.8538,-11.7194,-12.1609,-21.5198,-3.280233333333334,-16.84035,14.0672,-16.3427,5.1429,S21,G1,Boredom
14.5437,9.453,5.8833,-27.755,-30.2643,18.0846,-6.5477,10.5608,-20.7661,-28.7257,41.9078,-21.1165,-17.852,-21.4394,-1.675783333333334,-19.6457,10.395650000000002,-24.7459,2.0065500000000003,S21,G1,Boredom
7.7441,4.9348,7.5058,-25.1022,-26.4725,31.0995,-0.22788,18.8167,-23.4712,-26.0137,38.4058,-5.7495,-30.8809,-23.1156,-0.0484166666666669,-26.99825,16.32815,-24.74245,9.29441,S21,G1,Boredom
0.36544,6.6142,0.14139,-15.6936,-25.8721,43.3335,6.6998,5.8351,-24.0384,-19.5139,28.199,8.6954,-43.1281,-28.6427,1.4814716666666663,-35.885400000000004,18.4472,-21.77615,6.26745,S21,G1,Boredom
4.7883,17.5767,0.62666,-7.3437,-18.8866,54.8335,1.8531,6.9663,-18.1513,-19.8253,33.9153,4.174,-34.5638,-16.5533,8.599143333333332,-25.55855,19.04465,-18.9883,4.4097,S21,G1,Boredom
6.477,12.571,9.4786,-17.7686,-18.7418,64.0644,-0.23409,20.6483,-17.0623,-21.5993,45.9804,0.96008,-30.5149,-11.6091,9.346766666666667,-21.062,23.47024,-19.3308,10.207105,S21,G1,Boredom
0.16135,11.8168,14.8364,-25.593,-24.5318,61.2081,5.7069,22.101,-11.1,-14.3772,53.8152,5.841,-27.6965,-25.0125,6.316308333333335,-26.3545,29.8281,-12.7386,13.90395,S21,G1,Boredom
1.1397,18.0218,9.0077,-22.0809,-26.0229,56.5476,4.3765,9.9099,-11.421,-21.4162,50.5868,0.55155,-34.9247,-37.6118,6.102166666666666,-36.26825,25.569175,-16.418599999999998,7.1432,S21,G1,Boredom
11.9363,14.965,9.4548,-10.8795,-24.462,46.2407,-1.8126,5.3638,-24.8358,-34.2312,49.5271,-8.3706,-42.7068,-36.7882,7.875883333333332,-39.7475,20.57825,-29.5335,1.7756000000000003,S21,G1,Boredom
8.7509,4.6833,17.2833,-13.6835,-23.4876,34.0825,-4.1731,-4.3418,-22.5809,-26.4731,57.9143,-7.3751,-38.6626,-35.0742,4.604816666666667,-36.8684,25.2696,-24.527,-4.25745,S21,G1,Boredom
-1.6522,1.4388,21.1853,-17.801,-7.9784,32.0375,5.9553,-3.0928,-7.126,-10.7847,68.5394,6.8964,-24.4898,-40.8717,4.538333333333334,-32.68075,37.7179,-8.955350000000001,1.43125,S21,G1,Boredom
-9.4546,-6.5491,5.8142,-16.7334,6.6003,16.0153,6.585,-10.8098,-7.9574,-9.4216,73.0451,7.4706,-14.1304,-35.4564,-0.717883333333333,-24.7934,40.257850000000005,-8.689499999999999,-2.1124,S21,G1,Boredom
-6.4181,-8.6263,5.2425,-1.6294,19.9842,0.95438,7.6717,-24.2612,-6.9867,-6.387,77.0587,5.5406,-7.8498,-22.9577,1.584546666666667,-15.40375,41.29965,-6.68685,-8.294749999999999,S21,G1,Boredom
-3.0695,-15.0223,17.769,9.5562,30.6382,-13.2029,4.2479,-31.9183,-3.604,0.91072,77.3746,5.2082,-14.2933,-33.4333,4.4447833333333335,-23.8633,41.2914,-1.34664,-13.8352,S21,G1,Boredom
6.9922,-23.011,14.7274,-0.89472,37.689,-26.5107,-1.9335,-44.1032,-11.2903,-7.0464,71.7442,2.9202,-18.3748,-30.4403,1.4986966666666663,-24.40755,37.3322,-9.16835,-23.01835,S21,G1,Boredom
20.6727,-7.5303,27.1785,13.259,49.5277,-39.0201,3.6153,-55.557,-7.1551,-5.141,71.8838,9.1653,-16.778,-14.5138,10.68125,-15.6459,40.52455,-6.14805,-25.97085,S21,G1,Boredom
32.9899,-19.203,30.981,26.5634,47.273,-50.7789,-2.0339,-66.3236,-16.1091,-14.2167,56.2125,-0.76795,-29.8714,-22.8031,11.304233333333334,-26.33725,27.722275,-15.1629,-34.17875,S21,G1,Boredom
38.4188,-30.3976,36.53,37.7625,54.8084,-61.8321,2.5329,-66.9626,-13.6613,-14.845,61.2355,3.7229,-13.9791,-28.8432,12.548333333333332,-21.41115,32.4792,-14.253150000000002,-32.21485,S21,G1,Boredom
33.1506,-39.4388,26.4366,38.4597,46.5809,-72.2222,-3.5456,-77.0448,-19.7557,-20.8684,64.4754,-3.4145,-0.29929,-41.2126,5.494466666666665,-20.755945,30.53045,-20.31205,-40.2952,S21,G1,Boredom
27.7039,-39.5418,18.4297,42.5724,46.2553,-81.9889,4.0749,-86.5222,-24.0031,-27.025,62.0886,-10.6184,-14.3813,-52.8398,2.238433333333333,-33.61055,25.7351,-25.51405,-41.22365,S21,G1,Boredom
13.2001,-42.1087,9.4214,28.165,47.431,-91.1695,2.8429,-95.4308,-25.5264,-26.391,63.3019,-13.9323,-27.6185,-46.6577,-5.843450000000001,-37.1381,24.684800000000003,-25.9587,-46.29395,S21,G1,Boredom
8.9509,-40.076,8.3623,25.9814,36.1894,-99.7994,-2.76,-84.9392,-16.5865,-23.3263,73.6037,-6.6756,-17.5169,-46.328,-10.065233333333332,-31.92245,33.46405,-19.9564,-43.8496,S21,G1,Boredom
15.8226,-47.0552,13.2934,34.7938,37.4748,-103.1733,2.8384,-76.386,-7.1951,-26.371,83.2875,-3.8058,-15.9717,-57.6483,-8.140649999999999,-36.81,39.74085,-16.78305,-36.7738,S21,G1,Boredom
0.77321,-50.6517,5.0875,22.3344,39.672,-99.4526,4.1494,-81.1862,-8.2456,-23.3075,87.1312,-2.0962,-29.1134,-55.893,-13.706198333333337,-42.5032,42.517500000000005,-15.77655,-38.5184,S21,G1,Boredom
-6.41,-33.5126,11.6968,17.0438,29.3892,-79.3854,5.8759,-72.3645,-2.8119,-7.809,81.9038,7.9071,-25.6138,-38.4394,-10.196366666666668,-32.0266,44.90545,-5.31045,-33.2443,S21,G1,Boredom
8.0746,-17.4018,24.3297,30.1212,23.1811,-60.5223,-1.8849,-54.6873,-3.1369,2.7598,87.3613,5.9514,-13.7052,-36.8983,1.2970833333333331,-25.30175,46.65635,-0.18855,-28.2861,S21,G1,Boredom
17.1971,-13.9376,30.2782,31.0064,22.284,-51.5064,-1.2771,-53.8758,-15.2955,-11.5057,91.5029,13.9901,-8.4381,-48.7844,5.8869500000000015,-28.61125,52.7465,-13.4006,-27.57645,S21,G1,Boredom
7.2753,-15.0768,30.437,15.046,14.0329,-45.453,4.726,-60.5208,-18.3293,-17.9522,84.0372,17.1022,-20.7729,-51.0191,1.043566666666666,-35.896,50.5697,-18.14075,-27.8974,S21,G1,Boredom
9.8013,-15.1598,26.6348,12.4387,18.1294,-30.8728,5.429,-49.975,-5.3765,-8.9731,87.8846,4.2221,-27.4285,-33.858,3.495266666666668,-30.64325,46.05335,-7.1748,-22.273,S21,G1,Boredom
0.32324,-20.1776,32.9388,17.618,22.9682,-23.0948,11.0298,-47.9645,-0.11486,-17.3247,94.4641,-2.9453,-11.9543,-35.0614,5.095973333333332,-23.50785,45.7594,-8.71978,-18.46735,S21,G1,Boredom
-7.1044,-6.6192,45.0625,29.8962,34.9244,-8.3739,24.468,-42.6179,9.2753,-5.9135,102.8962,11.3314,2.863,-47.0577,14.630933333333331,-22.09735,57.1138,1.6808999999999998,-9.07495,S21,G1,Boredom
-9.1474,-0.78931,43.0753,20.6946,27.3971,-8.3647,18.7784,-34.628,8.2255,2.8367,97.4395,13.3436,-2.5188,-41.9869,12.144265,-22.25285,55.39155,5.5311,-7.924799999999999,S21,G1,Boredom
-8.5986,-8.644,34.5642,11.5509,18.8388,-16.7533,3.5517,-28.5984,7.732,-7.2106,84.6786,4.641,-16.4677,-33.5407,5.159666666666667,-25.0042,44.6598,0.2606999999999999,-12.52335,S21,G1,Boredom
6.0173,1.7522,46.5904,24.9578,22.6465,-5.8706,11.5112,-28.8589,3.3166,-14.6805,86.5119,2.387,-8.2946,-45.6282,16.015600000000003,-26.9614,44.44945,-5.6819500000000005,-8.673849999999998,S21,G1,Boredom
12.2994,3.6221,37.597,23.1889,10.4232,-1.5673,-2.0201,-41.2274,-8.7355,-18.7382,83.2972,-6.6458,-14.7105,-56.9905,14.26055,-35.8505,38.325700000000005,-13.73685,-21.62375,S21,G1,Boredom
7.6099,0.44175,28.4271,10.9316,5.8463,1.4897,-8.8129,-37.4948,-4.2598,-12.6758,76.3238,7.853,-13.8283,-44.1396,9.124391666666666,-28.98395,42.0884,-8.4678,-23.15385,S21,G1,Boredom
7.648,-8.9681,29.1912,-3.8243,-0.92431,3.8701,-7.7904,-37.7139,-14.376,-18.3351,61.3736,14.5186,-20.4069,-28.1559,4.498765,-24.2814,37.9461,-16.35555,-22.75215,S21,G1,Boredom
21.2891,1.4471,38.3043,-9.7437,-2.8448,17.7379,2.5551,-34.4636,-9.5624,-10.3205,65.5932,3.7695,-29.0595,-20.5396,11.03165,-24.79955,34.681349999999995,-9.94145,-15.95425,S21,G1,Boredom
16.2826,5.805,43.4143,4.9409,-5.1439,30.7736,7.834,-25.975,-3.5564,-9.2075,67.0899,7.9881,-32.7492,-25.728,16.012083333333333,-29.2386,37.539,-6.38195,-9.0705,S21,G1,Boredom
5.9223,0.02444,45.2552,10.3005,-1.377,25.4217,3.9077,-11.0812,-7.7869,-11.1238,70.4728,10.9661,-20.4125,-27.6416,14.257856666666669,-24.027050000000003,40.71945,-9.45535,-3.5867500000000003,S21,G1,Boredom
14.9508,-0.47126,42.0457,2.2737,-6.7281,20.4387,3.179,0.94247,-13.7409,-6.9996,77.6032,5.8629,-11.779,-24.5013,12.084923333333334,-18.14015,41.73305,-10.37025,2.060735,S21,G1,Boredom
-0.04626,1.0392,30.1387,-10.2095,-20.4244,19.7061,3.482,-10.4734,-15.3852,-6.0859,70.4782,6.9933,-19.469,-37.1312,3.3673066666666664,-28.3001,38.73575,-10.73555,-3.4957,S21,G1,Boredom
-9.1558,-4.9501,31.2938,-2.6834,-10.5313,14.5728,5.2481,-23.945,-1.6215,-0.78218,74.1506,18.4268,-19.2884,-49.0034,3.091000000000001,-34.1459,46.2887,-1.20184,-9.34845,S21,G1,Boredom
-11.57,-14.5302,31.3922,-5.4849,-3.9724,-0.12969,-1.9803,-31.1268,3.4152,-3.6978,76.617,9.4191,-13.1916,-60.1632,-0.715831666666667,-36.6774,43.01805,-0.1412999999999999,-16.55355,S21,G1,Boredom
-13.8393,0.44164,40.3733,2.7462,2.192,8.7676,12.2385,-15.1592,17.0384,-1.5009,82.8846,7.8665,-1.5355,-51.2947,6.78024,-26.4151,45.37555,7.76875,-1.46035,S21,G1,Boredom
-25.3552,1.625,38.4451,13.9403,5.5182,12.6868,18.641,-20.9409,17.4979,-0.91662,79.3933,6.9002,-14.7772,-45.7468,7.810033333333333,-30.262,43.14675,8.29064,-1.1499500000000005,S21,G1,Boredom
-11.4871,1.0337,50.2384,25.4516,13.5829,19.3339,19.9913,-15.2397,23.8563,13.2384,85.0015,20.5862,-14.3853,-31.6427,16.3589,-23.014000000000003,52.79385,18.54735,2.3758,S21,G1,Boredom
-11.7859,-2.9789,53.3734,10.095,11.7799,12.2473,15.8288,-7.4113,17.4859,-1.1626,74.9624,25.5004,-11.5467,-23.8177,12.1218,-17.682199999999998,50.2314,8.16165,4.20875,S21,G1,Boredom
-12.0663,-0.82508,53.1335,9.4893,16.0117,7.5605,14.8791,-4.004,6.5587,-12.9459,66.5136,21.0068,-5.9153,-34.2426,12.21727,-20.078950000000003,43.7602,-3.1936,5.43755,S21,G1,Boredom
-3.934,-7.1963,44.5132,23.0199,6.6552,0.68709,6.5781,-11.1711,3.6964,1.9308,58.078,18.2642,-13.9562,-45.5224,10.624181666666669,-29.7393,38.1711,2.8136,-2.2964999999999995,S21,G1,Boredom
2.2286,-4.789,41.8429,28.7756,-0.65817,-5.2807,-0.73158,-15.4399,7.4252,9.9393,57.5564,10.2543,-24.9714,-28.691,10.353205,-26.8312,33.90535,8.68225,-8.08574,S21,G1,Boredom
6.0463,4.3883,45.2589,16.184,-1.6067,-11.8779,-3.6498,-22.415,-0.92192,-4.757,62.0055,10.628,-28.4121,-12.8695,9.73215,-20.6408,36.31675,-2.83946,-13.0324,S21,G1,Boredom
10.1274,7.5823,50.9391,15.7067,0.95853,-9.6839,0.025533,-20.5773,-3.3363,-12.596,56.8029,24.0903,-20.2876,-7.208,12.605021666666666,-13.747800000000002,40.4466,-7.96615,-10.2758835,S21,G1,Boredom
4.0874,-4.2319,51.34,23.1601,4.3583,-6.6341,-3.4333,-14.897,2.2961,-0.48091,39.2948,16.446,-22.5267,-15.1713,12.0133,-18.849,27.870400000000004,0.907595,-9.16515,S21,G1,Boredom
4.8297,-5.9531,45.2961,20.783,6.0728,-4.2601,-6.1898,-13.0156,0.18333,2.5114,39.6787,3.6062,-28.0896,-8.334,11.128066666666667,-18.2118,21.64245,1.347365,-9.6027,S21,G1,Boredom
-5.3376,2.3057,29.7373,8.67,-8.3916,-6.9675,-10.7584,-15.1987,-1.8032,-6.5293,51.398,3.3893,-30.3557,-21.934,3.33605,-26.14485,27.39365,-4.16625,-12.97855,S21,G1,Boredom
-12.9194,9.0818,29.9291,20.0038,-10.5802,4.3161,-4.1859,-8.3597,12.405,1.7645,62.4141,13.064,-18.6563,-34.7179,6.638533333333332,-26.6871,37.73905,7.08475,-6.2728,S21,G1,Boredom
-19.0587,0.63491,36.0354,24.7296,3.8827,15.9092,-0.97123,-1.9321,25.7607,15.7587,63.0644,21.1697,-3.4369,-18.5349,10.355518333333334,-10.9859,42.11705,20.7597,-1.451665,S21,G1,Boredom
-31.2491,-3.8484,34.3675,16.8255,4.144,27.3029,1.5563,7.5685,27.1299,24.9135,67.6768,33.9995,0.9426,-3.3228,7.923733333333335,-1.1901,50.83815,26.0217,4.5624,S21,G1,Boredom
-28.3866,4.2845,29.3419,14.8285,3.8954,33.5668,10.3534,6.1269,20.5626,21.4427,74.4818,46.0595,-6.0285,8.2359,9.588416666666667,1.1037000000000003,60.27065,21.00265,8.24015,S21,G1,Boredom
-12.5834,-0.41734,37.9532,7.519,14.0334,17.4528,13.1895,-8.3407,17.8476,13.7363,58.6536,42.7535,-4.1845,1.321,10.65961,-1.43175,50.70355,15.79195,2.4244000000000003,S21,G1,Boredom
-4.6916,-0.39183,49.5036,8.0549,10.2284,11.2438,9.4341,-11.027,17.7647,8.9606,49.2078,34.2618,0.017077,-4.6848,12.324545,-2.3338615000000003,41.7348,13.36265,-0.7964499999999992,S21,G1,Boredom
4.4795,-2.3443,50.4844,13.4976,-3.2268,20.4462,9.8556,0.50013,11.7594,6.447,60.3554,35.1696,-5.91,-18.5037,13.889433333333336,-12.20685,47.7625,9.1032,5.177865000000001,S21,G1,Boredom
6.1862,-10.1052,49.4318,10.7132,4.8693,21.1959,6.3012,-4.4679,12.0418,1.1221,61.4011,26.1454,-15.4329,-26.0116,13.7152,-20.722250000000003,43.77325,6.58195,0.9166499999999996,S21,G1,Boredom
-3.5692,-0.11558,44.9837,8.5882,12.9729,18.4419,-5.4361,-9.6331,10.8255,-4.3784,53.2723,20.1309,-15.0017,-10.3509,13.55032,-12.6763,36.7016,3.22355,-7.5346,S21,G1,Boredom
-2.3666,7.7934,43.2722,8.0729,4.2925,13.3844,-13.012,-15.9696,0.29799,-8.0667,50.0759,10.0335,-14.1016,-2.5935,12.408133333333334,-8.34755,30.0547,-3.884355,-14.4908,S21,G1,Boredom
11.8754,2.8805,48.0846,9.0703,-8.3114,9.1246,-13.713,-11.5537,-5.1517,-14.003,41.6386,-4.6685,-20.6633,-16.5379,12.120666666666668,-18.6006,18.48505,-9.57735,-12.63335,S21,G1,Boredom
22.2502,6.6592,49.15,15.4401,-13.7402,22.4056,-16.8408,3.2395,-4.8431,-15.1383,36.1773,-1.6477,-28.3135,-15.7675,17.027483333333333,-22.0405,17.2648,-9.9907,-6.800650000000001,S21,G1,Boredom
28.8173,14.1617,42.25,14.5137,-6.0012,33.9019,-15.8303,9.6873,0.38604,-8.3031,40.9212,12.5512,-25.6272,-8.8954,21.2739,-17.2613,26.7362,-3.95853,-3.0714999999999995,S21,G1,Boredom
27.0887,10.3489,36.752,-0.45712,-2.6781,22.9777,-12.905,-4.994,-2.6001,-7.8053,36.4904,10.5392,-21.1256,-22.4616,15.672013333333334,-21.7936,23.5148,-5.2027,-8.9495,S21,G1,Boredom
11.3634,3.3073,38.0041,-7.5665,-8.9373,24.0688,-10.6494,-3.9291,-0.96286,-10.7943,30.8437,4.4736,-29.2423,-22.3247,10.039966666666666,-25.7835,17.658649999999998,-5.87858,-7.28925,S21,G1,Boredom
7.9895,7.5541,34.2421,-2.6673,-13.8338,34.972,-11.4922,10.4066,4.5277,-6.6889,39.3644,18.3052,-34.8956,-7.6495,11.3761,-21.272550000000003,28.8348,-1.0806,-0.5428000000000006,S21,G1,Boredom
18.3757,6.1133,30.2126,-4.4823,-12.0162,27.9351,-11.7902,10.0055,5.2445,-5.3,37.99,14.4666,-22.9238,-5.2155,11.023033333333332,-14.06965,26.2283,-0.0277499999999997,-0.8923500000000004,S21,G1,Boredom
3.1731,-1.6622,32.8441,-5.6951,-15.7396,21.8138,-8.6135,-4.6949,6.4106,-11.4023,22.3758,-0.50138,-16.1156,-19.0026,5.789016666666666,-17.5591,10.93721,-2.4958500000000003,-6.6542,S21,G1,Boredom
-4.6483,7.8213,32.3552,-5.8476,-24.1799,27.9127,-10.566,-7.1057,-0.39431,-16.1509,10.662,-6.1264,-29.2487,-31.9624,5.568900000000002,-30.60555,2.2678000000000003,-8.272605,-8.83585,S21,G1,Boredom
9.7306,18.2171,31.4019,-4.5088,-14.8266,26.2384,-10.92,6.1617,-6.2972,-12.2189,13.9738,6.0947,-32.6551,-30.4898,11.0421,-31.57245,10.03425,-9.25805,-2.37915,S21,G1,Boredom
15.2956,6.7527,30.9995,-9.671,-20.3573,21.2064,-11.7465,11.2248,-10.3646,-18.8935,16.5921,-1.6797,-23.288,-14.5604,7.370983333333334,-18.9242,7.456199999999999,-14.62905,-0.2608499999999996,S21,G1,Boredom
5.9825,2.8908,28.6453,-7.609,-26.5437,29.3178,-10.5475,24.6513,-7.2725,-20.2292,18.0659,-6.0242,-17.4454,-20.8722,5.447283333333332,-19.1588,6.020849999999999,-13.75085,7.0519,S21,G1,Boredom
-3.2664,3.7044,28.9021,-2.2144,-21.988,24.5957,-11.8902,29.321,-4.8616,-14.0774,13.0304,-0.72371,-20.3502,-33.7199,4.955566666666667,-27.03505,6.153345,-9.4695,8.7154,S21,G1,Boredom
-9.4912,-2.9377,41.268,3.3517,-14.2489,14.7242,-4.756,15.215,1.8509,-5.8245,17.6818,6.728,-13.6969,-34.8825,5.44435,-24.2897,12.2049,-1.9868,5.2295,S21,G1,Boredom
-8.9213,-2.7619,39.0142,5.1261,-12.406,16.8037,1.4559,10.3515,7.6663,-1.5235,27.486,11.2633,-10.8996,-18.6896,6.142466666666667,-14.7946,19.37465,3.0714,5.9037,S21,G1,Boredom
-10.361,1.3548,28.7723,0.86752,-15.6127,15.7955,-5.546,17.6325,-0.69474,-0.44457,20.8983,2.6855,-23.0862,-31.6677,3.4694033333333336,-27.37695,11.7919,-0.569655,6.0432500000000005,S21,G1,Boredom
-8.2581,-1.1953,36.4293,4.2727,-14.1821,13.3665,-3.732,16.0808,-0.15929,-7.8262,10.2611,-10.81,-27.1333,-43.8677,5.072166666666667,-35.5005,-0.2744499999999998,-3.992745,6.1744,S21,G1,Boredom
-3.3178,-6.5568,43.6268,5.4976,-15.8,13.0583,6.8637,5.7317,3.3075,-20.6909,3.2247,-16.5821,-27.975,-55.3356,6.084683333333333,-41.6553,-6.6787,-8.691699999999999,6.2977,S21,G1,Boredom
-9.539,0.25692,35.5764,3.686,-19.2973,8.8171,-1.9444,-0.045005,-9.2382,-15.9927,-0.42561,-11.1429,-24.8148,-54.9303,3.25002,-39.87255,-5.784255,-12.61545,-0.9947025,S21,G1,Boredom
-1.0647,13.0821,40.3564,6.4284,-17.1519,10.264,-9.7297,14.0577,-1.7703,-10.0946,9.477,-0.59631,-9.2259,-37.5345,8.652383333333333,-23.3802,4.440345,-5.93245,2.1640000000000006,S21,G1,Boredom
3.9382,2.4205,37.9345,1.1037,-21.0618,6.6851,-10.1339,26.7718,7.2259,-23.3175,10.8839,-3.5236,-9.9313,-34.5663,5.1700333333333335,-22.2488,3.68015,-8.0458,8.31895,S21,G1,Boredom
-2.7188,1.7815,23.3126,-2.4189,-23.2544,10.7288,-7.0562,25.6593,3.336,-13.5217,12.7006,-1.8309,-23.4354,-32.9861,1.2384666666666664,-28.21075,5.43485,-5.092849999999999,9.30155,S21,G1,Boredom
-2.0615,15.7747,24.3821,-3.7564,-17.4148,7.6158,-11.078,20.6629,-6.2489,0.62347,6.5058,2.7242,-30.6483,-23.5982,4.0899833333333335,-27.12325,4.615,-2.812715,4.7924500000000005,S21,G1,Boredom
7.4455,11.5923,28.3525,-9.9518,-19.8272,-4.2014,-22.7602,16.9534,-13.2822,-13.5139,-7.9846,-3.86,-41.1563,-25.6405,2.2349833333333327,-33.3984,-5.9223,-13.39805,-2.9034000000000013,S21,G1,Boredom
11.9378,5.9587,27.6393,-14.2928,-28.5142,10.1507,-20.4066,17.9117,-1.6193,-15.888,-4.7643,-1.6529,-44.6125,-10.0021,2.1465833333333326,-27.3073,-3.2086,-8.75365,-1.2474500000000006,S21,G1,Boredom
4.307,5.6012,21.0415,-12.4477,-31.7428,21.1242,-11.2801,9.9225,-4.4856,-9.0086,-5.4669,-4.5172,-43.9117,2.1806,1.3139000000000003,-20.86555,-4.99205,-6.7471,-0.6787999999999998,S21,G1,Boredom
7.5059,10.6974,24.2247,-0.34152,-28.3569,5.7568,-10.1096,12.7844,-16.5633,-18.8399,-11.5587,-9.6785,-39.7957,-12.0502,3.24773,-25.92295,-10.6186,-17.7016,1.3373999999999997,S21,G1,Boredom
6.5617,4.6233,28.2035,3.1372,-24.1858,-4.1947,-9.9968,11.5236,-3.2227,-11.2887,0.49411,-1.6895,-23.308,-25.4272,2.357533333333333,-24.3676,-0.597695,-7.2557,0.7633999999999999,S21,G1,Boredom
-6.673,0.39438,21.5723,1.96,-20.7591,10.157,0.48059,2.9297,11.0707,3.4886,14.2921,12.5119,-8.8466,-9.8016,1.1085966666666665,-9.3241,13.402,7.27965,1.705145,S21,G1,Boredom
-12.6929,3.8284,20.7722,2.3366,-17.0443,14.7089,6.872,0.28556,14.5802,-8.351,-0.66545,14.9465,-14.7352,-5.4853,1.9848166666666671,-10.11025,7.140525,3.1146,3.57878,S21,G1,Boredom
-10.45,3.105,29.8976,4.6662,-7.6249,2.467,4.9784,1.7497,2.3461,-17.2332,-14.7255,3.6789,-19.2843,-19.2562,3.676816666666667,-19.27025,-5.5233,-7.44355,3.36405,S21,G1,Boredom
-8.3413,-5.4776,28.597,11.794,-6.6741,-0.15026,3.198,1.1505,0.72363,-2.0993,-7.8659,6.9149,-20.5965,-32.2008,3.2912900000000005,-26.39865,-0.4754999999999998,-0.687835,2.17425,S21,G1,Boredom
-6.8528,-6.1369,25.8932,13.0619,-12.2002,5.7853,6.9566,-0.89405,6.6067,-3.7274,-4.4309,8.4756,-29.2382,-24.7873,3.258416666666667,-27.01275,2.02235,1.43965,3.031275,S21,G1,Boredom
-6.9359,2.6276,32.7359,12.7724,-21.8395,2.9689,2.0949,3.6048,7.6921,-17.6038,-16.5114,-2.4043,-29.9532,-31.6954,3.7215666666666674,-30.8243,-9.45785,-4.95585,2.84985,S21,G1,Boredom
-6.0255,4.9392,42.1306,18.4263,-11.1454,7.2351,1.475,17.4886,7.7238,-16.2756,-1.4207,4.1603,-14.056,-19.4224,9.26005,-16.7392,1.3698,-4.2759,9.481800000000002,S21,G1,Boredom
-11.5905,-3.2597,31.7012,8.4307,-9.4896,4.8255,-2.564,27.5266,-0.64115,-1.1991,12.7646,12.8007,0.83821,-4.157,3.436266666666667,-1.659395,12.78265,-0.920125,12.4813,S21,G1,Boredom
-3.4868,8.2961,27.3294,5.4551,-21.267,-0.89636,-6.855,22.4178,-0.10892,1.0711,8.4923,7.5879,-13.3121,4.2167,2.5717400000000006,-4.547699999999999,8.0401,0.4810899999999999,7.7814,S21,G1,Boredom
8.0812,15.2062,31.1224,0.68354,-30.3623,2.6142,-14.8399,9.7139,-2.5717,-13.0931,-6.1172,-6.2032,-26.6134,-4.4325,4.55754,-15.52295,-6.1602,-7.8324,-2.563,S21,G1,Boredom
13.0291,10.8361,23.8223,-10.7172,-26.0713,12.8287,-20.3708,6.6618,-10.8136,-26.4075,-19.8502,-9.2877,-20.0289,-9.5993,3.9546166666666656,-14.8141,-14.56895,-18.61055,-6.8545,S21,G1,Boredom
5.8271,9.6926,17.9486,-13.531,-18.0867,-0.28741,-13.7148,9.7189,-2.7561,-24.7744,-4.5592,-4.2852,-26.235,-23.1234,0.2605316666666666,-24.6792,-4.4222,-13.76525,-1.9979500000000003,S21,G1,Boredom
1.5264,14.0496,22.7978,-2.8421,-19.9641,-14.0992,-3.0148,12.0992,6.2989,-10.4474,5.3691,-4.0281,-36.5149,-35.836,0.2447333333333337,-36.17545,0.6705000000000001,-2.07425,4.542199999999999,S21,G1,Boredom
5.8796,10.7369,20.9361,1.7742,-27.163,-3.8699,-7.2787,5.94,-2.4749,-15.2529,-1.3738,-10.2072,-27.9032,-44.9955,1.3823166666666664,-36.44935,-5.7905,-8.863900000000001,-0.6693499999999997,S21,G1,Boredom
13.4294,5.1546,18.6929,0.67974,-22.5692,-0.67376,-8.8175,3.6091,-2.3259,-17.3007,-12.1555,-8.6068,-20.3015,-28.1958,2.4522800000000005,-24.24865,-10.38115,-9.8133,-2.6042000000000005,S21,G1,Boredom
6.6966,7.8079,19.5464,6.565,-22.2035,-14.7333,-8.2885,4.38,2.7522,-21.2021,-12.4146,-6.1153,-23.0354,-12.404,0.6131833333333331,-17.7197,-9.26495,-9.22495,-1.9542500000000005,S21,G1,Boredom
4.3193,13.2669,25.2876,8.1476,-23.8343,-11.6029,-5.8156,6.0927,2.5866,-17.9545,2.4303,-2.7844,-14.7383,-21.0922,2.597366666666667,-17.91525,-0.1770500000000001,-7.683949999999999,0.1385499999999999,S21,G1,Boredom
8.9991,6.5443,20.8074,-2.2188,-21.4163,-12.8822,-8.4297,0.78817,-7.4462,-17.8643,3.001,-6.5689,-16.818,-31.6802,-0.0277500000000001,-24.2491,-1.78395,-12.65525,-3.820765,S21,G1,Boredom
4.014,4.6699,15.1137,-0.6049,-13.711,-25.4441,-5.4547,2.2226,-1.5666,-15.3107,-5.5753,-3.7045,-14.3271,-26.3217,-2.6604,-20.3244,-4.6399,-8.43865,-1.61605,S21,G1,Boredom
-9.5617,15.7485,23.5906,13.5314,-11.4066,-18.4846,0.30536,16.1893,12.6274,-5.0092,8.8592,10.6178,-0.13272,-25.2366,2.236266666666667,-12.68466,9.7385,3.8091,8.24733,S21,G1,Boredom
-23.088,16.7791,27.1142,18.8693,-7.7592,-17.3751,-0.70095,24.3303,16.0435,-2.7331,19.416,15.1411,-10.9898,-11.8698,2.423383333333333,-11.4298,17.27855,6.655200000000001,11.814675,S21,G1,Boredom
-30.8146,22.1932,26.9686,18.2309,6.8064,-23.7409,-1.1527,23.3642,13.5987,5.8266,20.7198,15.7148,-13.7877,2.9424,3.273933333333334,-5.422649999999999,18.2173,9.71265,11.10575,S21,G1,Boredom
-14.8657,26.7881,32.2645,31.237,20.498,-36.4164,-1.084,17.0233,20.6853,7.4526,26.3906,18.7225,0.86813,16.8658,9.917583333333331,8.866965,22.55655,14.06895,7.96965,S21,G1,Boredom
0.12625,20.736,44.4287,43.4628,33.3681,-48.3314,11.3288,8.5937,25.8649,8.4876,24.3135,26.9834,8.2243,29.9539,15.631741666666665,19.0891,25.64845,17.17625,9.96125,S21,G1,Boredom
0.5633,5.3919,39.5165,36.3602,45.466,-59.5315,14.1059,-6.022,21.8428,10.4476,11.4958,19.9307,1.3096,14.0566,11.2944,7.6831,15.71325,16.1452,4.04195,S21,G1,Boredom
-8.8543,-5.5262,38.6272,48.2786,56.838,-70.0596,14.7413,-19.7606,27.941,16.2411,9.3243,20.2175,11.6033,-0.88676,9.88395,5.35827,14.7709,22.09105,-2.50965,S21,G1,Boredom
-6.3475,-1.2431,32.3591,59.4337,58.9855,-79.9561,7.9303,-32.675,17.3745,4.4015,-4.0762,16.0414,2.0171,13.2664,10.5386,7.64175,5.9826,10.888000000000002,-12.37235,S21,G1,Boredom
-1.0277,-15.2686,20.539,45.0026,62.3604,-89.2587,8.4415,-44.8145,5.466,-3.7651,-3.8311,7.1765,-5.0189,16.8666,3.724499999999999,5.923849999999999,1.6727,0.8504500000000002,-18.1865,S21,G1,Boredom
13.134,-28.4524,31.654,52.6737,71.9536,-98.0032,16.3313,-56.2256,17.4854,6.8321,10.4987,14.1537,9.3822,1.7546,7.159949999999998,5.5684,12.3262,12.15875,-19.94715,S21,G1,Boredom
15.038,-28.1784,27.285,51.9821,58.2531,-105.5346,13.8701,-66.9521,15.9425,2.965,23.4255,10.8347,19.4134,-1.0427,3.140866666666668,9.18535,17.1301,9.45375,-26.541,S21,G1,Boredom
9.6905,-24.0184,21.2036,46.3939,54.2637,-100.6833,10.5686,-76.6166,10.5416,-5.6083,27.4527,0.80179,5.9022,13.1198,1.1416666666666655,9.511,14.127245,2.4666500000000005,-33.024,S21,G1,Boredom
11.0846,-21.5893,26.8454,53.4878,60.8854,-94.6428,8.9465,-64.118,15.8347,-1.3212,35.6831,9.6428,16.4131,7.6159,6.01185,12.0145,22.66295,7.25675,-27.58575,S21,G1,Boredom
12.3955,-25.2325,24.2472,48.3035,52.2937,-89.9517,13.3483,-56.319,13.898,2.71,23.665,7.0892,25.3064,-6.941,3.675949999999998,9.1827,15.3771,8.304,-21.48535,S21,G1,Boredom
5.7248,-22.731,24.7674,47.3803,41.2531,-91.4696,20.4494,-65.7818,10.0997,5.51,15.3306,-7.4362,9.688,-19.0932,0.8208333333333329,-4.7026,3.9472,7.80485,-22.666200000000003,S21,G1,Boredom
1.4302,-17.4161,28.2208,48.4895,38.7789,-88.944,12.3089,-74.675,6.5312,1.2293,7.4972,-13.6326,-4.9933,-22.8862,1.759883333333332,-13.93975,-3.0677,3.88025,-31.18305,S21,G1,Boredom
10.7277,-10.9389,19.1193,31.4801,24.1053,-76.1996,0.21106,-73.6523,-1.269,-12.9445,-7.0526,-8.3699,-10.5716,-35.613,-0.284350000000001,-23.0923,-7.71125,-7.10675,-36.72062,S21,G1,Boredom
17.4928,-5.8373,14.5144,30.8493,18.2138,-57.5276,6.6187,-55.8978,-3.6621,-15.8483,5.4941,-4.4109,3.3975,-42.0952,2.9509000000000007,-19.34885,0.5416000000000003,-9.7552,-24.63955,S21,G1,Boredom
4.5902,-17.3401,17.5955,41.8399,31.221,-47.9266,7.2091,-44.6419,-3.4424,-0.79741,8.1279,-14.0233,5.1697,-25.4695,4.996650000000002,-10.1499,-2.9477,-2.119905,-18.7164,S21,G1,Boredom
3.3273,-19.2632,24.4409,37.3544,38.9538,-43.075,7.7641,-43.9389,9.6047,10.8325,-6.4598,-5.2799,3.871,-9.8414,6.956366666666665,-2.9852,-5.86985,10.2186,-18.0874,S21,G1,Boredom
9.5479,-12.6747,31.3707,27.7044,22.5166,-37.0338,19.6455,-40.8088,19.4007,8.7008,3.5835,9.1369,0.18197,4.8491,6.9051833333333335,2.515535,6.360200000000001,14.05075,-10.58165,S21,G1,Boredom
4.5303,-8.4569,28.9947,29.4994,17.486,-20.7117,15.997,-31.94,12.8034,9.66,17.4685,22.1453,-12.1758,18.6582,8.556966666666666,3.2412,19.8069,11.2317,-7.971500000000001,S21,G1,Boredom
1.7887,-11.4068,21.8227,25.2607,21.8701,-8.8745,1.7029,-30.5174,8.578,7.5992,13.185,6.7166,-14.9025,7.0701,8.41015,-3.9162,9.9508,8.0886,-14.40725,S21,G1,Boredom
4.644,-11.7099,34.6133,23.7441,15.6184,-22.442,15.4288,-31.6498,22.1633,8.1307,11.4064,-7.7864,-2.1562,-7.4541,7.411316666666665,-4.80515,1.81,15.146999999999998,-8.110499999999998,S21,G1,Boredom
-9.7347,-12.4886,40.6604,20.8382,10.2365,-29.2203,19.9363,-34.1956,26.9823,9.1251,21.0938,-12.7024,1.4314,-21.1069,3.3819166666666667,-9.83775,4.1957,18.0537,-7.12965,S21,G1,Boredom
-13.3239,-4.8261,33.2818,21.5634,22.4624,-13.3671,7.8741,-26.2178,26.3514,16.4792,10.9372,-5.0271,9.247,-16.8293,7.63175,-3.79115,2.9550500000000004,21.4153,-9.17185,S21,G1,Boredom
-9.561,-5.5232,41.1629,27.1841,19.1396,1.5349,8.3901,-24.6443,23.7828,11.5394,-3.8191,-5.7121,8.6922,-1.7195,12.322883333333332,3.48635,-4.7656,17.6611,-8.1271,S21,G1,Boredom
-2.5666,1.2281,46.1014,24.0718,4.6569,-3.5453,12.3315,-14.7694,17.911,4.4263,9.0298,-6.8516,1.7509,-0.40509,11.657716666666667,0.672905,1.0890999999999995,11.16865,-1.2189499999999995,S21,G1,Boredom
-0.93132,12.5137,37.903,15.2192,-0.067259,10.7674,6.1593,0.21679,13.3791,-0.28408,15.8953,-10.8852,-0.82392,-6.8015,12.567453499999996,-3.81271,2.5050500000000007,6.54751,3.188045,S21,G1,Boredom
-8.2832,16.2081,38.0981,18.7503,-1.545,24.2214,9.2465,9.8103,19.9842,1.2147,0.84158,-7.7629,0.70726,7.7066,14.57495,4.20693,-3.46066,10.59945,9.5284,S21,G1,Boredom
-6.305,11.7783,43.2205,16.144,-15.5523,23.707,2.271,13.6665,17.3038,-1.3279,-10.7905,-7.7909,-3.7799,6.9727,12.165416666666667,1.5963999999999998,-9.2907,7.98795,7.96875,S21,G1,Boredom
8.1733,17.9862,49.5168,12.2119,-21.7564,30.1866,-7.7423,21.7361,11.3261,-2.2357,3.9569,-12.2619,2.3729,-4.3112,16.053066666666666,-0.9691500000000002,-4.1525,4.5452,6.9969,S21,G1,Boredom
6.4244,11.9675,41.6073,3.5772,-34.2791,36.2774,-15.1798,17.4684,-2.194,-7.0401,1.4725,-11.5262,-1.7205,0.88603,10.929116666666667,-0.4172349999999999,-5.02685,-4.61705,1.1442999999999994,S21,G1,Boredom
0.11198,8.286,41.0859,8.3011,-36.1734,32.1257,-12.294,20.3713,2.8762,-0.69168,-1.5793,3.2653,-3.5932,14.9329,8.956213333333332,5.66985,0.843,1.09226,4.0386500000000005,S21,G1,Boredom
8.9953,14.7038,52.7207,12.742,-19.903,24.2717,-5.6298,19.1495,8.6301,5.2763,-4.4476,6.749,1.5614,15.7414,15.588416666666667,8.6514,1.1506999999999996,6.953200000000001,6.75985,S21,G1,Boredom
11.9123,16.2908,61.6333,11.4833,-11.5725,21.3336,-3.8103,3.9005,2.6796,2.4905,-16.528,-7.7559,0.97345,0.69694,18.513466666666663,0.835195,-12.14195,2.58505,0.0451000000000001,S21,G1,Boredom
5.7653,14.8196,58.4291,16.2275,-9.3968,19.5598,-4.0754,0.97445,11.903,5.7983,-10.1031,-5.0441,-2.5413,-1.0494,17.567416666666666,-1.79535,-7.5736,8.85065,-1.550475,S21,G1,Boredom
-4.4577,8.9919,47.0213,12.2903,-7.8446,10.4842,-11.7329,2.892,19.0909,1.4994,-7.5209,-0.7895,-10.2908,8.8916,11.0809,-0.6996000000000002,-4.1552,10.29515,-4.420450000000001,S21,G1,Boredom
-5.6729,7.9582,57.5348,13.0347,-5.8931,9.3609,-9.5472,3.2117,16.4637,5.8547,-12.5034,-1.2373,-0.29054,14.7784,12.720433333333332,7.24393,-6.870349999999999,11.1592,-3.16775,S21,G1,Boredom
-9.2835,3.5297,57.0462,12.2526,-11.4656,2.8723,-6.0109,1.043,18.4394,6.4909,-5.8262,4.7639,8.6174,19.8186,9.158616666666669,14.218,-0.5311500000000002,12.46515,-2.48395,S21,G1,Boredom
-13.1713,4.7992,48.1902,12.0112,-10.2839,-7.6709,-1.2055,2.4627,19.8027,5.6077,8.6234,11.8864,10.5701,16.1598,5.64575,13.36495,10.2549,12.7052,0.6285999999999999,S21,G1,Boredom
-7.9358,1.0544,53.6951,13.7598,-4.2341,-10.6674,-5.5784,-0.15434,22.0714,9.7165,9.8105,4.7529,8.4541,3.8314,7.611999999999999,6.14275,7.2817,15.89395,-2.8663700000000003,S21,G1,Boredom
-9.9289,-6.4166,59.8571,20.3429,-6.4493,-5.5831,-10.6764,-1.6268,31.1184,17.5288,3.7891,3.9735,8.4402,11.9968,8.637016666666666,10.2185,3.8813,24.3236,-6.151599999999999,S21,G1,Boredom
-23.4332,-10.4769,48.8579,17.6406,-10.5066,-12.6559,-4.6031,-3.011,24.807,14.9963,4.0551,9.1679,8.428,25.377,1.5709833333333334,16.9025,6.6115,19.90165,-3.80705,S21,G1,Boredom
-19.7812,-7.379,47.4072,13.1245,-5.4319,-4.4887,0.1174,4.5775,19.8608,10.6388,-0.63348,9.112,2.4895,35.4365,3.908483333333334,18.963,4.23926,15.2498,2.34745,S21,G1,Boredom
-4.4943,4.9168,57.4043,16.288,1.8085,9.8806,-5.8157,12.2049,18.6692,8.0245,-5.534,4.6143,-3.5868,27.3833,14.30065,11.89825,-0.4598499999999998,13.34685,3.1946000000000003,S21,G1,Boredom
-12.3981,6.5973,53.9596,11.3602,-4.2265,23.3878,-5.4663,5.5461,13.5975,7.5435,-8.165,6.3129,-2.3836,16.8503,13.113383333333331,7.233350000000001,-0.9260499999999996,10.5705,0.0398999999999998,S21,G1,Boredom
-25.7542,-7.8986,38.3752,10.1839,-17.3082,7.8845,-4.6445,-8.121,12.2879,11.5356,-21.0104,-0.4866,4.1801,8.431,0.9137666666666668,6.30555,-10.7485,11.91175,-6.38275,S21,G1,Boredom
-26.4063,-11.598,39.0357,17.4753,-6.3912,2.6957,-1.4028,-4.6707,20.4407,19.7335,-22.7128,-2.4329,4.9173,-4.915,2.468533333333333,0.0011499999999999,-12.57285,20.0871,-3.03675,S21,G1,Boredom
-23.3407,-2.5063,50.7936,11.982,-4.5265,0.064196,-8.7269,4.0053,17.733,14.1047,-16.9043,-5.7442,-8.713,-18.7201,5.411049333333335,-13.716549999999998,-11.32425,15.91885,-2.3608,S21,G1,Boredom
-17.495,5.0528,61.846,17.6834,-9.6877,14.1603,-7.7091,14.1372,20.1258,12.7642,-13.4208,-5.8928,-7.696,-31.6969,11.926633333333331,-19.69645,-9.6568,16.445,3.21405,S21,G1,Boredom
-18.4208,-2.1653,45.7402,12.6719,-11.0819,18.472,-4.2835,7.3625,14.9677,9.0353,-26.4441,-7.5148,-20.0752,-15.6951,7.536016666666669,-17.88515,-16.97945,12.0015,1.5395,S21,G1,Boredom
-16.328,-2.0354,42.9948,7.9605,-14.368,20.3272,-6.0025,7.9082,11.1061,6.5172,-27.8209,-6.0764,-17.8832,-0.65336,6.425183333333332,-9.26828,-16.94865,8.81165,0.9528499999999998,S21,G1,Boredom
-14.3608,-0.92577,41.4027,4.5194,-17.4569,21.0826,-7.6174,9.4088,8.4638,4.1512,-28.1276,-4.7243,-15.8227,13.4858,5.710205000000001,-1.16845,-16.42595,6.307500000000001,0.8956999999999997,S21,G1,Boredom
-12.5112,-0.86976,38.919,0.29675,-20.361,21.7932,-9.1358,10.8198,4.9929,1.9266,-29.403,-3.4528,-13.8854,18.3313,4.544498333333332,2.222949999999999,-16.4279,3.45975,0.8420000000000005,S21,G1,Boredom
-10.2788,0.66418,38.0656,-2.1903,-22.5961,22.9548,-10.0694,12.6398,2.2241,0.32925,-30.1081,-1.7639,-10.582,20.6892,4.436563333333333,5.053599999999999,-15.936,1.276675,1.2851999999999997,S21,G1,Boredom
-6.2048,3.0941,38.2514,-3.5402,-22.7216,27.0108,-8.9706,15.3396,1.5969,0.80326,-28.7954,1.7992,-6.4898,24.881,5.981616666666667,9.1956,-13.4981,1.20008,3.1845000000000008,S21,G1,Boredom
-2.8695,5.8714,38.9193,-4.3158,-23.3348,29.3407,-8.4328,18.3698,1.5006,0.75553,-27.0681,4.6543,-3.1374,28.3262,7.2685499999999985,12.5944,-11.2069,1.128065,4.968500000000001,S21,G1,Boredom
1.7484,8.9764,40.0414,-5.5381,-23.416,33.0135,-6.4456,21.7124,0.91679,1.204,-24.9503,7.8323,2.4831,33.0474,9.1376,17.76525,-8.559,1.060395,7.6334,S21,G1,Boredom
-4.2835,7.4494,33.6879,-5.2058,-27.9371,30.0442,-0.13184,14.4836,-3.0892,4.0952,-27.4043,-6.7377,1.3466,22.175,5.62585,11.7608,-17.070999999999998,0.5030000000000001,7.175879999999999,S21,G1,Boredom
-9.953,7.0029,19.8131,-3.9055,-28.2364,24.291,-2.0994,11.6391,-8.8304,8.7876,-23.7836,-7.0495,-1.6972,19.8565,1.5020166666666668,9.07965,-15.41655,-0.0213999999999998,4.76985,S21,G1,Boredom
-10.8371,10.04,16.1556,-11.0794,-27.0359,26.2908,-1.4797,17.3605,-0.8923,1.8405,-12.9732,1.7693,0.87341,23.1099,0.5889999999999999,11.991655,-5.60195,0.4741,7.940399999999999,S21,G1,Boredom
-22.5346,7.9553,12.7165,-10.9093,-26.896,26.1946,-3.8607,17.8002,1.631,-0.73966,-16.6396,-3.7701,-4.6113,7.6233,-2.2455833333333337,1.5060000000000002,-10.20485,0.44567,6.96975,S21,G1,Boredom
-31.5534,3.0333,4.5452,-13.712,-28.7395,16.2272,-9.0613,9.3248,-5.8752,7.7005,-25.0255,-7.0012,-13.7189,-6.9341,-8.366533333333335,-10.3265,-16.01335,0.9126499999999996,0.1317500000000002,S21,G1,Boredom
-24.2279,3.345,8.7173,-21.2851,-25.5339,12.7838,0.86567,4.3196,-4.0414,5.7572,-30.9322,-4.1114,-14.377,-12.3959,-7.700133333333333,-13.38645,-17.5218,0.8578999999999999,2.592635,S21,G1,Boredom
-9.4394,7.5896,10.6635,-13.5877,-25.4836,17.4495,2.2955,10.4807,-3.3047,-4.9605,-42.4111,1.5681,-19.9347,2.4479,-2.134683333333333,-8.7434,-20.4215,-4.1326,6.3881000000000006,S21,G1,Boredom
5.227,20.4685,12.4934,1.3275,-20.4973,30.5026,1.664,23.9519,-2.6126,4.7214,-38.3842,10.8573,-16.2698,7.9556,8.253616666666666,-4.1571,-13.76345,1.0544,12.80795,S21,G1,Boredom
0.69088,9.8576,6.3111,-3.9621,-32.6013,21.4874,-1.8926,19.2808,-7.8886,7.8949,-39.5389,-3.128,-11.8359,-6.6217,0.2972633333333334,-9.2288,-21.33345,0.0031499999999997,8.694099999999999,S21,G1,Boredom
-13.4506,-4.0692,0.50011,-17.0587,-37.066,9.8264,-1.2853,7.7522,0.98048,1.0014,-30.7458,-9.3611,-7.6685,-12.8666,-10.219665,-10.26755,-20.05345,0.99094,3.23345,S21,G1,Boredom
-26.7435,-9.7515,-8.4199,-18.0107,-34.8416,2.3228,-2.1962,4.324,2.8981,-6.9602,-20.011,-11.7624,-9.1839,-10.1191,-15.9074,-9.6515,-15.8867,-2.0310500000000005,1.0638999999999998,S21,G1,Boredom
-21.1393,0.71063,-4.9512,-15.9425,-31.7635,7.1219,0.89908,11.9666,-4.1912,5.3095,-14.8594,3.0433,-1.7193,-11.4879,-10.993995,-6.6036,-5.90805,0.5591499999999998,6.43284,S21,G1,Boredom
-19.8709,3.6315,-0.70313,-22.888,-27.8827,12.6207,-3.1059,12.2361,-9.8658,8.9419,-27.7968,10.4908,-5.5671,-6.8476,-9.182088333333336,-6.20735,-8.653,-0.4619499999999998,4.5651,S21,G1,Boredom
-21.6417,-6.4639,-7.5759,-21.5152,-16.3322,9.8879,3.9945,6.563,-11.2494,1.4914,-35.019,-3.9672,-19.0617,-1.4977,-10.606833333333332,-10.279699999999998,-19.4931,-4.879,5.27875,S21,G1,Boredom
-20.8374,-13.4839,-14.5292,-20.7176,-11.8945,-1.0767,16.1021,5.6759,-12.0562,3.8712,-32.4237,-10.1494,-8.5342,-13.7552,-13.756550000000002,-11.1447,-21.28655,-4.0925,10.889,S21,G1,Boredom
-30.9455,-22.0582,-9.2127,-21.9433,-21.5526,-1.5058,11.6787,2.8665,-3.9245,13.0231,-31.9595,-3.1197,6.0779,-25.2762,-17.86968333333333,-9.59915,-17.5396,4.5493,7.2726,S21,G1,Boredom
-32.546,-17.2784,-13.1047,-26.0599,-26.6802,9.9438,3.5697,1.2123,-3.1953,8.7845,-28.5607,-2.4388,5.4422,-9.6596,-17.620900000000002,-2.1087,-15.49975,2.7946,2.391,S21,G1,Boredom
-19.2349,-4.8824,-19.7267,-25.9786,-20.6346,12.8044,13.7264,6.5719,-11.3994,-3.1019,-29.3168,-10.6892,1.6584,5.02,-12.942133333333333,3.3392,-20.003,-7.25065,10.14915,S21,G1,Boredom
-16.5981,-0.1442,-26.9384,-23.9256,-16.9264,8.5794,17.349,20.2776,-10.2212,-7.361,-31.0145,0.32443,-1.8979,17.5111,-12.658883333333335,7.806599999999999,-15.345035,-8.7911,18.8133,S21,G1,Boredom
-24.986,-1.6173,-39.4221,-27.9219,-23.3186,5.5954,6.9243,25.7045,-8.1262,-5.4376,-41.5,14.405,-11.1678,21.8932,-18.611750000000004,5.3627,-13.5475,-6.7819,16.3144,S21,G1,Boredom
-28.9201,-1.0265,-42.7123,-25.7538,-30.3162,-3.1371,4.0391,12.8029,-14.0593,-1.6541,-53.11,6.3547,-19.8819,12.1829,-21.977666666666668,-3.849500000000001,-23.37765,-7.8567,8.421,S21,G1,Boredom
-27.1844,2.9866,-41.1376,-20.2571,-28.4968,-5.9119,2.8087,7.0957,-16.1788,1.4082,-55.0852,-3.9041,-28.5661,-2.6481,-20.000200000000003,-15.6071,-29.49465,-7.385299999999999,4.9522,S21,G1,Boredom
-26.0476,-3.6138,-52.7693,-24.4744,-30.2447,-1.1129,1.1585,13.0903,-16.6898,-1.1456,-49.3108,1.7629,-40.9521,-16.5892,-23.043783333333334,-28.770650000000003,-23.77395,-8.9177,7.1244,S21,G1,Boredom
-15.1014,5.9872,-52.2952,-21.5247,-22.9968,2.4112,8.4972,24.6517,-10.2561,-6.5091,-51.7845,9.0654,-24.395,-1.4938,-17.253283333333336,-12.9444,-21.35955,-8.3826,16.57445,S21,G1,Boredom
-10.2434,19.728,-47.1815,-9.3677,-24.5804,1.279,4.0364,22.185,-7.6648,-4.1435,-54.6044,4.5705,-8.8313,12.6958,-11.727666666666666,1.93225,-25.01695,-5.90415,13.1107,S21,G1,Boredom
-20.989,14.8161,-58.4506,-16.2139,-37.2056,-5.2185,-2.6266,7.5196,-9.6746,2.5258,-51.8219,-0.14855,-22.4014,-2.1659,-20.54358333333333,-12.28365,-25.985225,-3.5744,2.4465,S21,G1,Boredom
-20.223,8.4944,-62.5742,-20.6738,-33.7143,-2.4352,10.8658,21.1684,-7.6124,-1.0835,-43.2798,6.2806,-28.9598,4.1624,-21.85435,-12.398700000000002,-18.4996,-4.34795,16.0171,S21,G1,Boredom
-16.5398,10.4544,-63.2645,-18.9387,-27.2457,-0.80781,10.7086,32.4674,-10.6129,-5.4623,-39.2008,0.47152,-17.838,15.272,-19.390351666666664,-1.2830000000000004,-19.36464,-8.0376,21.588,S21,G1,Boredom
-20.9802,-4.2728,-66.8774,-18.2966,-28.0812,-6.1921,4.6333,16.4194,-7.5069,3.2608,-36.3555,-4.9895,-27.1395,0.25567,-24.116716666666665,-13.441915000000002,-20.6725,-2.12305,10.52635,S21,G1,Boredom
-20.7094,-6.2152,-62.8652,-10.2847,-28.3718,-4.8326,6.3299,7.3094,-8.0445,2.0771,-35.1621,2.2239,-33.4136,-13.8597,-22.21315,-23.636650000000003,-16.4691,-2.9837,6.81965,S21,G1,Boredom
-21.4428,8.2577,-66.0069,-9.6677,-30.6206,-1.5791,4.9626,20.9709,-13.4878,-12.1475,-34.0399,0.11446,-17.3088,-11.9924,-20.176566666666663,-14.6506,-16.96272,-12.81765,12.96675,S21,G1,Boredom
-29.5395,3.0465,-73.4057,-18.4709,-30.2646,-3.9541,5.1586,31.7884,-12.1848,-18.555,-36.4423,-13.9924,-2.1703,2.8272,-25.431383333333333,0.3284499999999999,-25.217350000000003,-15.3699,18.4735,S21,G1,Boredom
-20.8527,1.8752,-58.1368,-12.4241,-21.5351,1.2217,12.7511,24.9426,-1.5767,-5.5886,-32.2807,-17.3257,-14.9293,4.8563,-18.308633333333333,-5.0365,-24.803200000000004,-3.58265,18.84685,S21,G1,Boredom
-15.1563,10.159,-62.0564,-15.1355,-26.6624,-2.3084,0.6272,26.9028,-9.8774,-13.6496,-39.7267,-2.1862,-14.5268,3.0832,-18.526666666666667,-5.7218,-20.95645,-11.7635,13.765,S21,G1,Boredom
-10.2968,12.5129,-68.2101,-9.2888,-27.0386,4.7446,-6.3249,28.2522,-16.1993,-16.7816,-42.2826,-1.8327,-3.7781,8.8242,-16.2628,2.52305,-22.05765,-16.490450000000003,10.96365,S21,G1,Boredom
-12.642,3.8597,-60.1669,-5.7684,-25.4168,3.4719,3.9321,17.667,-18.1903,-5.8972,-42.7087,-9.6252,-17.6515,-0.5943,-16.110416666666662,-9.1229,-26.16695,-12.04375,10.79955,S21,G1,Boredom
-8.4258,14.0003,-45.1972,-2.9531,-18.459,-3.1567,17.7962,22.0397,-5.7401,4.8279,-29.7748,5.0523,-11.8757,4.8741,-10.698583333333334,-3.5008,-12.36125,-0.4561000000000001,19.91795,S21,G1,Boredom
-1.4999,14.6411,-56.5853,-4.2576,-16.8577,-6.425,16.4574,25.1626,3.9881,2.069,-19.5921,16.3312,2.9369,17.9155,-11.830733333333336,10.4262,-1.6304499999999995,3.02855,20.81,S21,G1,Boredom
-1.4099,6.8491,-60.327,-7.9532,-19.7973,-3.076,9.543,20.6894,3.7488,4.9084,-22.3676,3.4983,10.885,17.8291,-14.285716666666666,14.35705,-9.43465,4.3286,15.1162,S21,G1,Boredom
-15.4254,4.9554,-54.2391,-8.9577,-32.7094,-2.3972,6.5011,18.9538,-4.8724,-0.81891,-26.4592,-3.1328,-3.8681,6.3871,-18.1289,1.2595,-14.796,-2.845655,12.72745,S21,G1,Boredom
-16.2039,2.1898,-65.0847,-2.9875,-40.3529,-0.77163,12.5314,16.3348,-14.9513,-14.1046,-28.3285,-4.4257,-13.2421,-5.355,-20.53513833333333,-9.29855,-16.3771,-14.52795,14.4331,S21,G1,Boredom
-1.1317,-0.90557,-75.2797,-10.7108,-36.9443,7.1762,9.804,8.4407,-18.0057,-16.2223,-28.6043,-13.0501,-5.5345,-14.9112,-19.632645000000004,-10.22285,-20.8272,-17.114,9.12235,S21,G1,Boredom
6.5664,10.0138,-56.6629,-17.9697,-26.8256,18.5992,5.2652,14.8483,-4.0844,-3.3954,-25.9,-19.1812,-7.177,-15.992,-11.046466666666667,-11.5845,-22.5406,-3.7399,10.05675,S21,G1,Boredom
-5.6811,15.3395,-44.5954,-13.9285,-21.265,4.6422,5.9363,21.8599,-2.8513,-13.0692,-34.2236,-25.9328,-20.8464,-29.1325,-10.914716666666664,-24.98945,-30.0782,-7.96025,13.8981,S21,G1,Boredom
-12.7476,8.9869,-56.0197,-6.672,-29.3724,-6.9956,9.0383,17.091,-10.0876,-22.6559,-33.6514,-20.9196,-21.7939,-41.4846,-17.136733333333332,-31.63925,-27.2855,-16.37175,13.06465,S21,G1,Boredom
-4.0812,2.5211,-60.7838,-15.1617,-36.5006,-0.64937,3.5561,10.139,-4.5442,-9.444,-25.7068,-7.8118,-15.5482,-33.0203,-19.10926166666667,-24.28425,-16.7593,-6.9941,6.84755,S21,G1,Boredom
7.0292,2.3699,-49.2338,-12.277,-27.396,-0.61041,1.3677,9.5307,1.6545,0.012217,-25.1519,-4.3796,-14.6153,-16.9391,-13.353018333333331,-15.7772,-14.76575,0.8333585,5.449199999999999,S21,G1,Boredom
9.0763,8.6484,-42.8225,-0.18013,-20.3195,-6.9945,2.7669,15.3796,-5.8521,-1.4698,-21.173,-2.6346,-2.3781,-1.8227,-8.765321666666667,-2.1004,-11.9038,-3.66095,9.07325,S21,G1,Boredom
8.5326,12.0805,-36.3021,-5.1079,-15.1488,-10.5259,2.6018,18.4078,-2.5375,4.5454,-7.0621,4.438,6.6541,2.1894,-7.745266666666667,4.421749999999999,-1.3120500000000002,1.00395,10.5048,S21,G1,Boredom
5.5505,11.849,-32.6423,-12.2101,-0.90558,-23.9943,3.9265,16.8091,-0.90445,7.7294,-14.0461,10.591,-7.0799,4.5264,-8.725463333333332,-1.2767500000000005,-1.72755,3.412475,10.3678,S21,G1,Boredom
3.7361,11.6327,-30.19,2.6225,13.2488,-35.1238,7.1482,19.2579,-0.35548,3.8084,-24.5627,14.4013,-11.0999,15.615,-5.67895,2.25755,-5.080699999999999,1.72646,13.20305,S21,G1,Boredom
1.0427,-0.42498,-29.8603,16.5651,26.5538,-47.1164,15.1156,4.0024,13.7658,11.9762,-14.6926,5.1409,-3.0257,3.3184,-5.5400133333333335,0.1463499999999999,-4.77585,12.871,9.559,S21,G1,Boredom
-13.1198,-14.4995,-41.403,17.4976,39.0606,-58.3894,14.7024,-10.3378,14.6435,11.7514,-15.2933,-8.5018,4.5637,-10.9807,-11.808916666666669,-3.2085000000000004,-11.89755,13.19745,2.182300000000001,S21,G1,Boredom
-12.0617,-17.3096,-36.45,22.8685,50.817,-68.986,15.3015,-23.8175,14.2586,10.5525,-11.906,4.3551,17.6251,-24.4219,-10.186966666666669,-3.3984000000000005,-3.77545,12.40555,-4.257999999999999,S21,G1,Boredom
2.762,-22.6908,-24.8788,35.5964,61.8679,-78.9469,17.8407,-36.4884,16.8604,16.3392,-6.7468,11.502,14.0979,-8.8566,-4.381699999999999,2.6206499999999995,2.3776,16.599800000000002,-9.32385,S21,G1,Boredom
16.6963,-23.7986,-14.0023,47.5606,72.2559,-88.31,30.8702,-43.5851,18.318,27.7061,0.078258,9.3302,9.7948,5.7748,1.7336499999999997,7.784800000000001,4.704229,23.01205,-6.357449999999998,S21,G1,Boredom
29.7945,-21.8769,-5.7548,51.5728,82.0205,-97.1114,37.6371,-55.07,15.7377,33.452,-0.4202,10.2516,23.3071,-0.0044227,6.440783333333333,11.65133865,4.9157,24.59485,-8.716450000000002,S21,G1,Boredom
35.5892,-20.5643,-9.3605,49.466,78.6569,-105.3848,29.4519,-65.8658,15.7809,25.5179,-3.3585,11.6125,32.009,-9.8812,4.733749999999998,11.0639,4.127000000000001,20.6494,-18.20695,S21,G1,Boredom
25.0572,-25.7512,-17.1947,56.8688,80.3582,-113.1617,34.1046,-65.3229,16.3153,9.8868,-6.6142,3.5066,15.9884,-11.7586,1.0294333333333343,2.1149000000000004,-1.5538,13.10105,-15.609150000000003,S21,G1,Boredom
32.4437,-24.2057,-14.1875,60.3717,84.4268,-95.8051,45.8878,-58.4396,7.4349,4.1328,-2.2659,3.2966,11.8433,-14.0161,7.173983333333332,-1.0864000000000005,0.5153500000000002,5.783849999999999,-6.2759,S21,G1,Boredom
44.5971,-22.7538,-7.4097,48.8469,70.4711,-87.0938,37.208,-61.8477,2.0498,11.7873,-6.0814,4.0868,25.2327,-8.2356,7.776299999999999,8.498550000000002,-0.9973,6.91855,-12.319850000000002,S21,G1,Boredom
46.5889,-13.487,1.9249,52.8301,65.2549,-75.9416,32.0115,-57.1493,6.8658,3.1776,-14.6066,0.87765,25.4228,6.3585,12.861700000000004,15.89065,-6.8644750000000005,5.0217,-12.5689,S21,G1,Boredom
29.6935,-10.7013,-1.1536,49.6608,68.2546,-64.4706,39.9693,-45.8179,9.4169,-4.9156,-5.8277,4.7765,9.7974,12.6196,11.880566666666668,11.2085,-0.5255999999999998,2.25065,-2.9243000000000023,S21,G1,Boredom
13.8119,-24.1593,-15.1844,32.5811,60.7016,-63.0721,37.0769,-55.4161,9.3461,3.7756,-0.045239,3.0081,5.0358,-2.2376,0.7798000000000004,1.3991,1.4814305,6.56085,-9.1696,S21,G1,Boredom
0.68599,-29.3523,-19.9284,20.0327,54.5902,-55.8301,29.4196,-66.1911,11.2546,9.9703,-10.4138,-9.5187,12.1424,-16.2033,-4.966985,-2.030449999999999,-9.96625,10.61245,-18.38575,S21,G1,Boredom
11.5099,-23.6406,-4.6327,24.7572,50.3268,-46.5537,33.5809,-53.552,11.5673,9.3716,-13.7405,-5.9845,3.5118,-20.6148,1.96115,-8.551499999999999,-9.8625,10.46945,-9.98555,S21,G1,Boredom
7.3616,-21.728,-5.1204,26.7286,50.7649,-45.2422,35.0238,-36.2388,7.4155,12.2661,-13.4093,8.4745,-10.7989,-5.2779,2.1274166666666665,-8.0384,-2.4674,9.8408,-0.6074999999999982,S21,G1,Boredom
0.49959,-22.8935,-18.9132,19.693,48.2123,-42.0335,25.5136,-32.3604,6.4773,11.0368,-16.0616,14.6096,-18.7695,-9.1837,-2.572551666666665,-13.9766,-0.7259999999999991,8.75705,-3.423399999999999,S21,G1,Boredom
4.4206,-23.4959,-17.0132,17.523,36.43,-30.6224,26.9463,-32.3948,14.9782,8.3987,-4.2333,5.8301,-3.5434,0.25643,-2.126316666666666,-1.643485,0.7984,11.68845,-2.724249999999998,S21,G1,Boredom
6.6247,-20.6044,-7.5962,19.9293,33.75,-20.3888,25.8237,-26.0059,14.5738,21.9947,10.1207,12.889,10.7692,14.341,1.9524333333333344,12.5551,11.50485,18.28425,-0.0911000000000008,S21,G1,Boredom
9.1902,-8.5031,-7.1409,21.6966,35.6765,-9.2879,18.3469,-12.5925,9.7478,30.7749,9.7363,21.9932,9.086,15.6793,6.9385666666666665,12.38265,15.86475,20.26135,2.877200000000001,S21,G1,Boredom
5.6758,-1.0789,-12.6389,13.4798,28.5969,-8.7306,21.1975,-7.8859,5.2124,14.8284,5.2006,6.845,17.4308,12.7631,4.21735,15.09695,6.0228,10.0204,6.655800000000001,S21,G1,Boredom
2.3722,2.9374,-11.8801,8.7205,22.9296,-6.2318,26.8397,-11.3642,0.9482,0.3816,-1.038,0.50688,24.2865,14.9603,3.1413,19.6234,-0.26556,0.6649,7.73775,S21,G1,Boredom
9.6381,2.2674,-11.6611,9.6785,17.109,8.2421,17.8211,-12.1637,1.3851,13.694,-15.0757,6.8972,8.7294,10.6054,5.879,9.6674,-4.08925,7.53955,2.8287000000000004,S21,G1,Boredom
7.0839,-4.7832,-11.9499,4.1593,10.1564,13.8969,15.7643,-9.4579,9.204,-0.9567,-16.369,-0.43113,-5.8944,10.9566,3.0939,2.5311,-8.400065,4.1236500000000005,3.1532,S21,G1,Boredom
10.1161,2.9121,-3.8246,10.3305,15.9669,8.6183,28.9184,0.49292,19.0235,-8.3076,-1.2868,0.089441,6.8557,21.6585,7.353216666666667,14.2571,-0.5986794999999999,5.357949999999999,14.70566,S21,G1,Boredom
19.3862,-1.2137,-4.5827,4.7712,8.0943,14.0273,25.4301,-2.5001,4.0531,-3.8581,-10.8648,-2.8794,8.4198,9.4935,6.7471000000000005,8.95665,-6.8721000000000005,0.0974999999999999,11.465,S21,G1,Boredom
26.6198,0.34043,-3.8139,11.8932,5.1399,27.2856,25.3865,9.0091,1.3411,0.81816,-18.6087,6.6767,10.3844,15.3446,11.244171666666666,12.8645,-5.965999999999999,1.07963,17.1978,S21,G1,Boredom
10.9226,-1.1613,-13.9569,-0.17969,1.3742,39.7485,17.4426,9.9508,3.7294,-3.6757,-12.0599,5.7823,5.3161,14.9177,6.124568333333333,10.1169,-3.1388000000000003,0.02685,13.6967,S21,G1,Boredom
-3.8328,-0.59784,-6.6987,-14.2689,-8.0925,43.2415,12.9388,1.9446,2.0244,-3.9489,-14.7936,-0.9854,-8.3382,10.5654,1.6251266666666666,1.1136,-7.8895,-0.96225,7.4417,S21,G1,Boredom
0.39639,3.8828,1.1115,-7.2148,-15.0152,44.1042,14.6322,13.1872,-2.5418,-3.2182,-19.3383,0.55594,-4.3806,14.3762,4.544148333333333,4.9978,-9.39118,-2.88,13.9097,S21,G1,Boredom
-3.0832,1.1806,-5.3755,-1.3482,-13.6191,38.9896,19.187,22.7682,0.079931,-4.5059,-9.7817,2.0043,4.279,12.0329,2.7907000000000006,8.15595,-3.8887,-2.2129845,20.9776,S21,G1,Boredom
-6.3555,0.61598,-4.5592,-6.7006,-7.3697,32.2046,21.4931,15.9698,3.5324,-4.7303,4.9052,0.4028,3.528,8.8412,1.30593,6.1846000000000005,2.654,-0.5989499999999999,18.73145,S21,G1,Boredom
-3.9991,0.57902,-0.33463,-11.238,-5.94,30.2723,11.313,5.1336,0.35695,-2.4714,1.8692,2.3537,-3.5982,4.3597,1.5565983333333335,0.3807500000000001,2.11145,-1.057225,8.2233,S21,G1,Boredom
-6.228,1.038,0.18015,-16.9835,-11.0159,28.9506,8.1654,7.2953,-0.15823,0.14753,-12.3429,3.6947,-6.8391,-2.3217,-0.6764416666666667,-4.5804,-4.3241,-0.00535,7.73035,S21,G1,Boredom
-4.373,0.48199,-0.32536,-21.3968,-5.9101,27.7074,14.0962,7.3514,0.34503,-1.3435,-16.269,-2.9478,-1.984,3.2499,-0.6359783333333334,0.6329499999999999,-9.6084,-0.499235,10.7238,S21,G1,Boredom
1.3217,-3.0042,0.18886,-16.6557,8.5445,24.5627,20.6587,3.453,3.7816,1.2068,-7.8846,1.6739,3.5678,17.1549,2.492976666666667,10.361350000000002,-3.10535,2.4942,12.05585,S21,G1,Boredom
0.74859,-3.3177,-9.2067,-17.1386,6.7724,15.6807,16.9485,5.7146,4.0484,2.6157,-10.8687,15.6734,1.8715,30.2256,-1.076885,16.04855,2.40235,3.33205,11.33155,S21,G1,Boredom
0.20945,2.3141,-9.1485,-21.5431,-3.0178,15.2341,8.5238,4.8785,-1.6272,-0.010524,-16.6369,10.5106,11.1435,36.2654,-2.658625,23.70445,-3.0631500000000003,-0.818862,6.70115,S21,G1,Boredom
-0.79111,0.19978,-7.6116,-15.3115,1.1148,15.3071,7.0244,-2.3292,0.44592,-1.9854,-14.6516,-0.98606,24.5749,24.211,-1.1820883333333336,24.39295,-7.81883,-0.7697400000000001,2.3476,S21,G1,Boredom
-1.7307,-4.7512,-15.0574,-12.4173,-0.9276,9.4506,10.5544,-4.164,13.2602,1.0967,-5.87,1.0496,22.8294,8.6584,-4.238933333333332,15.7439,-2.4102,7.17845,3.1952,S21,G1,Boredom
-5.0841,-3.9724,-10.6967,-13.1545,0.60933,5.4253,11.4024,-2.4329,10.9824,0.53719,-0.085542,0.49188,7.3597,-2.949,-4.478845,2.20535,0.203169,5.759795,4.48475,S21,G1,Boredom
-0.33428,0.71074,-10.5487,-11.8714,8.9686,9.5455,3.31,1.1703,-1.0349,-1.9648,-1.5617,-2.0064,3.2376,0.68521,-0.5882566666666665,1.961405,-1.78405,-1.49985,2.24015,S21,G1,Boredom
-0.31423,0.66809,-15.8418,-11.1582,-5.6695,10.9488,-4.7906,5.0511,-0.97283,-3.8219,-14.3086,0.088993,4.0313,6.5711,-3.5611400000000004,5.3012,-7.1098035,-2.397365,0.1302499999999997,S21,G1,Boredom
-5.7281,-5.7923,-7.4835,-3.0809,-7.5277,19.6747,7.8441,14.1309,7.4809,2.8277,-13.9443,4.5289,-1.6433,8.6461,-1.6563,3.5014000000000003,-4.7077,5.1543,10.9875,S21,G1,Boredom
-17.7313,-5.9385,-4.5648,-3.3898,4.2833,23.9274,15.7692,10.8142,5.5507,3.1518,-6.6869,0.79991,0.92499,1.7066,-0.5689500000000004,1.315795,-2.943495,4.35125,13.2917,S21,G1,Boredom
-15.1866,-3.1129,-4.7851,-8.6192,-5.3575,19.0341,9.3903,7.6961,2.7484,0.49339,-7.7683,0.25769,2.3508,3.0859,-3.004533333333334,2.71835,-3.755305,1.620895,8.5432,S21,G1,Boredom
-0.17538,-4.4074,-0.05323,-7.6083,-8.4924,19.3743,7.3456,21.3343,4.0648,3.921,-10.7586,4.6879,0.72845,17.0008,-0.2270683333333328,8.864625,-3.03535,3.9929,14.33995,S21,G1,Boredom
7.4667,-0.68619,-2.5193,-4.6825,5.352,22.6561,19.2522,28.6724,0.36412,5.1675,-7.6438,4.9,6.117,27.5623,4.597801666666666,16.83965,-1.3718999999999997,2.76581,23.9623,S21,G1,Boredom
2.0797,6.269,-6.3196,-7.3646,-0.89567,19.3212,22.0476,17.0745,-4.5967,-4.0325,-10.1482,-6.2591,9.7015,11.8086,2.181671666666667,10.75505,-8.20365,-4.3146,19.56105,S21,G1,Boredom
6.8934,9.8439,2.95,-3.9592,-5.7814,23.1014,10.8477,22.9646,-3.3334,-4.7781,-9.5393,-2.9201,16.0339,-2.9999,5.508016666666666,6.517,-6.2297,-4.05575,16.90615,S21,G1,Boredom
13.3948,-0.62428,5.7361,-9.6482,6.419,22.7033,7.2338,24.5506,-0.16944,1.4351,-3.0404,1.2057,17.0474,11.2801,6.33012,14.16375,-0.91735,0.63283,15.8922,S21,G1,Boredom
9.1339,-2.0681,-0.040396,-11.539,10.4786,17.8839,13.2196,8.9776,4.2855,-1.1207,-1.3767,-5.2865,7.6283,5.4429,3.9748173333333336,6.5356000000000005,-3.3316,1.5823999999999998,11.0986,S21,G1,Boredom
3.1531,-3.4258,-6.4583,-9.3649,-3.4849,24.2186,10.9446,4.7584,2.5466,0.42825,-2.7758,2.4385,1.7378,0.67107,0.7729666666666665,1.204435,-0.1686499999999999,1.487425,7.8515,S21,G1,Boredom
3.9519,-15.0728,-10.0222,-18.6806,-5.2513,32.6431,11.2759,18.5729,0.41832,9.2926,-1.6213,14.1457,2.6215,14.7308,-2.071983333333334,8.67615,6.2622,4.85546,14.9244,S21,G1,Boredom
2.2325,-12.6871,-10.9022,-19.042,-2.4665,31.1782,9.1181,23.6079,-0.10054,5.2778,-4.9813,6.8762,1.97,17.0328,-1.9478500000000007,9.5014,0.94745,2.58863,16.363,S21,G1,Boredom
-0.37068,1.4079,-7.7797,-14.4417,-12.6907,30.7893,3.1373,12.8076,-0.58874,-4.4227,-8.1401,-3.9086,10.2481,3.6635,-0.514263333333334,6.9558,-6.02435,-2.50572,7.97245,S21,G1,Boredom
0.63954,4.2874,-7.3125,-16.5392,-19.8308,30.9174,1.962,22.9042,-3.5164,-7.1213,-9.6272,-4.6611,21.4858,9.3702,-1.3063600000000004,15.428,-7.14415,-5.318849999999999,12.4331,S21,G1,Boredom
6.5277,1.0672,-8.8492,-11.5954,-13.702,34.0014,7.7708,31.4084,-5.281,-2.7425,-11.0242,-0.42996,7.3565,10.7835,1.2416166666666666,9.07,-5.72708,-4.01175,19.5896,S21,G1,Boredom
1.1975,2.9782,-8.3183,-3.9851,-4.9778,37.8874,9.2796,29.523,-3.9766,-4.553,-13.3262,-7.3187,-2.9629,8.1605,4.130316666666666,2.5988000000000007,-10.32245,-4.2648,19.4013,S21,G1,Boredom
-1.8378,4.7755,-7.8192,0.205,1.2478,38.5776,0.82175,37.6296,-3.738,-8.2308,-13.5142,-13.7941,10.0564,18.5374,5.858149999999999,14.2969,-13.65415,-5.9844,19.225675000000003,S21,G1,Boredom
0.24746,-0.45055,-14.2645,-12.6488,6.1105,42.189,-4.167,38.3353,-3.5137,-5.762,-12.7042,-7.0404,7.477,11.4981,3.530518333333333,9.48755,-9.8723,-4.63785,17.084149999999998,S21,G1,Boredom
-4.2126,-2.8928,-17.8539,-25.9899,6.2381,46.078,-3.4237,28.6265,-1.8211,-3.9345,-16.3863,-0.19766,-7.0716,-1.539,0.227816666666668,-4.3053,-8.291979999999999,-2.8778,12.6014,S21,G1,Boredom
-0.99591,5.1833,-8.8802,-18.7263,-4.0137,45.2897,-1.2418,27.8969,-4.6749,-5.6739,-18.3661,3.7657,-9.8336,12.6533,2.976148333333334,1.4098499999999996,-7.3002,-5.1744,13.32755,S21,G1,Boredom
-0.44286,3.3905,-8.8416,-8.2189,-8.2181,41.0906,-0.67405,30.6683,-10.8156,-9.7787,-12.8199,2.058,-2.8233,19.0305,3.1266066666666674,8.1036,-5.38095,-10.29715,14.997125,S21,G1,Boredom
-14.5163,-7.1847,-9.7924,-19.0851,-0.31675,41.0949,5.7872,31.298,-2.7584,-5.7348,-3.654,-6.4613,-3.1472,11.4688,-1.633391666666667,4.1608,-5.05765,-4.2466,18.5426,S21,G1,Boredom
-27.7453,-20.5821,-14.1438,-32.04,-2.2733,24.7997,12.354,15.3201,1.3586,-4.4027,-13.3132,-18.9146,-0.98329,-3.3193,-11.997466666666668,-2.151295,-16.1139,-1.52205,13.83705,S21,G1,Boredom
-26.5248,-20.8285,-10.8255,-21.4503,-8.5567,9.2117,9.1439,4.3005,-2.1802,-0.68127,-23.8727,-18.2735,11.4235,-17.2201,-13.162349999999998,-2.898299999999999,-21.0731,-1.430735,6.722200000000001,S21,G1,Boredom
-11.1047,-5.4788,-8.2004,-19.1753,-11.9948,14.3637,3.6563,18.1425,-3.0374,0.3476,-22.4409,-21.1277,9.7501,-14.1628,-6.9317166666666665,-2.2063500000000005,-21.7843,-1.3449,10.8994,S21,G1,Boredom
-6.4874,0.5055,-10.671,-29.8779,-14.2376,26.3425,9.3639,25.6721,-0.87915,-4.6118,-14.1799,-19.86,3.239,0.787,-5.73765,2.013,-17.01995,-2.745475,17.518,S21,G1,Boredom
-6.5919,0.96893,-12.5004,-20.6769,-25.7311,29.2067,5.3439,28.5765,-7.2472,-6.8048,-5.9208,-4.5684,5.5135,13.8031,-5.887445,9.6583,-5.2446,-7.026,16.9602,S21,G1,Boredom
-18.5442,2.3921,-23.1097,-17.955,-38.2872,22.022,-9.0768,33.2827,-18.1716,-17.7558,-19.6656,-5.5537,1.7254,10.5052,-12.247,6.1153,-12.60965,-17.963700000000003,12.10295,S21,G1,Boredom
-15.9498,8.6688,-19.2539,-22.3105,-26.829,29.0969,-16.1627,43.633,-11.6486,-15.2087,-30.0672,-10.6533,-0.8474,23.9749,-7.762916666666665,11.56375,-20.36025,-13.42865,13.73515,S21,G1,Boredom
-9.0663,1.2347,-14.1481,-33.8119,-21.2678,25.3756,-6.303,34.1,-11.9376,-13.3092,-21.3492,-11.9896,-3.7596,14.8572,-8.613966666666668,5.5488,-16.6694,-12.6234,13.8985,S21,G1,Boredom
-1.6073,0.17259,-2.4332,-25.8567,-19.9922,20.8891,5.9287,34.0295,-8.2574,-8.5591,-19.0802,-5.3437,10.2945,2.1131,-4.804618333333333,6.203799999999999,-12.211950000000002,-8.40825,19.9791,S21,G1,Boredom
1.4522,5.1012,-0.3117,-18.3788,-16.8162,28.5267,5.5735,36.9268,-2.823,-1.1306,-22.8744,-2.0591,15.6034,13.8399,-0.0710999999999995,14.72165,-12.46675,-1.9768,21.25015,S21,G1,Boredom
-7.0312,7.2644,-14.393,-27.6474,-24.2035,21.3814,-4.1456,24.3399,-10.0623,-5.508,-23.9712,-9.3443,2.3199,5.6007,-7.438216666666666,3.9603,-16.65775,-7.78515,10.09715,S21,G1,Boredom
-12.5354,17.6941,-19.6787,-27.9645,-34.6043,5.9985,-10.8105,13.9899,-16.3731,-15.0555,-24.5089,-13.7222,-3.7453,-8.5643,-11.84838333333333,-6.1548,-19.11555,-15.7143,1.5897000000000006,S21,G1,Boredom
-1.9057,16.6329,-16.5225,-26.2862,-38.4546,12.8246,-15.1009,16.1136,-16.3778,-14.1517,-26.0014,-5.9848,-5.4961,-11.0135,-8.951916666666667,-8.2548,-15.9931,-15.26475,0.5063500000000012,S21,G1,Boredom
12.3086,9.7079,-10.5926,-24.7099,-25.2827,26.1551,-7.2812,26.0123,-17.3711,-10.3401,-24.4413,-1.6747,-4.1788,3.7473,-2.0689333333333333,-0.2157499999999999,-13.058,-13.8556,9.36555,S21,G1,Boredom
-2.5299,15.0525,-10.9446,-29.1534,-24.7533,18.3878,-7.8319,17.537,-22.2558,-18.6092,-21.9873,-14.4148,-3.9281,17.0796,-5.656816666666667,6.575749999999999,-18.20105,-20.4325,4.852549999999999,S21,G1,Boredom
-16.4781,6.7406,-24.3879,-31.8494,-36.6029,3.1846,-17.7333,8.0885,-16.4752,-14.0359,-6.5681,-17.9951,-2.2107,1.9548,-16.565516666666664,-0.12795,-12.2816,-15.25555,-4.8224,S21,G1,Boredom
-12.7492,-2.5544,-19.1959,-15.8385,-21.5662,13.6358,-2.8412,21.7032,-1.3867,0.90628,7.926,-2.8154,2.8605,-8.2628,-9.711399999999998,-2.70115,2.5553,-0.24021,9.431,S21,G1,Boredom
-4.5755,-4.8694,-12.6114,-19.6044,-21.753,10.3483,-1.188,23.5868,-2.0687,-9.7904,-6.6496,-10.3262,-1.7564,0.62923,-8.844233333333333,-0.563585,-8.4879,-5.92955,11.1994,S21,G1,Boredom
-3.313,9.5227,-0.0021435,-13.4891,-24.3993,17.6299,1.8463,25.1347,-7.8711,-3.2764,-17.3866,-14.6456,12.449,7.5055,-2.3418239166666672,9.97725,-16.0161,-5.57375,13.4905,S21,G1,Boredom
-0.15164,20.533,-9.8791,-14.6548,-29.8494,29.4127,-3.203,30.5411,-10.3623,-2.0923,-21.2829,-8.8274,6.4921,-2.8219,-0.7648733333333327,1.8351,-15.05515,-6.2273,13.66905,S21,G1,Boredom
13.9575,19.3015,-6.3233,-12.7875,-25.0949,33.5754,-3.0113,42.8086,-14.6787,-8.8808,-23.9565,3.5557,-0.81148,11.4474,3.77145,5.31796,-10.200399999999998,-11.77975,19.89865,S21,G1,Boredom
23.2208,19.6242,2.4523,-13.503,-18.1565,26.1272,-5.2999,40.4629,-19.2316,-10.8172,-27.9519,-3.0788,2.694,24.8606,6.6275,13.7773,-15.51535,-15.0244,17.5815,S21,G1,Boredom
18.3703,24.8675,3.7865,-4.296,-6.6953,30.9803,0.45133,41.4924,-7.706,-0.7849,-13.9279,-11.2899,13.8916,12.949,11.168883333333332,13.4203,-12.608899999999998,-4.24545,20.971865,S21,G1,Boredom
5.4146,27.326,-8.2933,-3.0512,-12.2211,26.1585,7.3383,42.9534,3.6224,-3.7008,-4.2022,-19.5025,8.1191,3.282,5.888916666666667,5.70055,-11.85235,-0.0392000000000001,25.145850000000003,S21,G1,Boredom
0.64445,26.1807,-12.2409,-7.3125,-17.9081,19.1562,4.4278,37.9069,4.8858,-2.9855,-6.4194,-15.8631,2.1992,5.5544,1.4199749999999998,3.8768,-11.14125,0.9501499999999998,21.16735,S21,G1,Boredom
2.088,19.1775,-12.0002,-10.331,-17.3273,24.4276,-1.2702,31.1877,0.14792,-0.33662,-12.455,-2.5645,4.537,0.77634,1.005766666666667,2.65667,-7.50975,-0.0943499999999999,14.95875,S21,G1,Boredom
-0.50655,14.5692,-13.7495,-11.1929,-14.806,26.4187,2.2638,31.7857,2.6093,-1.7982,-9.2384,7.9616,6.7341,-4.703,0.1221583333333337,1.0155499999999995,-0.6384000000000003,0.4055500000000001,17.024749999999997,S21,G1,Boredom
4.9561,16.1647,-13.4183,-2.1255,-10.4608,27.3033,13.4863,35.3118,8.8725,5.718,-8.1903,6.9892,9.7873,9.6792,3.736583333333333,9.73325,-0.6005500000000001,7.29525,24.39905,S21,G1,Boredom
8.6103,12.2318,-12.6137,-5.9485,-11.8082,16.7751,15.6411,22.3281,4.3896,6.3629,-20.539,-7.5302,8.213,14.2593,1.2078,11.23615,-14.0346,5.37625,18.9846,S21,G1,Boredom
3.1542,14.4605,-9.8809,-9.5426,-12.0877,1.6686,13.7142,14.0729,8.0763,6.9686,-12.3931,-12.733,11.6703,-0.69628,-2.037983333333333,5.48701,-12.56305,7.52245,13.89355,S21,G1,Boredom
3.4587,17.0501,-11.7577,1.4008,-9.8812,2.3332,13.3851,27.3285,5.1229,3.0933,-5.2288,-10.4877,11.4638,-14.7545,0.4339833333333336,-1.6453499999999996,-7.85825,4.1081,20.3568,S21,G1,Boredom
17.3512,28.8686,-1.1743,8.2322,-1.3853,16.2932,22.4609,39.7888,4.8156,0.93263,-9.8536,-6.8949,19.6665,-10.8566,11.364266666666666,4.40495,-8.37425,2.874115,31.12485,S21,G1,Boredom
18.5084,28.6173,0.37794,-4.609,-6.7354,21.4649,20.619,39.8226,7.9834,4.3335,-10.7441,-9.938,17.9923,-17.614,9.604023333333334,0.1891499999999997,-10.34105,6.15845,30.2208,S21,G1,Boredom
8.0141,14.553,-13.7447,-6.8027,-15.7151,13.7568,12.9607,29.037,2.0716,8.5187,-2.6917,-7.8609,4.5655,-19.0264,0.0102333333333334,-7.230449999999999,-5.2763,5.2951500000000005,20.99885,S21,G1,Boredom
12.9665,23.0641,-11.6611,4.9647,-8.3519,21.3271,10.7017,32.728,-6.4484,3.5628,-2.0364,-7.883,3.7978,-3.7848,7.051566666666667,0.0064999999999999,-4.9597,-1.4428,21.71485,S21,G1,Boredom
10.7072,35.7802,-2.5656,5.1616,-8.3441,20.5422,6.6024,41.1361,-3.5918,-2.0842,-7.3465,-4.9403,10.9791,10.5423,10.213583333333334,10.7607,-6.1434,-2.838,23.86925,S21,G1,Boredom
-0.80122,37.8067,-6.3632,-9.2481,-18.709,20.2967,2.2557,49.533,2.5502,1.0048,-5.9177,9.1847,10.3199,24.0097,3.830313333333333,17.1648,1.6334999999999995,1.7775,25.89435,S21,G1,Boredom
-5.6921,21.4383,-17.834,-14.3493,-20.5499,26.9814,2.1199,49.524,-0.56581,-0.04346,-7.5382,14.5601,2.7867,36.6692,-1.667599999999999,19.72795,3.51095,-0.304635,25.82195,S21,G1,Boredom
-10.2892,6.052,-30.8639,-15.4633,-14.3784,11.2625,-9.8604,39.6381,-3.4954,-4.9803,-7.0859,9.7355,6.5695,44.2488,-8.946716666666667,25.40915,1.3248000000000002,-4.23785,14.88885,S21,G1,Boredom
-13.1286,1.787,-31.2104,-8.1153,-3.1439,-3.5132,-13.713,33.803,6.0981,0.7522,4.6981,10.6331,20.2754,27.4938,-9.554066666666666,23.8846,7.6656,3.42515,10.044999999999998,S21,G1,Boredom
-0.48783,10.5693,-18.4722,1.2612,9.8858,-17.4024,-4.0007,22.8843,0.79278,5.6456,1.4527,15.9212,28.1716,11.7442,-2.441021666666667,19.9579,8.68695,3.21919,9.4418,S21,G1,Boredom
13.6414,10.9227,-9.4619,9.0876,23.3926,-30.4583,10.3393,7.4113,-4.1933,11.2329,-6.5365,21.8804,17.5918,25.1396,2.854016666666668,21.3657,7.671950000000001,3.5198000000000005,8.8753,S21,G1,Boredom
2.1793,-2.0795,-14.3274,8.0486,36.0891,-42.7308,23.819,-7.1334,9.3935,15.9912,1.264,14.1478,12.0915,21.9276,-2.1367833333333337,17.00955,7.7059,12.69235,8.3428,S21,G1,Boredom
-12.0515,-16.0547,-27.5677,0.65113,48.0237,-54.2669,8.2898,-20.8054,10.805,13.0567,5.1392,-0.8011,6.4266,6.5119,-10.210995,6.46925,2.16905,11.93085,-6.2578,S21,G1,Boredom
-6.1175,-24.697,-18.7277,14.7121,59.2423,-65.1109,14.9293,-33.6571,22.0102,26.3733,17.6718,7.4204,20.141,-7.9788,-6.783116666666666,6.081099999999999,12.5461,24.19175,-9.3639,S21,G1,Boredom
-1.3061,-31.6115,-13.1588,27.8802,69.7878,-75.3043,19.4653,-45.7377,19.2078,20.0742,15.1298,8.456,31.9959,-17.3289,-3.9521166666666665,7.333499999999999,11.7929,19.641,-13.1362,S21,G1,Boredom
7.6627,-32.6773,-3.4797,27.1959,72.1458,-84.886,17.3108,-57.0934,29.9084,20.8458,20.149,8.9371,25.1376,-30.3892,-2.339766666666667,-2.6258,14.54305,25.3771,-19.8913,S21,G1,Boredom
20.5378,-31.2109,-5.7402,37.9114,70.2863,-93.8928,12.8145,-67.7678,28.6081,21.0768,17.4583,10.8702,21.16,-33.7272,-0.3513999999999981,-6.283600000000002,14.16425,24.84245,-27.47665,S21,G1,Boredom
28.1951,-38.2288,-14.2854,39.5877,75.9471,-102.3593,10.0696,-75.1369,12.7916,5.7122,5.5453,5.2794,16.9269,-17.6035,-1.857266666666668,-0.3383000000000002,5.41235,9.2519,-32.53365,S21,G1,Boredom
38.3573,-35.9341,-7.5012,42.151,78.3048,-99.1593,16.3809,-74.5787,0.44207,0.70187,2.25,-0.9634,8.0102,-10.8918,2.703083333333334,-1.4408000000000003,0.6433,0.57197,-29.0989,S21,G1,Boredom
27.1654,-29.827,-9.0271,39.6219,65.7045,-93.2097,8.4835,-68.129,1.4031,2.6357,1.1265,-5.8451,0.61511,-12.2142,0.0713333333333328,-5.799545,-2.3593,2.0194,-29.822750000000003,S21,G1,Boredom
11.4355,-21.1234,-5.5225,47.1221,75.8622,-74.7761,10.9375,-49.9412,15.4189,6.4281,15.1589,8.6056,14.6782,-4.5664,5.499633333333333,5.0559,11.88225,10.9235,-19.50185,S21,G1,Boredom
0.15574,-25.7825,-10.1301,45.2828,78.9406,-62.3875,15.2203,-32.8448,24.1008,10.9814,28.3494,18.6839,27.3546,-1.3294,4.346506666666667,13.0126,23.51665,17.5411,-8.812249999999999,S21,G1,Boredom
13.4807,-21.7668,-11.9911,35.1576,60.1042,-54.2,17.7634,-33.8867,10.307,13.7798,15.7347,5.2151,16.3291,12.8504,3.4641,14.58975,10.4749,12.0434,-8.061649999999998,S21,G1,Boredom
26.7719,-18.979,-9.7899,18.9481,46.8923,-56.3803,14.2283,-45.1874,-4.4114,2.5817,0.69065,4.4089,14.8561,24.6485,1.2438500000000008,19.7523,2.549775,-0.9148500000000002,-15.479549999999998,S21,G1,Boredom
30.3269,-20.8033,-9.203,12.6499,44.0783,-47.0709,5.4731,-43.4641,-1.406,-2.5122,-7.4756,13.0334,12.9767,9.0696,1.662983333333333,11.02315,2.7789,-1.9591,-18.9955,S21,G1,Boredom
23.5683,-12.641,-14.5773,18.805,45.3841,-30.1467,12.0587,-29.0037,5.5924,8.5036,-11.9661,7.3124,7.2591,15.7109,5.0654,11.485,-2.3268500000000003,7.048,-8.4725,S21,G1,Boredom
19.1911,-9.9071,-3.8252,20.6397,54.5146,-22.6833,25.4352,-25.288,12.1718,22.0934,-8.2851,5.8866,3.8605,11.8052,9.654966666666668,7.83285,-1.19925,17.1326,0.073599999999999,S21,G1,Boredom
6.1862,-18.2027,-3.5961,11.4997,49.2682,-30.2118,17.7111,-35.6233,15.3921,13.5823,3.078,10.4724,0.66587,-3.0031,2.490583333333333,-1.168615,6.7752,14.4872,-8.956100000000001,S21,G1,Boredom
-5.5438,-13.6528,-13.7516,7.353,39.8918,-14.2991,9.2406,-32.9916,20.8898,4.3711,6.3501,9.3499,4.0827,-4.0332,-0.0004166666666656,0.02475,7.85,12.63045,-11.8755,S21,G1,Boredom
6.1476,-3.4498,-12.4323,17.2831,38.9801,0.65885,14.119,-16.9121,19.1421,12.5051,-6.3782,4.3436,2.356,6.5801,7.864591666666667,4.46805,-1.0172999999999996,15.8236,-1.3965499999999995,S21,G1,Boredom
16.1505,-1.7616,-10.2051,15.7523,28.2445,3.5342,14.7531,-9.2553,4.6583,5.334,-17.3548,-2.3368,-11.8854,2.728,8.619133333333332,-4.5787,-9.8458,4.99615,2.7489,S21,G1,Boredom
15.6753,-2.1496,-8.1106,8.3865,23.0926,13.6929,11.3982,-4.2552,3.8851,-8.3203,-2.9782,-2.6913,-22.7543,0.09458,8.431183333333333,-11.32986,-2.83475,-2.2176,3.5714999999999995,S21,G1,Boredom
15.7223,-3.0082,-18.4895,1.9563,16.7685,6.9453,1.8247,-12.8894,1.6769,-11.7721,5.1025,-6.4808,-7.2891,-5.8371,3.315783333333333,-6.5631,-0.6891500000000002,-5.0476,-5.53235,S21,G1,Boredom
28.8789,11.0004,-19.3561,9.7409,10.8239,9.4921,2.7028,-12.1161,-0.39965,-7.1148,-6.0692,-8.067,7.2483,-10.4255,8.430016666666667,-1.5885999999999996,-7.0681,-3.757225,-4.70665,S21,G1,Boredom
35.7652,16.2678,-9.3047,5.2059,7.2114,23.0226,6.4921,0.46442,3.5758,-8.6634,-3.7295,-6.595,-7.2866,-10.7879,13.028033333333331,-9.03725,-5.16225,-2.5438,3.47826,S21,G1,Boredom
19.5193,2.944,-10.2277,-8.4417,-3.593,20.8751,2.6453,-4.9967,7.806,-11.6009,7.8536,-4.718,-20.9494,-7.6718,3.5126666666666666,-14.3106,1.5678,-1.89745,-1.1756999999999995,S21,G1,Boredom
10.7171,5.2371,-16.0348,-1.5144,-8.8097,19.1297,0.016861,-2.2271,1.9054,-6.46,-1.0135,-0.9777,-16.729,6.8885,1.4541666666666666,-4.920249999999999,-0.9956,-2.2773,-1.1051195,S21,G1,Boredom
16.4944,11.3432,-14.5785,-7.8439,-10.7514,32.082,-5.4169,7.2903,-11.5447,-7.5542,-15.0526,-6.3518,-4.3659,20.5752,4.457633333333333,8.10465,-10.7022,-9.54945,0.9367,S21,G1,Boredom
20.9379,3.2543,0.39624,-13.794,-10.6,35.8116,0.34133,2.4081,-4.4312,-9.5707,-17.8291,-8.4404,-10.5247,5.2406,6.001006666666666,-2.64205,-13.13475,-7.00095,1.374715,S21,G1,Boredom
16.7177,10.9606,9.4843,1.1337,-2.0615,23.7854,13.161,-6.6264,8.6757,-5.0449,-6.8827,0.95601,-18.7833,-0.778,10.003366666666665,-9.78065,-2.963345,1.8154000000000003,3.2673,S21,G1,Boredom
10.7761,15.2425,-0.9618,-1.1808,-1.9379,17.4197,-0.46927,2.6607,6.1801,-4.7422,-2.5178,-2.0648,-15.6803,-8.6324,6.559633333333333,-12.15635,-2.2913,0.71895,1.095715,S21,G1,Boredom
4.203,0.22791,-11.7701,-15.21,-11.6991,13.4115,-14.5411,16.3296,-3.0807,-9.3967,-3.3547,-15.7695,-5.8495,-22.2145,-3.472798333333333,-14.032,-9.5621,-6.2387,0.8942499999999995,S21,G1,Boredom
2.9628,-8.4043,-9.0874,-10.0754,-9.0217,25.4469,-8.4582,18.3138,0.067134,-3.8939,-2.1654,-7.9084,5.3666,-9.7451,-1.3631833333333343,-2.1892500000000004,-5.0369,-1.913383,4.9278,S21,G1,Boredom
-0.67219,-4.4428,-11.0129,-17.8667,-2.0606,28.3649,-9.4329,3.8797,5.4954,-5.1425,-4.5053,-1.014,8.5018,-3.7281,-1.2817150000000008,2.38685,-2.75965,0.17645,-2.7766,S21,G1,Boredom
0.35613,3.7253,-7.3881,-16.7942,5.9656,15.7979,-1.952,0.68391,8.1296,3.0686,-3.247,1.0223,8.9797,-10.4185,0.277105,-0.7194000000000003,-1.11235,5.5991,-0.634045,S21,G1,Boredom
3.792,0.045469,-12.3771,-12.3293,-1.7997,0.75007,4.5859,1.1366,0.23359,6.3417,-17.1521,-5.4588,1.0327,-13.2497,-3.6530935,-6.1085,-11.30545,3.2876450000000004,2.86125,S21,G1,Boredom
16.8993,-4.4025,-12.1287,-19.9858,3.7401,2.9515,0.85302,3.5377,0.71287,-3.4226,-24.7421,-8.589,2.4524,-4.0594,-2.15435,-0.8035000000000001,-16.66555,-1.354865,2.19536,S21,G1,Boredom
17.3671,-1.6691,-5.9682,-22.2434,8.9485,6.2322,-4.6309,5.7947,-2.7867,-7.6615,-17.8238,-6.5919,6.7505,-0.35901,0.4445166666666664,3.195745,-12.20785,-5.2241,0.5819000000000001,S21,G1,Boredom
12.8673,2.8763,-2.1534,-6.8088,1.0038,3.389,3.0557,15.8193,-6.0763,-1.77,-11.3226,-1.7512,5.8513,12.0098,1.8623666666666667,8.93055,-6.5369,-3.92315,9.4375,S21,G1,Boredom
18.5165,8.1365,-7.4569,6.1684,-1.5267,2.6914,5.3416,18.3269,-2.2549,-5.1206,-13.1125,-4.1154,7.9695,18.697,4.4215333333333335,13.33325,-8.61395,-3.68775,11.83425,S21,G1,Boredom
11.9728,1.2271,-12.4423,-7.5365,8.9372,3.0242,0.57586,5.8675,-2.6138,-10.2461,-11.8315,-12.2647,1.071,3.4752,0.8637500000000001,2.2731,-12.0481,-6.42995,3.22168,S21,G1,Boredom
-2.5746,-6.7486,-3.7937,-9.0594,16.303,2.8427,14.6413,-1.3981,9.396,0.24665,1.719,-9.5538,-8.8712,-10.8333,-0.5050999999999995,-9.85225,-3.9174,4.821325000000001,6.6216,S21,G1,Boredom
-1.9259,-10.788,-2.0834,-7.0341,10.8795,4.1539,24.8507,-1.8084,16.241,3.6886,8.037,-5.5228,5.761,-13.591,-1.1329999999999998,-3.915,1.2571000000000003,9.9648,11.52115,S21,G1,Boredom
3.1282,-7.1781,-7.8854,-7.6005,9.2393,7.8557,10.5191,-3.6759,7.3645,3.4673,3.6029,-12.106,19.5154,-15.7395,-0.4067999999999998,1.88795,-4.25155,5.4159,3.4216,S21,G1,Boredom
-2.4923,-1.3147,-3.9555,-9.6137,5.2272,7.8776,5.4427,-4.9362,6.4284,3.7535,5.856,-13.8489,7.9245,-23.1909,-0.7119000000000001,-7.633199999999999,-3.99645,5.090949999999999,0.25325,S21,G1,Boredom
-1.3548,-4.1988,3.1959,-9.0364,0.963,7.4054,10.0551,-0.68945,9.0057,-1.4107,5.5051,-7.0914,-6.651,-7.6994,-0.5042833333333337,-7.1752,-0.7931500000000002,3.7975,4.682824999999999,S21,G1,Boredom
2.1838,-7.4042,-2.4282,-8.9889,3.374,10.4184,8.9581,-0.15433,2.0456,0.15522,-8.9252,-10.1232,3.4028,-3.0637,-0.4741833333333331,0.1695500000000001,-9.5242,1.10041,4.401885,S21,G1,Boredom
-1.4045,0.44837,-13.6418,-18.8204,-2.2607,11.2745,-2.9387,1.3362,-6.4739,-5.2864,-17.0083,-10.0096,7.6434,-16.9799,-4.067421666666666,-4.6682500000000005,-13.50895,-5.88015,-0.8012499999999999,S21,G1,Boredom
1.149,10.7928,-4.4279,-15.2219,-0.64333,8.1288,-9.1836,15.356,-3.6162,-5.4634,-5.6165,-1.0137,-5.1624,-5.8126,-0.0370883333333331,-5.4875,-3.3151,-4.5398,3.0862,S21,G1,Boredom
-0.89541,-1.7083,-0.21077,-9.3696,5.3218,9.6166,-7.6446,2.8044,-5.3747,-6.1236,-11.206,-11.8179,-18.6813,8.6362,0.4590533333333333,-5.02255,-11.51195,-5.74915,-2.4201,S21,G1,Boredom
0.1463,1.3581,-2.1736,-10.783,7.9655,23.1396,-1.2594,3.6241,0.87523,-1.8047,-10.5332,-15.0594,-4.7193,2.9085,3.2754833333333337,-0.9053999999999998,-12.7963,-0.464735,1.18235,S21,G1,Boredom
-3.3202,7.6969,-4.5125,-16.5563,2.0548,31.8511,1.2864,17.5067,6.2555,0.77283,1.4576,-11.6866,9.6638,-11.366,2.8689666666666667,-0.8510999999999997,-5.1145000000000005,3.514165,9.39655,S21,G1,Boredom
-12.5043,-2.1482,-10.6625,-10.1306,1.4378,15.84,0.71448,8.2828,6.3739,1.2202,1.8639,-11.4791,17.703,-24.784,-3.027966666666666,-3.5405,-4.807600000000001,3.79705,4.49864,S21,G1,Boredom
-8.2973,-4.4886,-17.4305,-7.0535,-2.1053,18.1245,-2.7852,-3.573,13.3993,-0.33474,-5.6557,-2.3951,11.2081,-11.3953,-3.541783333333333,-0.0936000000000003,-4.0254,6.53228,-3.1791,S21,G1,Boredom
-15.701,-2.2437,-13.4217,-12.5568,-11.8565,27.9021,-1.6301,10.7414,12.5958,-2.2902,0.61014,2.6877,14.4861,3.3884,-4.646266666666667,8.93725,1.64892,5.1528,4.55565,S21,G1,Boredom
-25.6245,-2.1091,-18.5424,-14.7669,-21.0231,21.2895,-0.54475,24.1969,0.97451,-1.1643,5.5121,-10.3142,12.6295,0.93817,-10.129416666666666,6.783835,-2.40105,-0.0948949999999999,11.826075,S21,G1,Boredom
-12.7277,9.3758,-23.8506,-11.4111,-13.341,22.4809,0.96921,18.7445,3.3848,0.38684,-1.2394,-9.2016,-2.2283,-6.5264,-4.912283333333334,-4.37735,-5.2205,1.88582,9.856855,S21,G1,Boredom
-11.9645,18.6917,-21.4316,-13.6895,-9.5775,24.096,-2.052,15.6443,6.1457,-5.5629,-10.0541,-2.7229,-16.1946,7.9652,-2.312566666666667,-4.114700000000001,-6.3885000000000005,0.2913999999999999,6.79615,S21,G1,Boredom
-20.1362,8.6797,-18.1697,-17.8067,-9.9904,24.6262,2.0222,19.6451,9.728,-3.2531,2.4022,-5.5231,-13.1983,12.1553,-5.466183333333333,-0.5214999999999996,-1.56045,3.23745,10.83365,S21,G1,Boredom
-13.9895,-3.6941,-25.97,-21.6777,-16.3055,21.1727,-6.9887,17.4789,4.2058,-0.095395,2.258,-7.1667,1.6936,-2.674,-10.07735,-0.4901999999999999,-2.45435,2.0552025,5.2451,S21,G1,Boredom
-4.2596,2.4545,-25.3994,-18.4011,-27.1802,18.9148,-13.4839,17.4177,-6.9121,-4.0407,-10.718,3.1404,2.3085,9.6105,-8.978499999999999,5.9595,-3.7888,-5.4764,1.9669,S21,G1,Boredom
-5.4858,8.7275,-13.5041,-21.7423,-28.0186,20.2492,1.4251,14.8909,-4.0281,-6.2675,-12.5451,12.3357,-3.2627,23.1338,-6.629016666666668,9.93555,-0.1047000000000002,-5.1478,8.158,S21,G1,Boredom
-6.6379,0.79562,-12.2001,-27.846,-24.8562,17.5529,5.0192,7.5767,-0.32916,-6.3852,-6.3592,5.1758,-12.4503,11.5973,-8.86528,-0.4264999999999999,-0.5917000000000003,-3.35718,6.29795,S21,G1,Boredom
-3.2771,-4.1907,-16.4066,-18.2732,-17.4379,21.4383,-6.1475,15.0241,-2.2854,-1.0636,-4.0026,-0.074263,-7.7532,-3.1986,-6.357866666666666,-5.475899999999999,-2.0384315,-1.6745,4.4383,S21,G1,Boredom
-12.4642,-5.421,-15.9165,-20.6336,-17.8733,21.6338,-3.3084,19.5554,0.321,0.48199,-11.1703,-6.4901,1.1083,0.72112,-8.4458,0.91471,-8.8302,0.401495,8.1235,S21,G1,Boredom
-20.1127,-6.5775,-11.5037,-26.8043,-21.2462,22.805,6.2729,16.9003,5.7345,1.9348,-4.0798,-6.5949,-6.3665,14.7779,-10.573233333333333,4.2057,-5.33735,3.83465,11.5866,S21,G1,Boredom
-25.8195,-6.1828,-16.7405,-26.1836,-19.9714,30.3262,-2.993,21.8133,-1.5241,1.8187,-0.87147,-5.2108,-20.0845,17.077,-10.761933333333332,-1.5037499999999984,-3.041135,0.1473,9.410150000000002,S21,G1,Boredom
-10.1703,8.2882,-16.7241,-23.6246,-15.8101,39.3717,-7.7524,33.3446,-2.4197,-1.2534,-9.7092,-4.8986,-6.755,18.0279,-3.111533333333334,5.63645,-7.3039,-1.83655,12.7961,S21,G1,Boredom
4.5399,20.8547,-9.2999,-24.6769,-13.3793,39.4792,1.1094,32.8262,6.1213,-1.672,-16.5349,-4.1109,7.7503,19.4159,2.9196166666666667,13.5831,-10.3229,2.22465,16.9678,S21,G1,Boredom
-1.2144,17.1337,-11.2107,-24.6775,-14.0578,33.6532,5.4877,32.3379,4.2727,-1.0779,-19.9876,-4.358,3.0629,4.9167,-0.0622499999999999,3.9898,-12.1728,1.5974000000000002,18.9128,S21,G1,Boredom
6.2668,25.489,-5.1057,-9.8625,-9.758,42.0057,5.6522,42.7444,6.4852,0.46805,-13.3561,-5.5778,-11.2209,2.1519,8.17255,-4.5345,-9.46695,3.476625,24.1983,S21,G1,Boredom
18.2376,35.3189,0.6329,-4.826,-19.5434,36.0281,-8.0222,34.7474,8.5658,-4.9923,-20.9505,-16.6024,-8.3007,-4.3979,10.974683333333331,-6.3493,-18.77645,1.7867499999999996,13.3626,S21,G1,Boredom
17.6375,39.6201,2.0767,-0.091209,-21.8285,28.4337,-9.0227,27.2298,3.6066,-8.1505,-22.1627,-13.137,2.5686,-9.5668,10.974715166666668,-3.4991000000000003,-17.64985,-2.2719499999999995,9.10355,S21,G1,Boredom
9.171,35.7616,-11.3823,-5.518,-19.0366,27.2214,-1.0721,32.0168,-2.0421,-10.1303,-13.4247,-4.9405,-11.6855,-0.59609,6.036183333333334,-6.140795,-9.1826,-6.0862,15.472350000000002,S21,G1,Boredom
2.6947,31.6408,-11.6873,-10.1255,-14.9309,34.4777,13.0922,36.0228,11.9085,-0.63291,-0.76615,-0.69308,-14.1697,11.2927,5.344916666666665,-1.4385000000000003,-0.729615,5.637795,24.5575,S21,G1,Boredom
-9.8147,24.3092,-7.5293,-11.9877,-16.5048,32.9028,3.639,21.5137,13.6637,2.8623,-4.1774,-4.1087,-4.9242,-1.7326,1.8959166666666665,-3.3284,-4.14305,8.263,12.57635,S21,G1,Boredom
-1.8176,31.2464,-0.65677,-2.8726,-12.0572,27.4714,-6.9511,22.6926,10.3742,2.1968,2.494,-3.3685,-3.147,9.7307,6.885605000000001,3.29185,-0.4372499999999999,6.2855,7.870749999999999,S21,G1,Boredom
7.182,27.3966,2.3461,-6.6513,-6.3952,25.824,3.344,35.431,11.7277,1.0775,15.1849,-4.1539,-5.9207,23.2468,8.283700000000001,8.66305,5.5155,6.4026000000000005,19.3875,S21,G1,Boredom
0.32983,17.3565,-3.2274,-20.3522,-13.4193,29.7073,5.6126,35.5035,7.5663,1.5061,8.841,-2.4229,-1.1212,10.2213,1.7324550000000003,4.55005,3.2090499999999995,4.5362,20.55805,S21,G1,Boredom
-4.6285,15.3276,-8.9598,-17.3774,-19.5287,32.8634,-0.65021,31.3973,0.19877,-2.5352,4.3596,1.6735,6.8491,-1.2566,-0.3839000000000006,2.79625,3.01655,-1.168215,15.373545,S21,G1,Boredom
-5.3383,13.4204,-10.3982,-18.3108,-16.381,34.8426,-6.5382,35.4404,-4.7517,-6.3342,2.1229,5.5241,2.4871,12.9188,-0.3608833333333336,7.702949999999999,3.8235,-5.542949999999999,14.4511,S21,G1,Boredom
-11.9325,10.6392,-15.7013,-31.0411,-20.3376,30.7761,-15.0355,28.3745,-4.4666,-9.9051,-12.1044,4.2051,-11.7621,23.7248,-6.2662,5.981349999999999,-3.94965,-7.185849999999999,6.6695,S21,G1,Boredom
-2.8203,17.4087,-7.3505,-18.8074,-14.6721,26.4603,-3.762,25.1903,4.1967,-4.8656,-25.4782,4.4461,-20.1697,8.2013,0.0364499999999997,-5.9842,-10.51605,-0.3344499999999999,10.71415,S21,G1,Boredom
9.2015,20.3156,-0.98293,-6.8129,-7.8653,27.8366,7.3288,35.5324,-1.9816,2.3404,-19.9503,-3.7222,-6.1185,9.4624,6.948761666666667,1.6719500000000005,-11.83625,0.1793999999999999,21.4306,S21,G1,Boredom
8.6499,25.0232,-0.92442,-6.4046,-4.4303,36.043,4.9135,43.278,-4.8257,5.163,-9.8632,-9.4254,8.3487,22.9947,9.659463333333331,15.6717,-9.6443,0.1686499999999999,24.09575,S21,G1,Boredom
3.1914,33.3989,-1.8565,-5.0328,-4.1645,38.8199,-3.2833,37.7178,7.3169,7.8167,-14.21,-7.8724,21.9477,17.3925,10.726066666666666,19.6701,-11.0412,7.566800000000001,17.21725,S21,G1,Boredom
3.0009,25.4689,-3.7201,-4.7299,-10.8291,34.5147,-7.0373,30.5162,2.9268,4.3842,-23.2354,-4.4365,6.5309,3.5084,7.284233333333333,5.01965,-13.83595,3.6555,11.73945,S21,G1,Boredom
0.84483,17.0263,-9.4239,-10.3731,-19.0694,27.5053,-6.6151,23.7467,-11.0778,4.1212,-21.8413,-4.1703,-7.961,8.2365,1.0850049999999996,0.1377499999999996,-13.0058,-3.4783,8.5658,S21,G1,Boredom
-3.6506,21.4379,-16.2667,-11.232,-19.4065,25.3612,-6.712,23.8032,-2.0164,6.3436,-15.0976,-6.3898,-7.9771,12.188,-0.626116666666667,2.1054500000000003,-10.7437,2.1636,8.5456,S21,G1,Boredom
6.9397,23.6084,-9.8585,-4.1387,-4.1421,29.2714,-0.87741,26.8193,12.2046,4.4813,-14.6859,-4.5247,-7.0052,1.0845,6.9467,-2.96035,-9.6053,8.34295,12.970945,S21,G1,Boredom
11.4623,16.2654,-7.291,-5.865,-1.6953,28.504,-2.7993,23.2356,6.7556,-2.7016,-17.7553,-5.2412,-20.6849,-13.0806,6.896733333333334,-16.88275,-11.49825,2.027,10.21815,S21,G1,Boredom
6.8236,15.2895,-7.8415,-6.5006,-6.5321,28.7688,-1.6439,25.7925,-1.5518,3.3865,-10.7639,-2.9508,-10.2818,-8.0733,5.001283333333333,-9.17755,-6.85735,0.91735,12.0743,S21,G1,Boredom
1.9694,16.8419,-2.9258,-11.5438,-18.4875,17.6594,-0.063004,18.8126,-3.9284,5.6531,-15.5504,-5.2435,-5.2201,6.5111,0.5856,0.6454999999999997,-10.39695,0.8623500000000002,9.374798,S21,G1,Boredom
6.7893,16.8193,-0.77471,-11.8392,-27.2562,8.6973,-1.0472,13.7324,-9.6192,0.37487,-18.5689,-1.9658,-5.8949,20.2204,-1.2607016666666668,7.162750000000001,-10.26735,-4.622165,6.3426,S21,G1,Boredom
8.3579,14.8217,-5.6677,-12.1163,-20.6823,15.09,0.99066,22.7855,-1.14,0.35238,-6.5892,-6.7864,0.38529,4.9072,-0.0327833333333336,2.646245,-6.6878,-0.3938099999999999,11.88808,S21,G1,Boredom
5.3867,16.4021,-5.8209,-10.8956,-14.9961,24.5564,1.425,24.8756,9.3001,2.801,-1.7491,-20.4792,-2.1071,-9.4872,2.438766666666667,-5.79715,-11.11415,6.05055,13.1503,S21,G1,Boredom
6.0515,17.3935,3.4188,-8.2664,-12.1204,21.1075,3.3159,16.469,-0.14788,1.6449,-3.6196,-28.3623,-10.8702,-5.9545,4.597416666666667,-8.41235,-15.990950000000002,0.74851,9.89245,S21,G1,Boredom
6.6759,18.325,3.2127,-0.85586,-7.4426,15.89,11.0181,18.4444,-2.114,0.55871,-2.4149,-12.5606,-1.3285,1.3173,5.967523333333333,-0.0056,-7.48775,-0.7776449999999999,14.73125,S21,G1,Boredom
-7.8246,14.7562,-11.08,-6.2373,-8.4773,21.3569,4.9252,19.807,-1.4939,-0.95656,-5.7268,2.293,5.172,4.695,0.41565,4.9335,-1.7169,-1.22523,12.3661,S21,G1,Boredom
-17.4546,16.8343,-2.7355,-17.7161,0.92085,26.0015,8.5797,22.5696,1.5592,11.9414,1.5313,-7.7712,4.8617,4.4133,0.9750750000000004,4.637499999999999,-3.11995,6.7503,15.574650000000002,S21,G1,Boredom
-3.073,16.318,11.5286,-18.1344,3.3353,10.3414,13.4982,19.7341,0.97191,10.7312,1.9332,-10.7622,0.12521,-4.2473,3.385983333333334,-2.061045,-4.4145,5.851554999999999,16.61615,S21,G1,Boredom
11.2114,10.8946,6.6145,-7.6626,-6.2486,-4.379,5.2805,13.1173,4.3704,-4.0127,-6.5791,-4.6837,-3.3396,-4.4867,1.7383833333333334,-3.91315,-5.6314,0.1788500000000001,9.1989,S21,G1,Boredom
-3.5613,6.2895,-5.635,-5.2273,-7.8496,-1.5974,-3.9264,13.3173,9.0472,6.8708,-7.1723,-2.4272,-1.1641,-6.193,-2.9301833333333334,-3.67855,-4.79975,7.959,4.695449999999999,S21,G1,Boredom
-17.4476,-0.50819,-19.3969,-16.2734,-10.8354,-15.6016,-13.0746,8.074,-2.8545,15.8423,-7.2353,-7.7143,-1.5876,-13.2292,-13.343848333333334,-7.4084,-7.4748,6.4939,-2.5003,S21,G1,Boredom
-24.5251,-1.9599,-17.9621,-19.7418,3.9147,-28.7655,-1.9193,6.1073,9.6636,9.4595,1.5946,-2.8067,1.9645,0.89889,-14.839950000000002,1.431695,-0.6060500000000001,9.56155,2.0940000000000003,S21,G1,Boredom
-10.7072,-5.2991,-7.5006,-13.1245,17.7798,-41.1396,2.6411,-6.6054,23.1838,4.4467,8.9068,-1.1565,6.2914,14.945,-9.998533333333333,10.6182,3.87515,13.81525,-1.9821500000000003,S21,G1,Boredom
-5.62,-5.4749,-0.63028,1.763,30.813,-52.7712,0.01293,-20.3091,11.6433,12.5757,4.9151,0.39415,16.2852,11.8018,-5.320063333333334,14.0435,2.654625,12.1095,-10.148085,S21,G1,Boredom
-7.2579,-5.1464,1.3835,14.7205,43.0642,-63.7049,5.9391,-32.1539,8.9697,14.7846,-5.2569,3.334,12.3455,1.2166,-2.823500000000001,6.78105,-0.96145,11.87715,-13.1074,S21,G1,Boredom
-2.3776,-8.2949,-1.1692,17.2946,52.2361,-73.9826,4.1006,-44.3247,9.9128,3.5258,-7.4112,-2.2983,-2.4952,-0.33861,-2.7156000000000007,-1.416905,-4.85475,6.7193000000000005,-20.11205,S21,G1,Boredom
11.865,-19.6502,-7.0256,20.2079,56.0155,-83.6437,-5.035,-55.7652,-4.782,-5.5753,0.9355,-14.0135,-1.5808,-0.3183,-3.705183333333333,-0.94955,-6.539000000000001,-5.17865,-30.4001,S21,G1,Boredom
25.2531,-18.965,6.7303,27.3912,64.0139,-92.725,2.6754,-66.5193,-8.6689,1.18,5.3241,-11.6914,12.6141,-7.7075,1.9497500000000016,2.4533000000000005,-3.18365,-3.744450000000001,-31.92195,S21,G1,Boredom
35.0486,-10.4193,11.7592,29.2045,69.5568,-101.2615,4.9841,-68.1346,2.2235,1.6024,-9.0953,-4.5696,21.4633,-19.5923,5.6480500000000005,0.9354999999999992,-6.83245,1.91295,-31.575250000000004,S21,G1,Boredom
35.4149,-7.3249,9.5719,39.7995,76.7432,-106.5728,6.1668,-65.5282,-2.3552,2.988,-16.1802,-1.8262,9.8042,-12.984,7.938633333333333,-1.5899,-9.0032,0.3164,-29.6807,S21,G1,Boredom
33.7843,-17.2567,18.3818,45.8078,72.6319,-91.7822,15.1806,-67.0293,-7.6466,9.229,-2.8616,-7.1494,15.6363,-1.8337,10.261150000000002,6.9013,-5.0055,0.7911999999999995,-25.924350000000004,S21,G1,Boredom
29.7812,-22.1483,30.1195,34.1689,74.2009,-82.3247,22.1718,-63.0075,5.6527,7.6878,-2.6909,-6.7204,18.6491,7.1659,10.632916666666668,12.9075,-4.70565,6.67025,-20.41785,S21,G1,Boredom
29.9703,-17.8549,18.4353,26.1927,71.7249,-69.4822,9.9769,-58.2386,8.278,3.2755,-11.4185,-2.3652,10.6166,19.5775,9.831016666666663,15.09705,-6.89185,5.77675,-24.13085,S21,G1,Boredom
19.2826,-17.7721,3.2291,24.6211,62.4819,-55.4362,-4.4508,-56.7203,4.8178,6.0425,-7.7704,-3.2118,8.9916,12.4768,6.067733333333334,10.7342,-5.4911,5.43015,-30.58555,S21,G1,Boredom
4.0256,-22.1385,-1.1384,23.6381,66.1417,-45.6898,1.2491,-47.8843,13.9116,14.0762,6.7959,4.3897,20.7989,-2.3718,4.139783333333335,9.21355,5.5928,13.9939,-23.3176,S21,G1,Boredom
-6.8105,-30.194,-8.4784,14.8111,60.6915,-35.5401,2.6559,-42.542,6.6566,14.7134,9.0802,11.5341,21.0327,-4.9221,-0.9200666666666676,8.055299999999999,10.30715,10.685,-19.94305,S21,G1,Boredom
3.9694,-29.8632,-3.5244,7.5021,49.6422,-25.011,2.0023,-43.4462,-3.1256,5.4343,-2.8239,0.47075,15.326,9.4733,0.4525166666666672,12.39965,-1.176575,1.1543500000000002,-20.72195,S21,G1,Boredom
17.8313,-13.9714,9.0338,10.5097,50.1204,-18.0785,8.3024,-36.3952,0.51871,-3.288,-5.1238,-6.9653,24.7782,18.511,9.240883333333333,21.6446,-6.04455,-1.384645,-14.046400000000002,S21,G1,Boredom
7.1066,-11.9233,-4.3492,1.9771,35.2602,-19.9564,-4.0488,-34.2115,-8.402,-3.0907,-11.7308,-11.4869,19.3405,3.5722,1.3524999999999998,11.45635,-11.60885,-5.74635,-19.13015,S21,G1,Boredom
3.7172,-24.0489,-5.0763,-1.1055,19.0446,-18.7594,-4.7938,-36.1103,-6.9108,9.9357,-17.9415,-9.8097,4.3506,-4.5446,-4.371383333333333,-0.0969999999999999,-13.8756,1.5124500000000003,-20.45205,S21,G1,Boredom
13.865,-21.1238,6.5876,1.4306,17.6786,-18.1276,3.8896,-36.4124,7.6039,2.9188,-13.4078,-7.7398,-2.3308,3.1363,0.0517333333333335,0.4027499999999999,-10.5738,5.26135,-16.2614,S21,G1,Boredom
15.5029,-15.4116,-0.22793,-1.125,9.2096,-8.6442,-1.7761,-29.7829,4.9007,-1.7011,-6.183,-10.7327,-2.6847,7.3929,-0.1160383333333331,2.3541,-8.45785,1.5997999999999997,-15.7795,S21,G1,Boredom
0.47268,-26.3404,-9.1043,-8.96,-5.4429,-3.1865,-12.5355,-36.886,-8.2344,-6.538,-11.7386,-17.9903,-12.4016,-7.1506,-8.760236666666668,-9.7761,-14.86445,-7.3862,-24.71075,S21,G1,Boredom
4.6663,-13.8949,5.542,-5.4584,6.0201,3.9187,1.0577,-37.6358,2.1372,-13.0598,-3.1317,-14.9353,-7.7065,-6.4506,0.1323,-7.07855,-9.0335,-5.4613,-18.289050000000003,S21,G1,Boredom
18.4863,1.0388,14.8165,4.7471,14.5494,3.6836,7.9087,-24.5122,3.9849,-12.2762,1.9947,-20.9537,-4.2801,4.8029,9.553616666666668,0.2614000000000001,-9.479500000000002,-4.14565,-8.30175,S21,G1,Boredom
11.1792,-10.16,4.0495,-4.4282,-0.42354,-1.476,-6.6658,-17.1154,-10.3542,-18.4541,-12.225,-33.7965,-16.8644,-9.5853,-0.2098400000000001,-13.22485,-23.01075,-14.40415,-11.8906,S21,G1,Boredom
-3.5916,-4.6114,2.8185,-8.1131,-14.4981,10.4652,-11.9205,-8.1859,-16.376,-18.3349,-14.1835,-22.6077,-11.9015,-16.6417,-2.92175,-14.2716,-18.3956,-17.35545,-10.0532,S21,G1,Boredom
-7.5489,-2.853,-1.7958,-9.1081,-10.6166,7.368,-8.736,-13.1276,-6.0096,-14.7655,-13.8263,-10.88,-4.7671,-1.5432,-4.092399999999999,-3.15515,-12.35315,-10.38755,-10.9318,S21,G1,Boredom
-6.1085,-12.5598,-3.6631,-14.4886,-18.8691,0.012339,-21.0524,-8.3889,-10.5876,-13.8786,-21.8863,-24.0553,-8.4321,12.6494,-9.279460166666668,2.10865,-22.9708,-12.2331,-14.72065,S21,G1,Boredom
3.1481,-0.94118,7.4217,-12.6313,-13.7855,14.1116,-11.8877,6.2144,-12.9163,-9.0954,-13.659,-16.6854,-4.9631,18.7558,-0.4460966666666668,6.89635,-15.1722,-11.00585,-2.83665,S21,G1,Boredom
0.98366,5.0418,7.9644,-6.9344,-7.0318,27.3649,-1.2969,14.4602,-18.0678,-4.5982,-8.8885,-6.7943,-4.6654,4.7894,4.56476,0.0619999999999998,-7.8414,-11.332999999999998,6.58165,S21,G1,Boredom
-11.4231,4.2456,3.0413,-4.0495,-15.9942,30.6124,-1.7128,13.0988,-10.563,3.086,-8.8489,-8.8563,-1.9157,3.0208,1.0720833333333335,0.55255,-8.852599999999999,-3.7385,5.6930000000000005,S21,G1,Boredom
-15.182,5.4726,8.2921,-13.1903,-14.5403,32.2325,-0.12831,24.6592,4.1708,7.3451,-5.8487,-15.7328,2.644,13.2108,0.5141000000000003,7.9274,-10.79075,5.75795,12.265445,S21,G1,Boredom
-17.7284,-8.9558,3.3493,-24.7457,-9.2231,29.8057,1.3607,15.7723,7.6001,2.4597,-10.9301,-22.1971,-1.9594,8.9619,-4.583000000000001,3.50125,-16.5636,5.0299000000000005,8.5665,S21,G1,Boredom
-24.5667,-16.5423,-5.7412,-17.334,-9.6572,18.1393,6.2185,0.99695,6.1566,3.2996,-1.3847,-22.8408,4.0847,-3.4289,-9.283683333333334,0.3278999999999998,-12.11275,4.7281,3.607725,S21,G1,Boredom
-34.452,-9.13,-10.8295,-13.8251,-11.5475,4.7042,0.41216,0.44338,14.183,5.5714,5.1186,-21.9645,6.3089,-1.7419,-12.513316666666668,2.2835,-8.42295,9.8772,0.42777,S21,G1,Boredom
-18.5563,-14.5087,-12.1552,-12.0076,-11.8427,2.4464,-11.4651,0.4163,10.369,3.2616,1.849,-9.7807,-4.9347,12.4626,-11.104016666666668,3.76395,-3.96585,6.8153,-5.5244,S21,G1,Boredom
-3.3429,-24.9975,-5.0061,-6.8424,-14.5894,7.7319,-10.2844,-1.09,-4.3532,-4.3424,3.2193,-0.79898,-6.1209,25.8149,-7.8410666666666655,9.847,1.21016,-4.347799999999999,-5.6872,S21,G1,Boredom
0.53722,-10.1628,-5.199,-10.8762,-18.1583,8.7498,-3.2461,8.3592,-18.192,-15.4407,0.55687,-3.2194,5.6062,27.6741,-5.851546666666668,16.64015,-1.331265,-16.81635,2.55655,S21,G1,Boredom
7.9133,4.547,-6.3688,-13.6809,-8.673,5.755,1.3934,17.2419,-13.1008,-5.1309,-6.8848,-4.5084,4.776,11.9137,-1.7512333333333334,8.344850000000001,-5.6966,-9.11585,9.31765,S21,G1,Boredom
-0.46357,-9.8259,-4.0117,-9.8975,-11.1161,-8.6903,-7.5807,2.1074,-11.3272,4.0665,-14.3747,-16.091,-9.34,-2.9012,-7.334178333333334,-6.1206,-15.23285,-3.63035,-2.73665,S21,G1,Boredom
-4.3868,-11.7051,10.329,4.7964,-9.4607,-9.8729,4.7281,0.27596,3.1814,10.737,0.58778,-10.1865,5.3204,9.1751,-3.38335,7.24775,-4.79936,6.9592,2.5020300000000004,S21,G1,Boredom
-8.0741,-5.0763,9.4383,9.1766,-0.9915,0.597,14.322,1.2474,10.893,0.21525,11.1471,-5.6243,-1.1959,-1.253,0.8450000000000001,-1.22445,2.7614,5.554125,7.7847,S21,G1,Boredom
-13.5171,-8.7232,-5.228,-5.474,0.055975,-4.3778,4.5727,-4.754,10.239,-0.78565,18.3803,-16.1524,-15.2241,-15.2778,-6.2106875000000015,-15.25095,1.113949999999999,4.726675,-0.0906499999999996,S21,G1,Boredom
-12.2119,-9.6815,-4.1496,-2.4057,-4.3926,-7.5719,-8.049,-5.9505,14.069,11.6088,28.6363,-7.7754,-1.6929,-0.26111,-6.735533333333333,-0.977005,10.43045,12.8389,-6.99975,S21,G1,Boredom
-21.8505,-18.4844,-8.3449,-6.7057,-14.5004,-9.5869,-17.9373,-11.0262,5.817,-3.1878,16.5468,6.7911,8.7809,13.8546,-13.245466666666667,11.31775,11.66895,1.3146,-14.48175,S21,G1,Boredom
-24.9847,-16.8811,-10.3135,-0.8706,-8.1976,-4.5664,-17.3544,-4.9319,4.9747,-3.713,18.0242,14.0152,-1.1302,27.1233,-10.968983333333334,12.99655,16.0197,0.6308500000000001,-11.14315,S21,G1,Boredom
-28.4241,-20.8068,-8.7072,-8.7204,-12.6452,-8.2444,-23.2276,-3.6485,-1.2508,1.4483,6.0772,8.2348,-9.9524,34.3363,-14.59135,12.19195,7.156000000000001,0.09875,-13.43805,S21,G1,Boredom
-21.2869,-20.0526,-4.7279,-15.6059,-20.2828,-5.2805,-20.3532,-6.8873,-3.6459,1.8556,-7.6231,11.1975,-5.8985,25.8558,-14.539433333333331,9.978649999999998,1.7872,-0.8951500000000001,-13.62025,S21,G1,Boredom
-14.0822,-13.9105,-2.4683,-13.6816,-15.1143,-2.9872,-23.0825,-8.4486,-2.4382,3.7198,-8.1528,6.5751,-6.5316,11.4635,-10.374016666666668,2.46595,-0.7888499999999996,0.6408,-15.76555,S21,G1,Boredom
-18.6705,-13.5696,-8.7409,-17.3055,-16.6762,-10.2162,-27.1299,-12.3865,-4.7617,-2.9242,-16.0599,-7.1537,-17.499,12.2579,-14.196483333333331,-2.62055,-11.6068,-3.84295,-19.7582,S21,G1,Boredom
-12.6108,-10.7804,-9.204,-16.2671,-13.7006,-4.6647,-11.4021,-9.6682,0.46255,-1.7603,-16.0838,-1.786,-7.5595,10.5339,-11.2046,1.4871999999999996,-8.9349,-0.648875,-10.535150000000002,S21,G1,Boredom
-3.4588,-3.7133,1.7195,-10.8459,-1.5188,9.7152,1.3574,-0.69188,5.8676,7.7291,-1.0188,2.7664,6.9941,-0.4694,-1.35035,3.26235,0.8738,6.79835,0.3327599999999999,S21,G1,Boredom
-3.2513,-0.52698,10.5064,-9.2076,-8.3422,23.2322,-4.651,10.2152,3.5405,3.3144,12.1057,-2.339,19.6382,4.4973,2.06842,12.06775,4.88335,3.4274500000000003,2.7821,S21,G1,Boredom
-7.5005,-6.9156,3.4557,-15.0754,-21.9417,19.3204,-12.7673,14.0475,2.8338,-5.2807,8.9101,-1.7045,8.0886,12.6237,-4.776183333333335,10.35615,3.6028,-1.22345,0.6400999999999994,S21,G1,Boredom
-12.977,-10.4513,-2.6781,-16.1464,-23.8105,14.2097,-11.0133,9.2532,2.6643,-2.0009,6.4,-4.5652,-0.29917,8.9033,-8.642266666666666,4.302065,0.9174000000000002,0.3316999999999999,-0.8800499999999998,S21,G1,Boredom
-15.6561,-7.3549,-3.9992,-19.6229,-25.8396,15.8264,-13.8102,7.2162,-2.9284,-3.3626,10.4612,-11.7001,2.188,9.8508,-9.44105,6.0194,-0.6194500000000005,-3.1455,-3.297,S21,G1,Boredom
-4.3445,6.4212,1.6735,-9.0617,-10.1892,27.2241,-3.5978,20.8832,8.6062,4.2479,22.1799,3.1019,16.1568,1.851,1.9539,9.0039,12.6409,6.42705,8.6427,S21,G1,Boredom
-7.542,6.5287,-3.8601,-6.0483,-4.9108,23.1209,-0.91314,21.3338,6.6076,8.4378,9.4898,17.0158,8.0014,-12.36,1.214733333333333,-2.1793,13.2528,7.522699999999999,10.21033,S21,G1,Boredom
-10.5458,-0.28281,-2.1468,-10.1301,-18.7161,21.2399,-4.3147,15.609,1.7663,7.4378,-0.4629,11.0077,-6.5787,-1.4694,-3.4302850000000014,-4.02405,5.2724,4.60205,5.64715,S21,G1,Boredom
-11.8886,-2.2413,-3.9935,-14.4613,-28.681,17.99,-7.0198,10.722,3.6359,-0.91097,4.5039,-0.51877,7.4227,6.5212,-7.212616666666666,6.97195,1.992565,1.362465,1.8511,S21,G1,Boredom
-2.2852,6.7832,-1.7779,-11.6182,-18.0701,23.8255,-3.6346,21.9322,5.3942,3.0952,17.0747,8.4024,21.0774,2.1785,-0.5237833333333329,11.62795,12.73855,4.2447,9.1488,S21,G1,Boredom
-10.0511,-6.4653,-3.6472,-19.8116,-26.8639,17.4565,-12.307,17.6518,-9.0295,-3.0175,2.2212,4.9347,5.7127,7.9748,-8.230433333333334,6.84375,3.5779500000000004,-6.0235,2.672400000000001,S21,G1,Boredom
-15.3746,-10.028,-5.4039,-16.6464,-27.2267,12.4586,-13.5441,11.6546,-8.2172,-4.812,-12.0121,-0.29942,-8.73,15.3978,-10.370166666666664,3.3339,-6.15576,-6.5146,-0.94475,S21,G1,Boredom
-10.5006,4.6737,-4.0917,-12.6846,-13.7405,20.6011,-7.7925,17.8694,4.1293,5.3543,-3.1174,3.6691,2.9303,0.37396,-2.6237666666666666,1.65213,0.2758499999999999,4.7418,5.038449999999999,S21,G1,Boredom
1.4883,14.4931,10.2538,-9.4543,-6.4958,33.465,3.0464,26.181,17.2164,12.4418,11.1696,9.8692,14.1138,-2.8338,7.291683333333334,5.64,10.5194,14.8291,14.6137,S21,G1,Boredom
-0.082323,8.1913,5.4162,-14.3193,-15.4893,32.1732,-1.5812,14.2393,3.8366,0.33596,6.277,-0.10623,-0.067871,2.7685,2.648296166666667,1.3503145,3.085385,2.08628,6.3290500000000005,S21,G1,Boredom
3.8736,18.5644,3.1157,-17.4112,-8.6339,35.1814,0.48968,17.335,0.64289,1.3033,-8.1996,2.8636,-5.0028,6.5534,5.781666666666666,0.7753000000000001,-2.668,0.973095,8.91234,S21,G1,Boredom
9.0744,18.9327,14.288,-14.8852,-6.6337,44.4298,7.8686,21.7282,7.0251,5.6699,-2.0039,2.1981,0.7306,4.6789,10.867666666666668,2.70475,0.0971000000000001,6.3475,14.7984,S21,G1,Boredom
10.9988,12.3645,9.974,-11.5224,-17.5949,39.2952,4.9267,16.9672,4.1338,-2.0786,-0.40194,-7.3176,2.1685,3.9044,7.252533333333335,3.03645,-3.85977,1.0276,10.94695,S21,G1,Boredom
15.2779,15.5731,2.461,-14.7825,-16.5392,27.0599,7.5951,19.9007,13.7633,1.0101,-5.3168,2.011,3.0259,-2.2564,4.8417,0.3847499999999999,-1.6528999999999998,7.386699999999999,13.7479,S21,G1,Boredom
11.3977,17.6023,5.2768,-10.9321,-14.5589,28.3989,12.0779,20.6817,19.8521,13.7901,-4.0098,15.9903,4.8199,-4.096,6.197450000000001,0.3619499999999997,5.99025,16.8211,16.3798,S21,G1,Boredom
-3.3862,14.5701,-7.8813,-13.2396,-21.5879,34.597,0.48771,16.4773,4.8319,9.9992,-10.6842,6.857,-1.3963,6.0268,0.5120166666666665,2.31525,-1.9136,7.41555,8.482505,S21,G1,Boredom
-1.4303,22.0922,-16.7917,-21.829,-20.7864,34.0029,-5.9618,26.8484,-1.8783,2.9789,-15.4755,0.025275,-2.7938,19.7652,-0.7903833333333333,8.4857,-7.7251125,0.5502999999999999,10.4433,S21,G1,Boredom
12.7555,18.7912,-8.8702,-20.5198,-23.4907,27.0237,-4.6171,33.139,-4.7286,-6.0898,-3.6814,0.024229,-5.5897,12.8751,0.9482833333333336,3.6427,-1.8285855,-5.4092,14.26095,S21,G1,Boredom
19.127,13.2189,-0.93015,-6.9408,-28.5015,23.921,-0.88279,26.7059,-4.9396,-9.1817,-0.99172,-7.3855,-12.6626,-1.9974,3.3157416666666664,-7.33,-4.188610000000001,-7.06065,12.911555,S21,G1,Boredom
13.0409,11.4383,-5.8124,-7.5119,-31.7299,18.5348,-2.8049,23.1285,-7.6058,-5.6673,-14.7603,-8.9174,-6.9638,-12.9649,-0.3400333333333337,-9.96435,-11.83885,-6.63655,10.1618,S21,G1,Boredom
10.2834,8.776,-9.4151,-13.9757,-24.8876,24.3372,-8.5636,35.8408,-11.1005,-3.3522,-10.9117,2.4822,4.3195,1.9129,-0.8136333333333337,3.1162,-4.21475,-7.22635,13.6386,S21,G1,Boredom
13.1232,8.7437,0.53401,-15.6064,-20.9251,36.977,-13.4825,44.7773,-5.0017,-6.6079,3.843,6.7785,-6.3114,15.8982,3.807734999999999,4.7934,5.3107500000000005,-5.8048,15.647399999999998,S21,G1,Boredom
14.3113,10.1936,1.489,-17.634,-24.6086,34.9802,-13.6616,29.2496,-0.75102,-8.1869,10.7493,2.4203,-20.0327,26.7473,3.121916666666668,3.3573000000000004,6.5848,-4.46896,7.794,S21,G1,Boredom
13.4526,6.6194,-2.5509,-23.4895,-21.1561,18.7814,-6.9149,13.6665,-2.681,-7.6957,-3.9957,2.2751,-8.6818,11.0424,-1.390516666666666,1.1803,-0.8602999999999998,-5.18835,3.3757999999999995,S21,G1,Boredom
10.6699,2.2708,5.5042,-25.0441,-18.8992,16.9384,-5.512,15.8096,-5.4841,-5.2584,-17.8559,-1.8119,0.72916,4.7253,-1.4266666666666663,2.72723,-9.8339,-5.37125,5.1488,S21,G1,Boredom
8.0542,12.013,7.1495,-16.6265,-20.7278,30.0221,-6.1693,24.7395,-8.1171,-2.9674,-17.2292,-10.5932,-4.2531,3.4547,3.314083333333333,-0.3992,-13.9112,-5.54225,9.2851,S21,G1,Boredom
10.5345,25.3922,2.7695,-7.7269,-14.5461,35.8514,-5.7991,34.1197,-7.6311,-5.7529,-4.3424,-8.9701,10.1021,17.3474,8.712433333333331,13.72475,-6.65625,-6.692,14.1603,S21,G1,Boredom
11.3837,36.932,3.0971,-6.7695,-12.1911,27.2805,-10.8834,39.4808,-5.691,-13.8035,3.3264,-4.9747,19.5963,30.4066,9.95545,25.00145,-0.8241500000000002,-9.74725,14.2987,S21,G1,Boredom
10.2069,24.3444,8.3435,-5.8696,-16.8929,27.1249,-3.8106,37.6057,-5.8442,-9.518,-6.2574,-2.2064,4.3205,20.1363,7.8762,12.2284,-4.2319,-7.681100000000001,16.89755,S21,G1,Boredom
6.1372,27.3285,-1.5404,-4.0352,-20.3236,31.9182,4.8147,38.8066,-6.9748,-1.5387,-17.2408,2.3707,-10.0387,5.5938,6.580783333333334,-2.2224500000000003,-7.43505,-4.25675,21.810650000000003,S21,G1,Boredom
5.2752,33.097,-12.8068,-12.1898,-19.5979,30.4968,-1.8949,38.948,-3.0991,-0.95259,-15.7126,3.7107,-9.3878,19.3582,4.045749999999999,4.9852,-6.00095,-2.025845,18.52655,S21,G1,Boredom
2.4895,19.7524,-7.5936,-14.9152,-10.0263,30.1488,-0.29946,36.1168,5.4831,1.5738,-11.3126,2.9938,-8.3307,32.2967,3.3092666666666672,11.983,-4.1594,3.5284500000000003,17.908669999999997,S21,G1,Boredom
-3.0931,16.0975,-9.6077,-14.514,-4.9799,32.7846,6.1383,31.481,5.6479,6.9126,-11.1281,11.21,-9.3126,16.2589,2.781233333333333,3.4731500000000004,0.0409500000000004,6.2802500000000006,18.80965,S21,G1,Boredom
-3.4013,27.4785,-11.5005,-19.0764,-15.0529,30.3229,-0.64979,31.0735,2.8393,6.9916,-9.9666,13.9946,5.3461,6.1224,1.461716666666667,5.734249999999999,2.014,4.91545,15.211855,S21,G1,Boredom
-5.6665,28.299,-6.3652,-10.5231,-19.582,22.0841,-9.0071,30.6908,2.1756,9.0414,-9.8619,2.7837,-0.18462,3.2858,1.374383333333333,1.55059,-3.5391000000000004,5.608499999999999,10.84185,S21,G1,Boredom
4.0573,28.0828,3.4,1.4671,-9.0233,23.2284,5.6334,30.3311,12.4164,10.9682,-3.8379,3.1099,-10.5453,-6.2952,8.535383333333334,-8.42025,-0.3639999999999999,11.6923,17.98225,S21,G1,Boredom
8.2586,22.9406,-1.2493,-11.9562,-15.8907,20.3524,7.9874,23.078,7.2257,-3.7899,-12.0039,-2.509,-13.3699,6.4293,3.7425666666666655,-3.4703,-7.25645,1.7179,15.5327,S21,G1,Boredom
14.1838,19.0954,2.2834,-17.6586,-22.345,27.528,-6.5918,30.0901,-7.3078,-12.1811,-14.7404,-8.7792,-8.1224,20.1436,3.847833333333334,6.010599999999999,-11.759799999999998,-9.74445,11.74915,S21,G1,Boredom
26.1739,15.9732,11.0364,-4.7456,-18.0413,34.7654,-0.49258,40.1372,-16.9688,-5.5237,-13.856,-6.2769,-9.6111,16.1947,10.860333333333337,3.2918000000000003,-10.06645,-11.24625,19.82231,S21,G1,Boredom
37.9377,28.3501,8.892,-0.016092,-18.4406,36.1368,4.9693,50.0758,-14.4694,-7.662,-14.5064,-5.4065,-11.5037,29.323,15.476651333333333,8.90965,-9.95645,-11.0657,27.52255,S21,G1,Boredom
36.1557,37.0204,13.7913,-0.50936,-19.8029,33.4753,-0.76071,61.1713,-13.107,-10.6591,-12.1543,-6.563,-6.3682,41.6637,16.688406666666666,17.64775,-9.35865,-11.88305,30.205295,S21,G1,Boredom
26.0843,20.6991,18.8908,1.4972,-13.6762,17.3667,-2.691,52.7848,-14.2965,-10.0195,-21.3025,-9.1327,-15.8641,53.2638,11.810316666666669,18.69985,-15.2176,-12.158,25.0469,S21,G1,Boredom
28.4703,5.3572,16.7689,-0.56863,-1.0031,2.2247,6.36,35.5177,-11.4628,-9.4184,-27.9269,-3.6462,-12.9368,35.968,8.541561666666666,11.515600000000004,-15.78655,-10.4406,20.93885,S21,G1,Boredom
22.8111,11.5047,9.8367,-5.473,13.1571,-12.0087,11.9054,19.2866,-10.775,-4.9022,-14.3978,1.5111,1.9395,35.2426,6.637983333333334,18.591050000000003,-6.44335,-7.8386,15.596,S21,G1,Boredom
7.3424,10.8154,-4.5816,-12.0592,22.9622,-25.3882,0.32551,4.0294,-10.1285,-4.6081,-1.6804,-4.5056,-5.3624,19.028,-0.1515000000000004,6.832799999999999,-3.093,-7.3683,2.177455,S21,G1,Boredom
-5.6677,-3.9336,-10.2342,-4.4211,31.4616,-37.9649,-7.5961,-10.3124,0.35629,-0.38061,-0.59251,-4.2353,-7.0162,3.7863,-5.12665,-1.61495,-2.413905,-0.01216,-8.95425,S21,G1,Boredom
-6.3152,-17.7975,-11.5956,8.6847,43.6739,-49.787,-8.1278,-23.7936,4.2859,0.62975,2.4065,-0.030128,7.5048,7.0646,-5.522783333333333,7.284700000000001,1.188186,2.457825,-15.9607,S21,G1,Boredom
-1.9857,-30.0163,-19.7899,1.2496,55.1534,-60.8998,-9.6156,-36.466,-6.8363,-7.3096,8.1882,-1.0163,20.6116,9.6037,-9.38145,15.10765,3.58595,-7.07295,-23.0408,S21,G1,Boredom
8.5052,-30.6851,-19.0963,-4.2586,62.6611,-71.3458,-4.5939,-48.378,-6.9199,-6.3773,5.2281,3.4894,10.9791,6.5587,-9.036583333333333,8.7689,4.358750000000001,-6.6486,-26.48595,S21,G1,Boredom
1.5746,-42.944,-9.5542,10.0969,63.3467,-81.1651,-5.8,-59.5754,-5.0229,-5.5004,-6.4449,-1.1642,-0.050909,-1.2426,-9.774183333333337,-0.6467545,-3.80455,-5.26165,-32.6877,S21,G1,Boredom
-0.4954,-42.5651,1.8841,23.5911,61.5214,-90.3952,-8.4151,-70.1008,-1.7585,0.75615,-1.1196,2.8562,0.93966,2.7825,-7.743183333333334,1.86108,0.8683,-0.5011749999999999,-39.25795,S21,G1,Boredom
-5.4047,-40.0108,-9.0945,28.053,54.8661,-99.0715,-10.8741,-78.2688,-1.6535,-1.2657,-5.9915,9.5988,-7.0192,-0.34843,-11.777066666666668,-3.683815,1.80365,-1.4596,-44.57145,S21,G1,Boredom
0.84612,-39.5856,-4.5978,17.4808,57.5007,-107.2272,-4.2952,-71.5972,4.3722,1.7742,0.29455,10.9984,-2.647,-0.32705,-12.597163333333333,-1.4870249999999998,5.646475,3.0732,-37.9462,S21,G1,Boredom
14.8954,-37.2105,6.5436,25.3215,58.0017,-103.4646,-10.951,-70.2648,-0.82862,2.6553,14.3769,0.46051,2.4508,0.68009,-5.985483333333335,1.565445,7.418704999999999,0.91334,-40.6079,S21,G1,Boredom
27.0655,-32.5086,10.5962,34.1744,52.0523,-91.824,-9.7997,-66.5422,-3.2482,0.026719,13.7375,-1.0479,4.7735,2.121,-0.0740333333333325,3.4472500000000004,6.3448,-1.6107405,-38.17095,S21,G1,Boredom
26.429,-29.5706,10.948,30.148,44.9782,-72.2145,-1.3107,-62.5497,1.8853,-2.9384,-1.1867,0.0024618,13.3766,1.0063,1.7863500000000012,7.19145,-0.5921191,-0.5265500000000001,-31.9302,S21,G1,Boredom
23.3616,-27.3021,11.7728,16.9803,48.7007,-57.7813,-9.6273,-59.2909,3.2548,-2.2678,10.5152,2.4716,21.9578,2.4276,2.622,12.1927,6.4934,0.4935,-34.4591,S21,G1,Boredom
