"AF3","AF4","F3","F4","F7","F8","FC5","FC6","O1","O2","P7","P8","T7","T8",
29.8872,10.1229,-13.4974,0.96387,39.0458,-14.9436,-6.7489,-4.3388,-9.641,0.48193,0,5.7846,-53.5077,0,
35.3248,14.3362,-13.6518,-4.8785,46.3445,-4.888,-3.9334,-0.22161,-3.2779,4.7918,7.7128,17.0067,-42.1023,0.48193,
28.1437,11.7888,-19.3402,-13.9858,40.9123,0.94893,-6.3489,1.4785,-3.8046,7.1554,-0.2218,21.0479,-42.2277,-7.5007,
20.4293,6.9839,-27.0976,-20.6183,44.0014,5.9534,-11.0294,-1.2611,-9.1197,2.1465,0.99657,20.5082,-39.9348,-6.8095,
20.65,10.9034,-29.8103,-22.7554,53.8945,10.8987,-10.8498,-6.0059,-11.4648,-1.3565,11.0599,27.9546,-23.4387,1.3116,
15.5544,11.6957,-27.0576,-23.8004,38.6095,4.9423,-9.2343,-7.574,-14.6331,-3.2035,2.6838,20.493,-11.5478,3.1614,
15.1033,10.9937,-11.3342,-8.2724,23.2778,2.7178,-0.9677,1.0754,-7.0064,2.2916,-5.6722,5.1634,-21.9419,0.56132,
14.4381,8.165,3.4459,6.3239,10.5529,-7.8096,3.6697,-0.19444,-0.078565,-0.49747,-4.609,-6.8365,-31.4719,-8.8724,
16.7053,8.398,17.3391,20.0445,-4.1803,-21.441,14.7777,0.54059,2.0953,-4.083,-0.23507,-15.8263,-38.0193,-8.581,
23.1745,11.9917,30.3988,32.9418,-18.0294,-27.7471,25.2194,14.6082,2.6927,0.25952,-4.8005,-26.2052,-30.6769,-6.8611,
16.2404,3.3184,36.7696,45.0653,-31.0477,-34.0358,20.5728,27.8317,1.8083,0.96685,-16.3226,-38.7329,-31.4874,-13.4393,
11.4096,-4.5939,33.1171,39.3482,-33.885,-42.117,14.0358,14.3514,2.1817,0.42691,-14.3794,-42.314,-38.7572,-8.2946,
16.2687,0.26147,24.1407,29.034,-17.7519,-29.2256,9.5787,-0.60968,3.738,0.16033,-3.1523,-25.6751,-22.3317,-1.7709,
13.8465,5.0663,10.1585,16.2045,-2.5868,-13.3721,1.2909,-11.7808,3.0316,-0.81339,0.41109,-10.0346,-6.8918,-8.8957,
10.8466,5.9676,4.0059,11.6168,-4.1186,-7.6286,-0.47375,-4.566,-2.2115,1.8865,-0.33648,-10.6374,7.6217,-7.1567,
8.7497,-0.17528,-0.091095,8.028,-1.4611,-11.0275,4.3752,-6.7024,0.81344,5.6299,0.64781,-13.3734,21.2644,-3.3526,
4.1272,-3.78,-11.896,-4.7464,6.0981,-5.3044,-4.3233,-11.8441,4.3798,2.6408,-1.5604,-7.9914,30.3526,-12.5517,
9.4234,6.8109,-18.1719,-18.5617,19.8322,9.1139,-13.9456,-7.9997,-3.3545,-0.16896,3.5951,6.588,42.6315,-5.2909,
9.0987,4.7148,-20.2148,-31.548,32.7423,14.2314,-16.2425,-9.6892,-13.9998,-5.2203,8.9228,19.5694,47.1842,2.4982,
5.4193,-0.14735,-26.9561,-34.9577,33.1879,13.6185,-17.4372,-12.7232,-11.4725,-5.6304,9.1103,17.1899,51.3425,2.1073,
2.4426,-0.86187,-35.2207,-34.5475,28.0631,13.5243,-16.6319,-11.7189,-9.097,-4.5697,3.9844,15.9176,49.4668,1.7399,
-0.59602,-3.2203,-25.3942,-32.9566,22.5234,11.7489,-8.8851,-7.6413,-10.9613,-2.8488,2.781,18.337,38.3045,-1.2566,
1.1267,-1.3401,-9.7706,-20.1332,20.9308,7.4284,-4.2548,-2.1214,-7.6527,0.4554,7.6756,13.1392,28.5342,-4.7968,
2.9878,1.6329,-0.38721,-4.8252,5.575,-2.1764,3.2313,-1.0297,1.0016,2.3563,5.2873,-1.6285,20.5557,-4.0271,
3.7724,0.088625,13.736,9.5643,-8.8595,-16.0251,16.5348,-0.96842,5.2798,4.1431,-2.2608,-9.7255,6.3069,-9.0876,
9.3306,-1.363,27.0119,23.0905,-22.428,-21.8125,28.5581,2.4641,5.9274,9.1967,-3.5714,-13.9626,-7.0869,-9.9886,
10.4578,-1.04,39.4912,35.8051,-29.6389,-22.6729,29.9779,2.5575,5.3305,7.9218,-4.5626,-27.2249,-17.026,2.4206,
9.1076,2.1561,31.4578,40.4057,-30.5114,-17.6971,20.2257,0.23465,5.7338,0.45726,-7.4217,-31.2555,-17.2093,5.891,
10.4896,2.5085,28.6063,36.5353,-22.8959,-11.3324,16.1199,0.70273,6.3539,2.3578,-8.9048,-20.7031,-10.8743,-3.6213,
9.1369,-0.77552,27.1304,26.8714,-15.4971,-11.8577,12.983,2.3478,4.2854,7.2775,-6.6833,-17.2917,-1.7862,-4.1274,
2.8043,-3.6208,16.8261,11.7615,-14.0851,-10.1822,3.5277,-1.1673,-0.30979,1.5389,-2.4256,-10.4694,9.4084,1.9051,
-0.49767,-2.199,5.934,4.0657,-6.7323,-2.5816,-3.6741,-3.749,-0.53286,-4.0972,-4.45,2.9325,13.9054,-7.1275,
5.7989,4.6821,0.7579,-0.034391,7.7716,7.2145,-10.6843,-1.5957,-1.4645,-2.8873,-5.6285,8.0595,20.7841,-15.8587,
6.4149,4.8831,-1.2158,-11.1196,18.2721,10.638,-7.6331,0.42826,-4.2692,-1.2678,1.4576,7.5759,33.637,-3.8199,
5.0659,2.6617,-7.8915,-17.2011,20.0681,12.892,-3.8009,2.331,-4.9771,-3.1202,5.7087,9.5317,42.1031,7.4963,
4.7619,2.502,-20.4334,-24.8456,31.8794,19.8313,-12.2495,-0.70139,-8.5349,-5.3431,4.8843,16.6726,46.3259,0.29806,
5.6817,3.075,-25.7151,-35.1653,41.777,25.631,-14.6478,-4.2745,-12.1199,-7.1919,7.2425,25.0724,57.6463,-6.7095,
4.6177,5.5418,-27.3055,-36.1886,48.6701,28.1907,-12.0819,-4.2592,-14.044,-7.0011,7.0487,30.5577,67.5642,0.68274,
-4.5774,-2.7444,-36.5134,-39.079,43.5808,25.7764,-18.8288,-5.6909,-16.3349,-4.4119,4.4566,28.0009,56.039,3.7753,
-7.1953,-4.5079,-40.1072,-43.0007,36.1452,27.1219,-21.5554,-4.8671,-16.801,-3.6652,9.9738,29.6953,51.2304,-0.30764,
-3.3891,4.4396,-31.4342,-39.4564,35.9051,29.351,-11.585,-2.1649,-16.7569,-6.8193,5.519,25.0215,48.1566,-5.5918,
1.6347,8.5118,-20.8713,-30.3403,28.9304,25.1795,-6.0694,1.3392,-11.8953,-2.0721,1.8136,16.2892,31.1672,0.046099,
-4.2477,4.6264,-24.4395,-27.5558,13.0945,14.51,-14.3821,-4.5255,-16.484,-4.3576,3.1508,16.7583,17.3663,4.3819,
-10.5008,0.25147,-20.3221,-17.4668,-1.7911,8.5777,-7.0117,-6.4236,-13.8077,-9.6403,5.131,12.1369,24.2781,1.9498,
-11.3168,-2.174,-5.0027,-2.4392,-6.0224,1.7963,2.5678,-2.1815,-2.8561,-7.1334,-0.47932,-2.6913,21.3753,-0.095601,
-15.2173,3.5003,8.9155,4.2148,2.2929,2.8936,2.6549,4.4571,3.823,1.2486,-1.1737,-2.1681,16.9596,4.9716,
-24.6684,7.3874,6.6936,0.82867,-0.014094,9.2281,1.2905,3.9484,2.3885,2.3787,9.7432,9.2904,17.629,6.3607,
-29.4548,9.3548,1.4717,2.2252,-1.9414,11.0846,-0.71508,1.7833,-0.64732,4.1642,16.8714,12.1074,26.6946,2.1227,
-32.9904,6.865,-3.4375,-0.31866,-1.3428,6.0809,-6.457,0.71224,-2.0545,4.8784,9.11,13.7909,26.0566,1.5132,
-35.8314,2.5965,-9.0161,-8.9769,3.0759,5.7159,-13.3002,2.1155,-3.8597,0.7291,2.2966,18.7482,17.7445,7.6891,
-35.6097,3.4051,-16.6698,-12.2942,10.1226,12.6037,-17.8048,1.5067,-9.8946,-1.7248,7.4615,24.3722,17.6442,9.156,
-32.9912,7.5391,-16.1516,-12.0389,14.8174,16.6678,-16.2546,1.4163,-11.2296,0.30691,10.8702,23.8738,21.8877,7.1604,
-30.2884,8.292,-19.7622,-16.3783,15.1337,19.2831,-16.4846,4.9467,-7.9042,0.047527,-3.0384,16.8977,22.2617,4.5616,
-28.7123,4.6608,-32.3146,-24.7953,21.2153,25.1162,-20.075,6.3369,-5.2611,0.28541,-4.5431,19.981,16.8288,5.493,
-33.0151,0.76618,-44.4757,-37.4076,34.0424,33.9731,-32.9705,-0.068854,-17.2375,-1.4185,3.2013,32.8821,20.8808,7.8145,
-34.6494,2.4072,-55.9072,-49.2632,46.0999,46.0347,-45.0923,-6.09,-29.4594,-3.5028,5.6605,45.0092,33.7279,9.515,
-34.4988,1.2987,-66.6527,-60.4074,57.4339,57.3727,-56.4868,-8.135,-32.9947,-4.7386,14.9621,56.4086,45.8043,10.3901,
-39.6597,-0.70743,-76.7536,-70.8829,68.0878,68.0303,-67.1976,-10.5394,-44.9943,-9.757,27.0798,67.1241,57.156,19.4081,
-49.331,-0.18283,-86.2484,-80.73,78.1026,78.0485,-77.2657,-10.3888,-49.0433,-9.6537,21.5984,77.1967,67.8266,25.4743,
-44.4432,5.1306,-66.9735,-61.7862,59.3164,59.2656,-58.5298,-2.5348,-32.0007,-2.8077,6.2025,58.4649,49.657,9.8458,
-27.6766,11.8126,-48.8551,-43.979,41.6574,41.6096,-40.918,7.0173,-15.9807,3.8682,-8.2697,40.857,32.5776,-4.8449,
-11.916,6.5243,-31.8238,-27.2403,25.058,25.0131,-24.3629,10.2119,-0.92183,7.7337,-14.281,24.3056,16.523,4.8458,
-4.9343,4.4456,-15.8143,-11.5058,9.4545,9.4123,-8.8011,12.7322,13.2335,11.3675,-12.2193,8.7472,1.4316,2.8678,
2.5924,8.9994,-0.76547,3.2845,-5.2128,-5.2525,5.8269,13.8962,26.5395,14.0592,-10.0401,-5.8776,-12.7543,-8.3917,
1.4727,3.1565,13.3805,17.1874,-19,-19.0373,19.5773,12.0984,33.7445,12.7335,-19.0789,-19.6249,-26.0891,-10.7805,
-4.4002,-2.8172,26.6776,30.2562,-31.96,-31.9951,32.5027,12.337,32.202,11.0058,-23.2363,-32.5474,-38.6237,-7.7233,
-0.76175,-4.0942,39.177,42.5408,-44.1424,-44.1754,44.6525,11.5966,27.8595,10.8277,-13.1651,-44.6946,-50.4063,-4.8496,
0.97118,-4.5714,50.9264,54.0884,-55.5939,-55.6248,42.5762,7.2854,22.0906,10.9009,-13.0985,-56.1129,-61.4819,-0.46125,
-4.8719,-2.3692,58.958,64.9431,-66.3582,-52.4076,39.0576,6.3665,20.283,9.2827,-18.0969,-61.9047,-71.893,0.048585,
-2.169,0.66548,53.4923,72.4954,-76.4767,-49.2632,41.5348,10.3229,24.3686,9.6901,-8.3345,-59.1545,-81.6794,-8.149,
0.8532,-2.267,53.1748,64.7712,-75.0214,-43.8972,33.2577,8.7392,17.6039,6.6981,-2.5318,-50.3028,-67.4994,-11.9989,
1.0432,-1.4078,56.0101,55.8235,-61.1201,-32.3451,31.5034,8.456,15.3426,7.5013,-1.1748,-39.3307,-49.3494,1.0138,
-3.1167,-4.4564,46.624,50.7869,-55.7657,-32.5736,28.4084,4.8152,14.663,5.3644,-3.2735,-35.2836,-46.9909,2.1578,
0.20329,-4.9124,41.6569,52.3189,-48.8043,-30.3786,24.0523,5.7311,14.0242,6.2474,-4.2824,-32.4437,-45.3767,1.7874,
-2.219,-9.4379,40.1218,42.4314,-48.7681,-30.0017,21.1629,2.0132,9.3263,4.4263,-11.2558,-34.8354,-45.0642,5.5365,
-2.5681,-6.4617,37.2324,36.0289,-42.9502,-24.3455,19.8934,-0.51793,9.2489,4.161,-5.278,-23.1046,-43.8064,8.5786,
-5.7884,-7.0383,29.6958,35.3129,-43.2652,-27.2231,16.2892,-2.415,12.068,2.465,0.82323,-15.9337,-44.0708,-0.13087,
-3.2717,-7.8206,29.1195,33.9177,-43.3207,-27.2769,17.4812,0.38118,11.5851,7.3786,-0.43123,-15.2184,-38.775,-6.6307,
8.0116,-3.4952,30.2647,30.4362,-31.5626,-18.8918,19.8066,4.6969,9.9259,10.7925,0.55874,-9.9668,-35.0024,-0.93046,
0.05907,-10.7573,22.4228,24.5127,-37.1407,-25.2301,17.4129,-2.5748,9.5713,2.1907,-7.429,-20.6974,-40.8563,2.2589,
-7.1751,-9.1476,21.5598,28.8265,-42.1428,-26.1262,14.9223,-1.456,11.8895,4.4699,-6.5009,-24.2758,-32.6201,1.159,
-2.1653,-4.0192,18.5788,24.928,-29.7323,-19.015,10.4118,2.2465,7.0786,7.3349,2.3251,-13.419,-25.119,-1.5614,
2.0622,-6.4294,10.4744,13.0682,-19.0301,-13.777,5.2076,-3.914,-1.2996,-1.0591,-1.4301,0.16033,-26.7456,5.5219,
0.25125,-4.3568,12.0151,11.0788,-23.9143,-14.6376,5.1361,-3.9202,0.9475,-1.7185,-8.8161,9.0688,-18.151,8.8056,
-6.2718,-4.8183,14.4277,13.5471,-33.3257,-23.1594,8.4429,0.41241,5.4699,0.5538,-4.1897,-2.3216,-11.5183,-3.051,
-0.11065,0.29126,13.0798,18.0372,-18.7924,-13.5749,11.311,4.7262,6.1058,0.52034,2.8108,-10.8592,-8.4169,1.4706,
3.7528,-0.20815,4.5823,11.6523,-5.1314,-1.1907,4.8478,-0.85954,-2.4552,-6.2593,-7.4808,-3.9411,-16.589,4.7573,
5.9378,1.7325,10.0919,8.543,-6.2698,1.2908,4.075,-1.7723,-3.7542,-2.5093,-10.8888,1.598,-22.3421,0.61503,
12.8121,9.8235,17.1994,14.2967,-8.304,-0.71505,12.0249,2.1902,-1.601,-0.91273,-8.7894,-11.9955,-18.5916,-0.38597,
15.6586,7.5471,12.0699,16.0907,-4.6725,-2.8411,11.5446,-0.11015,-2.2276,-3.9912,-8.9847,-19.7116,-18.6812,-1.0859,
14.2371,3.2374,10.3818,14.1609,-2.4639,-1.7067,5.5493,-1.5498,-0.64811,2.0328,-2.6611,-10.3338,-12.2577,-1.0208,
11.6959,4.7306,13.856,14.5163,-9.3057,-0.88121,9.7959,1.6764,3.4884,6.9723,1.5957,-8.0268,-3.0863,-3.6109,
7.8607,4.2058,10.8555,16.7788,-21.0399,-2.9975,13.7879,1.8168,6.8945,2.4566,-1.1511,-12.1249,-13.2655,-5.0814,
5.2199,0.82,2.7324,16.0131,-29.1775,-7.3974,9.8271,-0.94327,5.2755,-4.1987,-4.2155,-15.4948,-26.5695,3.1777,
4.9065,-3.5677,4.4968,15.0521,-27.4269,-7.4353,8.7553,-0.40452,3.031,-1.0545,-6.8549,-19.8675,-22.2033,4.915,
8.9508,1.949,10.0116,16.5595,-14.6938,0.24124,8.23,3.4761,3.813,6.2396,-6.9255,-8.5525,-6.8918,-4.0566,
10.1008,6.4115,4.3495,8.5763,-14.5353,3.3605,4.6029,-0.34808,0.93338,5.1426,-4.3406,0.87891,-13.468,-4.0544,
10.6996,5.3035,3.3651,4.9282,-16.7967,2.9174,8.4241,-2.9783,1.6003,5.0745,-0.46521,-0.37912,-20.1317,2.2144,
11.9863,3.0575,7.502,6.5607,-9.5223,0.81465,4.5447,-2.3177,-0.90586,5.2524,-4.2932,3.0181,-11.211,-5.6312,
9.0975,-0.25939,7.2924,2.0693,-15.9409,-2.8501,-1.2721,-0.9733,-3.985,4.2139,-6.2052,1.6317,-13.6719,-5.0524,
6.3827,-4.341,2.2758,0.74052,-29.0844,-5.8119,-0.9541,0.29016,-5.4329,-0.13603,-5.5917,-10.2761,-25.1434,-0.16971,
12.7484,0.73953,5.5135,5.5166,-17.3363,0.8031,3.4412,1.7188,-0.76883,1.8001,-2.8459,-1.4651,-15.9222,-1.6056,
11.5013,-0.26894,8.075,1.8109,-13.4042,-1.6554,3.2345,-3.6868,3.1339,2.6562,-0.26522,4.8896,-6.29,0.41874,
8.6421,-6.2783,3.4931,0.49741,-17.6612,-5.1711,-2.0208,-2.7427,-2.1158,0.32766,0.95598,2.909,-7.1175,3.0452,
12.2212,-6.1428,-2.7423,-4.1119,-6.7194,3.0927,-6.479,0.073225,-6.0864,-3.3072,0.17549,9.2422,-5.9677,-6.5378,
15.8262,0.010306,-3.542,-7.2397,0.43223,6.7635,-4.1621,-1.8594,-1.3829,-5.0374,1.1293,11.0978,-9.4661,-5.6636,
12.9484,-4.8106,-4.7753,-3.9132,-13.5734,-4.2476,-2.4666,-1.7478,-2.2638,-3.2889,-0.38473,3.2011,-22.9981,-0.021114,
12.6539,-10.3065,-1.1144,1.1423,-19.0251,-2.546,-3.2824,4.1421,-6.9482,0.28334,0.60268,4.4557,-35.7182,-6.2864,
13.3403,-4.8676,-2.0116,-1.8186,-4.8684,6.2832,-7.424,0.5189,-6.0496,-2.6264,4.9046,12.8648,-47.6751,-12.6579,
9.6476,-0.23749,-4.3013,-4.6017,1.2081,5.4245,-3.6044,-1.9226,4.9184,-1.0228,14.7335,22.698,-58.9146,-6.596,
8.1046,-4.5613,-5.4892,-6.736,-10.9158,5.0988,-5.3161,0.12119,0.76714,1.4489,7.5827,20.8544,-69.4797,-8.1282,
14.6084,-2.1187,-5.4011,-9.4651,-8.0914,18.8928,-11.0229,5.1754,-10.1249,-5.6277,-4.6826,16.9518,-74.5902,-11.2561,
22.6498,6.9267,-1.9437,-8.656,-0.61629,31.8593,-10.6023,8.9624,-6.8661,-8.4232,-0.786,18.586,-64.5712,-9.3757,
22.0139,9.6444,-1.5859,-9.8241,-14.3174,43.4453,-15.0276,4.809,-5.731,-8.1591,-1.9439,16.7477,-67.2046,-11.9464,
19.0058,10.271,-2.696,-8.9937,-27.5584,43.4897,-12.4387,3.7976,-5.6286,-6.4642,-4.9608,15.5019,-69.1979,-7.6142,
16.4192,8.2085,-6.8726,-6.5259,-30.3641,39.4345,-8.8003,5.9799,-1.9164,-1.738,-6.1094,15.5356,-56.3692,-4.2648,
18.0854,7.9572,-7.1834,-7.8213,-23.9625,31.5246,-10.4412,5.8623,-0.11397,3.9101,-3.091,21.5936,-38.887,-2.322,
13.6263,3.1414,-2.896,-11.2084,-28.7915,22.8847,-8.8509,2.1361,-1.5534,-1.6272,2.3971,15.9597,-38.3613,0.22795,
9.434,1.9884,-2.7225,-6.6797,-32.3667,21.5114,-4.9456,2.4896,-0.49609,-5.3862,6.1094,6.8067,-33.1675,-4.6067,
12.2424,3.3153,-6.8974,-2.4226,-25.1223,23.1127,-3.6845,4.7508,-3.8408,-0.24227,0.92214,7.3626,-17.0775,-8.6686,
11.0255,-2.1862,-5.5193,-3.2411,-24.579,15.9414,-2.4996,2.0552,-8.431,-1.1921,-7.3279,5.4746,-8.4606,-3.8102,
12.0512,-0.36784,-0.12688,-3.2876,-19.4889,20.0466,-5.965,1.6909,-5.7556,-6.1818,-0.86268,10.6897,3.3753,-0.44806,
15.4257,4.2337,-1.8063,-7.1879,-10.3656,25.8334,-8.2585,4.2408,-2.277,-4.1239,4.7325,12.6997,14.019,-8.8571,
15.7052,6.1491,-2.421,-8.4436,-5.646,24.5246,-3.1834,6.1557,-1.4172,1.185,1.7977,8.8044,11.9728,-9.5307,
10.1834,3.6108,-1.5526,-8.6602,-6.5128,19.4375,-3.2336,1.6888,-1.0915,-0.09114,2.4125,6.1068,15.3516,2.851,
3.3059,-3.3548,-4.352,-7.1767,-11.9066,7.6664,-6.4141,-4.679,-1.9903,-1.05,5.1602,1.4021,24.5534,1.7161,
6.7229,-0.020005,-2.8856,-1.6844,-10.4689,8.4117,-3.8596,-6.0855,-4.0396,1.1826,6.5379,-0.85123,35.8551,-5.8587,
6.5603,2.1501,1.8671,-2.7884,-10.5639,12.968,-1.4591,-6.9255,-6.449,-2.0221,0.1198,-4.4158,33.9445,3.4107,
-1.0637,-3.2811,1.2731,-8.8876,-11.3763,7.3697,-7.6376,-7.4738,-8.4717,-4.3109,-11.4565,-10.4174,24.6775,11.4012,
3.0975,0.048822,2.4016,-6.1852,-0.32984,10.061,-6.9388,-5.8205,-1.9383,3.4196,-3.7793,-4.7311,30.1862,5.6555,
8.2141,0.046122,-0.63482,-5.3319,1.6184,10.9034,-3.6298,-8.8455,1.5527,2.7327,6.5706,3.7482,37.0519,4.352,
4.347,-1.4027,-2.0428,-2.6021,-4.7455,7.3569,-1.9659,-5.4225,-2.3971,-3.2161,2.3198,2.5587,35.7929,15.6603,
-4.8319,-6.3802,-0.23297,-3.6513,-14.8248,-2.0026,-3.0533,-7.7487,-6.3506,-4.7103,-7.2194,-10.3693,26.1735,8.2127,
2.4481,0.028393,2.4323,-0.29848,-8.8737,1.2513,-1.1826,-5.1144,3.9126,6.4183,1.6496,-6.6134,34.9672,2.6585,
7.3622,2.678,-3.2575,-1.968,-5.208,4.3094,-1.8348,-4.0844,5.3648,5.7925,5.6482,-9.3498,38.895,7.5605,
7.4026,0.58891,2.2409,-0.88539,-6.8235,2.6048,2.1314,-0.94705,4.0788,0.62446,2.4171,-16.0195,33.669,5.6608,
5.2713,-1.6156,1.8655,-1.5556,-9.5476,-2.6131,-7.3964,7.5459,-1.2271,-3.9927,-4.2359,-12.8891,35.2643,-6.489,
1.3396,-1.2777,-1.38,-5.5596,-12.1082,-5.5898,-12.0143,21.1932,-3.3231,-2.066,-5.187,-9.4647,36.7634,-6.823,
-0.18684,-0.71886,5.9334,-3.78,-8.9713,-4.7723,-5.9906,31.1293,-0.23099,0.95029,1.3914,-10.3428,29.7375,1.2994,
-5.2371,-6.2191,0.51599,-6.6865,-9.6381,-9.5474,-15.5133,15.1615,-2.8685,-2.7219,-0.86149,-6.589,25.302,1.4626,
-3.4768,-7.2925,-5.2993,-6.2851,-8.0957,-6.5642,-16.0286,0.15182,-2.6966,-0.14825,-3.2202,6.8215,33.425,7.6412,
-4.2323,-4.4446,-4.4997,-5.9082,-1.8256,-0.86792,-13.6208,-13.9573,-5.909,-3.996,-5.4373,5.9301,40.5783,9.593,
-8.7986,-0.32149,0.1091,-2.1792,-1.7156,-1.7802,-10.3934,-7.6972,-0.73375,-4.7205,-0.77229,-2.1381,45.3745,4.6791,
-11.1632,0.17973,-4.7182,1.326,-7.8797,-6.976,-6.8773,-7.7173,1.238,-1.5448,1.6842,-2.4922,35.4212,-1.3862,
-1.3342,1.6154,-6.363,2.6924,4.6444,-1.7365,-6.9468,-7.7364,-3.6568,-0.96993,2.5472,6.3342,26.0648,1.1073,
5.0124,5.3749,0.28526,3.4952,8.7041,7.5263,-8.4582,-5.344,-2.955,-3.8043,3.3583,6.9185,32.2142,2.9691,
-4.2064,5.2929,-4.7935,2.5621,-5.0746,9.7262,-13.4943,-3.8181,-1.0909,-3.817,0.50567,-0.48648,41.6091,2.0676,
-10.9434,-3.4599,-12.4597,-0.72462,-0.19033,-1.2212,-13.4076,-5.2762,-2.2303,-3.347,-3.1401,-4.0727,39.8359,5.077,
-5.4666,-7.5911,-8.3381,3.1748,13.9211,-15.1277,-6.3366,-6.8879,-2.0965,-5.0744,-4.3979,0.99191,27.3224,7.6645,
0.16406,-5.2074,1.8036,9.7332,27.1858,-18.5588,-0.17183,-4.0645,-0.042474,-2.8417,-3.6521,1.4148,22.791,6.7227,
0.87734,-9.4745,4.3467,11.8005,38.5699,-23.9525,6.3462,-3.5794,5.0215,1.9083,0.66457,-12.7701,21.6647,3.186,
2.5119,-6.2545,2.3987,17.6004,42.7636,-27.577,11.509,-4.0875,12.192,7.8194,4.2401,-17.668,25.9084,3.2358,
0.19182,-6.1204,-1.3609,12.4468,36.1002,-26.1636,7.6852,-7.4579,6.881,5.1813,-0.5938,-4.7976,27.9691,2.3186,
1.1442,-9.1276,1.6133,8.3256,38.2725,-19.2912,5.2959,-6.0466,2.6118,1.9779,5.2264,0.31055,29.183,2.1794,
-1.5753,-6.893,1.2753,10.4774,36.6993,-21.7489,4.255,-6.8884,3.6601,-1.756,6.6003,-6.2158,24.7812,-0.12025,
-4.1324,-3.8278,2.4041,16.3562,20.3973,-25.0237,8.5795,-9.6086,10.4304,4.3749,2.5888,-8.012,12.448,6.8764,
1.177,-8.1777,3.9468,12.2416,18.812,-19.4247,6.8592,-10.7195,9.0814,11.1021,0.74605,-4.88,9.0498,10.5614,
2.5527,-12.5077,2.2642,3.7943,24.4322,-16.331,5.0018,-10.0759,2.752,9.4721,1.1837,-4.1052,11.8813,1.733,
-2.6617,-11.5158,6.7077,10.0746,9.228,-24.7512,13.1374,-9.7123,11.9868,7.2165,-0.57456,-16.6329,9.9631,0.42372,
-0.81525,-8.6562,6.0642,13.0851,4.5765,-26.8815,8.2518,-12.7454,13.9187,4.6139,-0.29912,-16.8402,10.5706,4.4956,
-0.28417,-10.5467,1.8438,1.6949,11.5325,-15.1455,1.49,-11.9805,5.853,10.1219,5.5032,-2.3322,6.0798,3.7437,
-0.98979,-11.119,6.3131,3.2807,11.5641,-11.1035,5.4981,-6.2002,8.1531,14.5765,5.4142,-0.022909,5.9562,-0.578,
4.3718,-5.1492,8.8264,13.6891,16.6549,-12.3655,7.5784,-1.9718,13.9309,10.8094,5.0893,-2.4321,19.6988,-2.4715,
4.1097,-4.3585,5.4045,7.083,16.1373,-10.1771,8.5697,-4.7458,8.2746,5.3403,5.2661,-3.7322,18.3964,-1.3591,
0.72964,-4.338,5.3212,-1.7781,12.9999,-7.3977,7.8146,-8.5584,1.7521,5.2609,4.2268,-1.8211,5.482,3.3017,
-0.27824,-5.0418,6.9304,1.2208,16.5584,-7.9175,6.3816,-9.009,5.9855,5.4274,2.5272,5.5188,11.9023,2.1395,
-1.2259,-8.5957,-0.23437,1.63,22.7958,-7.4429,2.1423,-10.8786,4.1801,0.76297,2.3755,7.5978,24.2031,-6.1836,
-0.91112,-6.8749,-5.2818,-3.5297,24.0794,-2.4168,2.7369,-9.0208,-0.16826,0.47645,7.2945,3.0444,23.9564,-8.9458,
-1.8205,-5.0164,-2.0726,-2.8358,13.9573,-4.6822,6.4288,-7.9978,0.80593,3.3402,3.9645,-0.99446,13.3598,-5.9992,
0.45807,-4.9561,3.1132,7.2165,7.0945,-7.534,11.105,-6.7944,2.445,7.7193,-3.7449,-2.1399,11.3536,2.3148,
-4.8723,-9.4797,2.4443,4.8551,7.1505,-9.9747,8.9922,-8.3151,1.8162,4.8453,-4.9667,-2.9756,6.8153,3.14,
-7.2313,-6.2591,0.61063,-2.4258,13.7116,-7.6888,0.01725,-8.5394,2.9123,1.9037,-0.57115,1.3006,2.7912,-1.6279,
-0.77185,-1.7862,-0.6313,-0.59306,12.1656,-2.1663,2.1849,-3.9297,2.9785,3.9586,0.66841,-1.429,8.1673,-2.2532,
1.9258,-2.8841,3.5042,4.9864,5.4103,-6.1334,10.9721,-0.078223,6.8974,9.265,1.8334,-5.9228,12.2568,0.050948,
-3.2514,-2.4701,1.1243,2.9995,8.2187,-9.8632,4.7702,-6.0995,4.7963,6.5395,1,-0.023824,7.906,-5.0138,
-2.3325,1.7755,-4.0044,-2.2417,13.7516,-2.2811,1.3509,-9.3485,0.41117,1.0859,-0.26483,2.6292,0.4422,-9.2918,
2.1453,5.0434,-1.8359,-1.1433,12.926,1.7117,4.6439,-2.5211,0.86843,2.4665,-1.6952,-3.7956,-1.513,-8.7347,
2.4987,4.2586,1.1665,-2.0388,15.0428,-3.2115,0.99102,-2.852,0.81655,5.6932,0.81687,-7.424,6.2908,-8.6928,
2.349,2.0747,-2.2777,-3.8445,19.925,-5.4292,3.8238,-8.9476,-1.1609,5.3514,4.1421,-7.4607,8.3237,-9.1353,
-0.2025,4.8427,-9.3719,-6.5063,19.6938,-0.28269,2.6301,-6.4826,-5.9115,-1.7181,-0.9267,0.21777,-4.7092,-11.9612,
-1.1542,7.4447,-3.9889,-2.7415,10.7994,-1.2296,1.9904,-2.2372,-3.6286,-0.65119,-3.7636,5.9893,-12.1394,-13.1717,
-2.29,1.9361,0.82954,3.9307,-2.1413,-8.6279,4.5223,-4.2724,0.68626,2.0392,-3.779,-2.324,-6.3496,-13.1046,
-0.22466,4.2303,2.7082,6.5872,4.7363,2.4949,2.3225,-0.15942,1.6092,6.7373,1.7506,-3.1487,8.1314,-7.4978,
-1.416,5.6637,0.37654,-0.79748,12.4059,1.6223,1.9422,-1.3547,-3.0667,0.78948,2.3685,-8.021,7.282,-6.807,
-2.5361,2.6725,-2.2974,-3.401,12.3847,-12.5751,5.4413,-10.1917,-6.4979,-11.5502,-3.7989,-13.0836,-2.5547,-6.1574,
-4.0716,-3.5134,1.9378,0.41807,5.1337,-18.9309,3.9095,-13.1956,-1.0468,-8.688,-6.7045,-11.5757,-8.4274,-4.5831,
0.51121,-2.3385,11.4627,9.5522,-0.95872,-19.2411,8.4954,-7.101,5.2828,1.4745,-1.4817,-15.7016,-8.4034,-1.8977,
-0.0013938,2.1402,8.8468,11.3892,-0.9012,-20.9789,11.8421,-8.6031,-1.7831,-1.5065,-2.8391,-24.8824,-10.3098,-11.4248,
1.4449,4.9043,9.2798,11.1878,2.0449,-10.0794,15.4699,-8.5693,2.1803,0.51207,-0.74056,-14.7128,-12.5833,-13.6319,
0.39416,-1.6567,6.3132,4.7322,0.95814,-7.0643,4.901,-9.9832,0.60344,-0.00036122,-5.5166,-6.1171,-10.8642,-8.4754,
-3.4857,-2.5214,2.5601,2.0379,1.3828,-12.9067,0.75075,-9.8659,-7.1453,-4.3389,-7.1136,-12.0163,-4.4275,-2.664,
-2.5536,-0.20097,6.5039,2.639,4.9153,-13.3376,5.285,-10.4792,-2.6192,-6.2477,-1.1431,-17.8033,-12.598,-6.1196,
6.2765,2.2214,11.4156,8.265,8.4765,-7.7169,9.306,-9.8507,0.43021,-0.57044,0.85341,-9.5045,-19.0732,-5.7526,
10.4794,6.1857,14.8287,17.1693,2.4245,-3.1563,14.7739,0.62252,-7.0672,7.4178,3.4535,-3.8723,-12.385,2.5465,
6.2352,5.5732,10.3231,10.1132,-0.37203,1.6124,7.8614,1.79,-20.7432,4.8035,3.9692,-8.7016,-7.0626,-6.0424,
4.4151,2.8289,0.062993,-1.5806,6.8809,0.55154,-0.8052,-9.4044,-26.8503,-3.1977,-0.1251,-4.8053,-8.5668,-9.536,
5.1143,2.6589,1.5052,1.8884,5.022,-4.784,5.0279,-12.6963,-20.9008,0.8508,-1.0817,-0.66038,-11.9094,4.0513,
1.1918,4.1864,1.6557,-1.3581,0.62311,-5.7025,3.5207,-8.3193,-21.8159,2.4867,-1.258,-3.7545,-7.0973,-5.5915,
-3.459,3.6942,-6.8793,-14.0511,11.432,-1.7449,-1.7517,-4.2047,-23.1583,-3.2061,-2.8697,0.56815,1.2823,-14.1741,
-3.0108,0.82171,-13.4562,-13.9312,15.3256,5.3499,-3.816,-2.2655,-18.1531,-2.7725,-2.9383,9.4524,3.3748,0.77633,
0.30338,1.0134,-13.8541,-13.8182,14.1651,9.6082,-6.7201,-3.3344,-17.7873,-1.8833,1.8173,13.9469,4.8595,10.2502,
-0.67915,2.3984,-13.0229,-20.2199,27.4152,10.9599,-5.353,-4.0986,-18.6482,-3.6985,8.9391,16.4841,18.6679,0.47619,
-3.7717,1.0494,-15.8567,-22.14,36.4956,11.0254,-8.1651,-3.6115,-18.2525,-6.6098,7.6796,19.5926,31.6479,4.0628,
-3.5454,2.9146,-14.4234,-17.4376,30.9314,12.2921,-8.1576,-1.4671,-12.3366,-4.285,5.2907,20.3453,17.2153,10.086,
-3.0914,4.9091,-13.7987,-15.1858,28.8348,10.8314,-4.5344,-0.17354,-11.3552,-0.89467,5.6963,12.1349,7.2645,2.4912,
-2.906,2.204,-16.8276,-22.4698,23.2478,12.1098,-4.2628,-4.9838,-18.3871,-2.7692,3.4264,3.6936,12.1313,-0.068853,
-4.4188,-1.5432,-13.6488,-23.7727,19.6838,16.4448,-4.2475,-8.3002,-17.0429,-3.8083,2.0155,3.7134,8.7523,4.515,
-5.6,-2.8969,-13.7938,-18.49,29.59,13.0476,-10.2597,-7.3203,-15.056,-7.4362,1.4126,5.4183,9.673,-3.951,
-3.5765,-0.55365,-12.7249,-14.7293,29.5021,6.7213,-4.5826,-0.85529,-9.5732,-2.4105,5.9074,10.6371,22.8312,-2.9909,
-7.9414,-2.6898,-12.6846,-18.907,13.6319,6.5588,-0.69203,-5.3835,-8.758,3.2775,5.3118,12.6502,13.0254,8.517,
-6.742,-3.2513,-15.057,-20.906,16.309,18.9402,-12.4606,-10.1217,-14.74,-1.4984,1.3776,13.5784,-1.8561,9.2113,
7.6418,6.5847,-8.369,-18.2054,23.5251,31.9038,-16.0518,-0.35583,-13.3737,-5.2649,0.3311,18.0663,-12.4703,4.8018,
20.922,20.2896,-0.87697,-16.8721,15.6061,44.0895,-8.5807,7.6197,-12.3299,-3.2618,-4.2681,21.0797,-5.2142,4.2732,
26.6566,24.7366,-2.5116,-14.1726,14.9107,55.5442,-5.4143,6.4396,-10.3852,-2.8251,-9.5556,15.2356,-4.6603,4.7397,
33.7338,26.1444,-3.3248,-10.9121,21.2469,66.3115,-8.9463,8.9453,-7.352,-2.6556,-7.0541,6.1263,-2.9345,4.4553,
45.4484,35.4218,2.9001,-6.6417,25.0336,69.3225,-5.7582,15.3982,-7.634,-3.7013,-5.9081,6.9638,-10.7124,7.3212,
47.06,37.1531,5.6183,-7.2073,27.3877,69.5012,-0.59224,14.9565,-5.2475,-4.4434,-7.964,6.5462,-24.1696,9.2923,
39.175,32.2726,3.5942,-5.0879,21.6473,66.5367,-3.2076,12.8541,-0.8351,2.8133,-0.978,4.4664,-16.0913,10.4218,
25.978,19.4898,-1.2009,-6.952,6.2485,48.4445,-7.5951,7.0209,-5.8469,-0.0072396,-2.6068,-1.3454,-8.6181,7.1451,
25.3836,18.3204,3.2094,-2.6785,-2.4421,41.5605,0.57339,8.0459,-4.0498,-0.97067,-5.3429,5.4838,-12.4398,9.609,
20.7273,20.3549,3.74,-1.3122,3.2483,43.1649,-5.0044,8.7687,-5.9758,-0.67124,-8.1551,10.6986,-10.9698,8.3093,
11.7709,14.7948,5.4438,-0.75158,-10.444,36.2362,-7.1143,9.6884,-7.5454,-1.1134,-4.2918,5.7184,-11.2759,3.4724,
6.2437,5.7122,3.6711,0.73955,-23.7973,25.3852,-6.6876,7.661,-3.2365,-5.3851,-0.66008,7.7852,-23.615,-0.59255,
3.4594,3.9236,2.9689,0.21324,-22.8509,22.4158,-9.6604,5.7551,5.1528,-3.1333,1.7901,17.4414,-20.2695,7.1558,
2.0466,0.55474,7.3701,-1.0048,-29.4341,15.5272,-6.9116,0.83051,5.0846,-0.29425,-0.004521,13.7438,-6.2793,7.9317,
1.2007,-0.20168,8.1329,1.7068,-31.7652,11.4623,-8.1844,0.057553,1.6463,-0.51779,-2.1732,8.3397,-5.6613,2.8763,
-5.3791,-3.8048,6.4399,2.3275,-32.9925,8.6057,-9.3803,4.1517,4.6808,-0.24553,-3.7302,-0.5966,-19.4217,3.9088,
-5.5385,-5.023,14.7304,7.9726,-34.8696,8.571,-1.1049,9.205,8.2561,-0.71296,-2.0604,-7.7919,-19.8229,4.1564,
-2.0729,-3.0346,19.8719,14.9659,-38.3212,7.8156,3.5409,9.8578,8.9658,1.4987,1.1965,-5.155,-11.1619,-2.1187,
-4.8406,-4.7803,17.2338,17.4424,-45.6629,1.0801,2.3646,8.7844,11.8023,5.7476,2.089,-4.3637,-23.0257,0.41851,
-10.3348,-8.8322,10.4152,9.6469,-48.7077,-2.8411,-5.9725,1.0265,6.2739,-1.8281,-3.339,-9.4046,-23.5724,6.6604,
-13.5713,-11.1941,10.7543,9.0683,-53.9797,-3.6347,-5.6139,-0.96309,1.5589,-7.0208,-6.5129,-8.3581,-20.7115,8.6711,
-12.7568,-10.5227,15.4115,20.0932,-64.2388,-13.0578,-0.45658,4.3971,0.50128,-3.2254,-13.3532,-7.3745,-33.5688,4.7762,
-3.7967,-0.7323,24.6102,32.3854,-51.2252,-9.3818,9.2118,10.3998,7.2201,4.199,-6.7669,-6.932,-45.6547,1.5975,
0.046313,1.4806,31.5695,34.5394,-38.7519,-1.8293,12.2747,7.6064,10.884,5.1521,2.5569,-13.0238,-28.8154,-0.18578,
-0.92033,2.3561,29.1929,35.8415,-47.0321,-4.612,6.7175,5.7038,5.4103,0.022292,-2.4172,-16.5811,-15.638,5.128,
-3.5164,0.5277,26.7187,39.2348,-58.3102,-15.6633,8.0015,8.4953,4.8449,-2.6299,-10.7081,-21.6116,-28.7998,3.1333,
-6.6797,-5.2888,30.8999,39.773,-63.6089,-22.9184,9.4498,7.5034,6.4822,-1.0261,-12.9579,-32.3662,-41.1718,-2.8395,
-7.002,-4.7303,30.7334,38.5917,-60.0331,-21.3021,6.2315,5.8481,7.2988,-1.6877,-10.9749,-32.5934,-45.6909,3.8386,
-5.1359,-3.4823,23.1045,34.8302,-52.0928,-21.9524,2.4834,2.6049,10.717,-3.5144,-10.7986,-26.2995,-36.201,6.9825,
-2.6583,0.82418,25.3339,37.8018,-46.7981,-18.9478,5.4676,6.0643,15.6178,0.79363,-8.4636,-21.588,-35.7159,3.4303,
-11.6581,-0.18982,28.152,36.9797,-52.1851,-22.6314,10.9244,6.6641,12.2704,-0.21808,-7.9558,-33.7903,-36.9474,-2.0779,
-8.3073,1.991,32.0067,41.2687,-36.7617,-25.3711,20.6326,9.8799,19.0058,4.3745,-0.48883,-41.1629,-23.4026,0.69807,
-2.5062,2.3534,26.2299,38.7925,-21.5406,-26.259,17.9488,6.877,19.7936,8.9328,-1.9055,-35.8006,-19.5879,2.5844,
-5.7303,-3.09,15.4971,28.2703,-24.5865,-22.7553,9.641,2.1256,12.3395,6.9505,-3.7194,-23.0475,-21.7871,5.3214,
-12.6168,-6.761,9.2646,15.9688,-18.2908,-16.5692,-0.096455,1.5161,9.189,1.7132,2.2884,-18.7724,-6.3798,4.5202,
-13.3059,-5.8731,11.1191,11.1545,-8.5163,-12.2008,0.87343,2.8716,10.0837,6.9129,2.6332,-22.4665,8.103,3.2849,
-11.0619,-9.3778,1.2927,5.1823,-8.4877,-9.0589,1.3032,-1.6397,7.0683,4.5697,-3.7915,-11.4778,7.8575,2.6056,
-9.1929,-7.1279,-12.8849,-7.903,6.1216,3.2952,-11.0675,-2.2642,0.61865,-2.212,0.051388,3.3109,6.1812,1.7264,
-16.3541,-6.6998,-13.6783,-16.5879,10.6955,3.5794,-14.7418,0.76417,-2.7929,-3.0436,2.9404,14.8021,14.4875,1.6228,
-15.6141,-5.0932,-6.3499,-6.6748,1.6176,-2.1792,-1.565,3.8516,5.3286,3.1648,1.5589,5.4781,18.1973,5.1406,
-9.8563,-7.6794,-12.2356,-5.7921,8.2695,-2.5301,-0.025066,4.5846,8.8655,2.9751,1.9475,14.7906,19.0339,0.011684,
-18.9061,-13.4854,-21.6246,-19.5446,14.522,-5.2711,-10.6286,17.8066,-1.3076,-6.8446,2.3124,13.421,12.107,-4.8095,
-19.6999,-10.2662,-20.3272,-23.0717,15.5789,-3.0261,-12.401,30.8382,-7.4957,-8.3621,4.1023,5.3849,7.5242,2.228,
-10.8054,-8.6861,-19.1073,-19.2775,18.0183,0.52965,-7.8008,14.8882,-2.7078,-4.9681,1.4458,4.0977,8.0369,2.0941,
2.8583,2.9223,-8.3199,-7.5156,31.0372,10.6212,1.3443,-0.10513,6.1317,4.971,2.3234,8.1906,19.6062,-0.4417,
6.7844,5.8802,-7.58,-8.2697,39.4189,8.7784,0.05861,-5.5219,-3.1545,-4.2451,-3.3599,-1.7011,5.1732,-2.5846,
20.4774,14.9274,-5.9199,-7.0501,51.1537,11.3852,4.1524,-1.5752,-4.652,-7.1239,-2.4349,0.57017,-7.9112,-1.2242,
33.3487,28.1318,-7.2517,-7.8327,62.1845,19.6199,3.1802,3.5808,-8.4704,-7.9015,-11.2071,-0.6691,-2.8575,-11.9968,
45.4478,30.1798,-9.9501,-17.2446,72.5534,18.6837,-1.108,17.4659,-20.7367,-21.5274,-24.6347,-14.729,-16.786,-24.0514,
56.8209,39.4564,-6.9427,-19.1022,82.3002,20.4554,-0.077417,30.518,-27.6869,-31.9254,-34.3639,-27.9452,-29.8788,-23.5725,
67.5117,51.189,-9.1775,-19.1612,91.4622,31.038,1.1323,35.6767,-33.4978,-40.374,-40.7384,-40.3685,-42.1861,-28.1839,
77.561,62.2177,-7.4218,-18.7346,100.0745,43.2757,1.7875,29.4386,-32.211,-40.1209,-46.2481,-51.3235,-25.5549,-37.3393,
87.0073,72.5846,-2.3972,-15.9233,108.17,54.7792,-0.006992,39.9648,-26.6629,-30.7238,-36.0014,-34.1441,-9.9216,-29.073,
95.8869,82.3296,-2.2531,-17.3783,115.7798,63.7849,2.4038,36.6028,-26.0273,-26.9524,-25.6464,-21.8518,-10.17,-14.3134,
104.2337,84.379,-5.4924,-20.6739,122.933,62.368,6.5979,29.104,-28.322,-32.0842,-27.0001,-23.9152,-14.38,-13.4546,
103.8845,81.9676,-7.3322,-22.5667,129.657,62.2411,9.3353,30.0091,-27.8278,-30.8818,-24.1746,-22.721,-10.8659,-17.2268,
95.7234,77.5317,-7.8559,-20.731,135.9776,60.435,13.1137,30.1365,-20.8557,-19.8701,-18.8679,-17.0192,-6.8397,-13.7829,
87.5697,72.3981,-9.7949,-17.0768,141.919,57.773,12.3271,28.8104,-14.3019,-13.8574,-14.8436,-12.1419,7.6707,-10.0636,
77.977,62.2694,-9.2075,-17.4982,147.5038,50.932,10.141,30.9384,-8.6233,-9.1693,-2.8655,-8.5211,21.3104,-7.0494,
68.4781,57.0869,-11.0651,-19.3409,152.7536,45.9479,11.4607,31.4923,-0.39314,1.0218,7.9113,4.5237,29.4318,6.3889,
55.2106,49.8056,-12.3292,-19.144,157.6884,46.5657,10.2914,33.4593,4.9333,7.2272,7.9188,18.3523,26.2199,16.6107,
37.798,32.7172,-18.5793,-25.4672,134.85,29.6717,-0.2085,26.3901,-0.42436,-0.19629,4.7925,26.5306,26.3339,8.6246,
21.4301,16.6542,-20.3566,-25.8674,112.659,13.7914,-4.5343,20.9503,-1.8447,-0.18451,9.8076,28.7952,35.3592,7.6252,
6.0443,1.555,-24.4383,-30.1004,91.7994,3.323,-6.6724,16.3188,-4.1446,0.30849,2.9522,29.4776,29.8627,6.2034,
-8.4184,-11.9152,-23.9357,-30.7042,72.1915,-0.73302,-6.7542,13.4117,-3.8957,-0.67411,5.6678,26.2629,22.2866,11.1336,
-22.0133,-23.7336,-23.4636,-27.416,53.76,-14.789,-12.1333,5.8584,-5.108,-1.1154,15.9328,27.5794,21.9135,9.5015,
-34.7925,-27.1303,-15.3074,-14.6838,36.4344,-28.0017,-6.1031,11.7734,8.2135,9.5564,20.279,36.53,17.2242,12.3058,
-46.8049,-39.6024,-16.5578,-11.6334,20.1483,-40.4216,-7.9059,10.8258,8.4442,7.7779,9.1806,25.4203,2.9346,13.2549,
-58.0966,-47.7109,-13.8774,-10.6946,4.8394,-46.3115,-6.2264,8.4892,9.1422,9.9626,18.0295,26.546,16.8585,21.3775,
-68.7108,-47.9817,-15.2139,-13.1864,-9.5509,-49.0764,-8.9863,4.3645,7.8708,8.1595,23.9376,31.9431,23.9212,16.4794,
-78.6882,-48.477,-16.2295,-12.8774,-23.0779,-40.8294,-11.3395,5.5486,7.8807,11.5266,19.6091,39.6677,16.7012,13.5622,
-88.0669,-51.5942,-14.0506,-10.8992,-35.7932,-41.031,-5.5976,7.867,12.9512,18.789,21.5658,47.1698,12.5658,20.2205,
-90.1342,-48.2573,-12.4845,-6.6301,-47.7456,-45.0768,-5.0206,11.4926,15.7898,18.8667,25.8152,48.4367,17.8377,25.515,
-90.27,-48.0132,-20.6532,-11.7757,-58.9809,-39.7209,-12.1909,7.6698,12.1911,9.2988,20.6511,38.0589,23.757,20.8509,
-86.3001,-48.9888,-15.5577,-11.0691,-69.542,-29.1429,-5.193,8.6554,20.1363,9.7047,24.2323,38.6675,33.4188,20.0817,
-80.8806,-50.6292,-13.9013,-9.6821,-79.4695,-27.6353,-5.6047,5.485,19.6514,11.2916,26.8762,42.8554,27.3164,23.4561,
-78.9205,-45.1811,-14.5133,-11.9934,-88.8013,-27.9052,-5.2682,0.81732,15.5796,12.5425,30.0841,39.8019,19.4106,30.7256,
-76.3542,-40.3009,-12.4374,-12.9608,-97.5733,-28.4002,-7.1215,1.9733,14.4041,10.5849,29.0022,41.9933,32.346,27.677,
-71.291,-41.2573,-10.7268,-8.3268,-105.8189,-25.7319,-7.1762,8.1215,17.8782,12.3599,23.8876,53.453,38.7204,27.9446,
-71.8343,-44.0847,-11.0478,-8.7917,-113.5697,-26.1164,-3.3714,4.7419,18.7339,16.9208,24.3823,49.7636,24.8278,28.6783,
-67.524,-38.5471,-14.2413,-12.1206,-107.4787,-21.175,-3.1691,-1.3272,14.2354,16.8698,32.0784,52.5624,31.0514,23.1012,
-61.7853,-38.4034,-17.0022,-16.4546,-102.7172,-18.2172,-5.1481,3.8141,11.6941,14.1704,32.8048,60.2549,36.6596,19.5455,
-60.0066,-40.4378,-14.0537,-16.4314,-105.7132,-19.5346,-8.6958,7.9233,13.4028,16.2125,28.9085,59.5319,42.655,20.3012,
-58.0932,-36.8065,-10.0772,-12.3123,-100.0933,-21.4958,-6.4866,-6.6521,15.7319,17.4087,31.7535,55.2369,43.7114,19.3243,
-51.2332,-28.3311,-5.1338,-2.4145,-90.713,-18.7597,5.4717,-20.3529,22.0188,20.221,36.1153,46.6205,30.4838,25.8776,
-47.1951,-24.2211,-3.3795,-1.7877,-87.1987,-19.0804,7.0716,-33.2318,18.7695,18.0434,28.6457,35.6281,32.0288,26.7351,
-38.0969,-19.3936,3.0895,-3.6084,-72.3258,-13.597,7.6114,-29.1889,16.1973,18.4068,27.4087,47.5904,44.2071,23.203,
-32.4369,-16.3016,2.9044,1.9105,-61.7197,-7.4788,7.6369,-27.4374,15.2252,19.7128,26.7283,58.835,38.5419,18.9181,
-32.9008,-17.2517,-2.5725,5.1703,-65.2471,-7.512,7.1787,-25.3092,11.9016,19.4943,22.2325,53.1357,35.2655,16.3372,
-32.6139,-16.4575,-4.5873,-0.6835,-52.8964,-6.3384,6.507,-23.5497,10.4641,16.1555,24.514,41.0295,47.2496,12.2235,
-30.6571,-10.6498,-4.3121,-4.9813,-35.6226,-4.5118,6.1166,-26.475,8.8724,10.3655,31.2379,41.4602,49.3556,7.6337,
-32.4331,-17.0007,-10.5613,-10.226,-36.2571,-13.1592,2.6161,-17.4147,3.2784,4.1999,24.7838,36.3211,35.548,5.4884,
-29.5226,-23.2113,-16.6763,-16.8431,-35.5277,-9.4773,-2.8433,-2.2698,2.1176,9.2508,16.0662,34.142,47.5151,15.7647,
-33.5362,-27.6032,-29.1731,-29.9325,-21.3449,-2.1598,-13.278,7.3868,-6.2042,4.357,10.7639,25.827,50.3283,16.7465,
-35.3805,-28.8395,-35.6174,-36.211,-12.8334,1.3442,-11.9994,-7.1564,-8.2421,-1.689,14.4564,23.795,42.0059,6.5827,
-22.4114,-21.5651,-30.3469,-27.048,1.193,14.52,-4.7715,-20.827,-0.27573,6.3665,25.8815,36.4673,53.5856,14.1419,
-21.0667,-20.7536,-34.3111,-39.5251,15.2214,20.8792,-12.6803,-33.6774,-7.0081,5.0202,23.8462,47.4154,64.4704,20.0419,
-23.1771,-17.5802,-34.1806,-44.7464,26.239,19.1445,-7.5807,-35.3929,-9.4801,2.7908,19.5234,30.4705,68.7969,12.0909,
-28.0533,-22.3097,-31.1657,-36.277,12.1314,5.4626,-2.3054,-35.6792,-11.3212,-1.2333,11.6033,20.0856,50.5691,-2.1321,
-17.2108,-23.3815,-16.2805,-20.0004,-2.0941,4.6526,4.5816,-31.6105,-4.3757,5.1075,11.3888,24.6653,38.4966,2.3343,
-4.609,-11.3733,-3.2522,-5.9054,-7.2711,12.0867,9.6093,-21.0367,4.082,9.6217,14.5623,16.9189,32.8128,2.1943,
-9.6353,-5.8709,7.548,1.6795,-19.3681,1.2379,14.3352,-20.2567,8.6576,6.6341,10.7963,1.8037,16.7441,-3.7222,
-11.4671,-11.7849,21.1951,15.6788,-32.306,-12.9364,21.67,-21.9336,12.4767,8.164,5.3276,-8.3071,1.6394,3.7318,
-3.3075,-19.0318,25.8287,26.4279,-44.4676,-26.2602,17.7185,-21.3407,7.1481,4.059,-2.9456,-7.086,-12.5589,0.3746,
4.8451,-15.7202,22.5918,26.5295,-46.861,-24.9251,20.2708,-18.855,7.925,1.1643,-4.4561,-9.3115,-23.4955,-8.5655,
5.2771,-12.6081,22.4413,23.7326,-39.4701,-23.6708,18.3314,-22.7856,0.94132,-3.9674,-8.2863,-22.4918,-31.0036,-13.1135,
1.586,-19.0825,23.0231,20.3805,-40.9583,-35.7483,8.0725,-27.203,-6.346,-11.4422,-11.1636,-35.2423,-41.1949,-18.1112,
-11.5243,-30.4708,21.6419,21.0856,-52.6008,-47.7034,7.5884,-27.0169,-3.0725,-14.6118,-16.2781,-47.2278,-45.9539,-16.5424,
-16.1353,-33.9454,19.8612,28.9793,-63.5447,-49.5412,10.0249,-25.3961,-1.4421,-9.8789,-21.5682,-47.5276,-45.125,-12.1756,
-8.6597,-30.7034,18.4286,27.9639,-55.3935,-47.2917,3.3979,-29.4155,-4.0071,-10.9734,-17.1406,-45.3988,-41.2123,-21.327,
1.2604,-18.9788,26.2409,26.0451,-37.9699,-42.2845,4.8817,-25.4814,-0.63322,-11.0379,-7.1941,-38.5771,-25.9651,-20.2884,
-5.3234,-19.5275,23.9429,28.58,-41.5967,-42.8812,9.1678,-25.64,-3.2466,-11.5807,-16.6446,-44.2164,-32.8431,-17.866,
-0.42428,-13.7761,30.4605,40.9652,-42.2342,-33.8004,19.9464,-17.1112,5.8663,-0.52153,-15.405,-39.8762,-40.2725,-12.2143,
5.1448,-7.8883,32.7302,45.1354,-37.531,-29.1213,12.2417,-13.9159,5.7553,-0.73166,-12.7934,-33.8682,-39.5434,-11.2405,
6.2821,-5.9685,36.5512,49.6579,-41.0637,-32.1942,16.3277,-11.1525,9.7485,0.75872,-12.508,-39.5491,-36.6886,-4.2993,
8.0744,-4.8878,44.2399,58.0064,-46.0719,-35.8064,29.448,-3.9759,20.0096,9.1486,-11.0344,-45.6121,-40.5131,-1.8724,
6.626,-6.0403,43.032,55.4906,-44.2715,-37.0323,22.0173,-6.147,16.8811,4.7436,-14.7109,-38.5368,-52.1823,-8.0264,
11.2897,-3.5089,43.1011,55.7766,-37.5178,-30.2308,19.4909,-7.9478,11.7709,1.8074,-12.141,-37.9118,-52.546,-6.8219,
19.5306,5.1375,46.5408,60.8659,-32.6154,-22.8736,28.6856,-1.4454,15.6437,10.6173,-9.7255,-49.7371,-35.2933,-2.315,
20.5277,8.4447,54.1125,67.578,-33.7918,-22.2241,35.4004,8.0414,26.0335,16.4879,-11.3109,-42.776,-38.5988,3.8492,
17.1271,3.3585,55.4453,70.513,-36.3438,-27.8805,32.0713,5.8719,25.1946,6.5804,-15.2118,-26.4712,-50.3829,0.0030924,
23.3302,9.4236,65.6158,78.3332,-39.4659,-31.5102,37.8596,4.5554,22.719,7.1497,-14.7814,-33.0777,-61.4599,-5.7818,
25.3046,11.2685,75.7788,87.7332,-51.198,-43.7196,49.6881,6.2102,29.0686,12.0234,-19.1969,-45.193,-71.8723,-11.2195,
28.6069,8.6643,85.3321,96.5692,-62.2261,-55.1964,60.8068,10.6582,41.4245,11.3019,-21.9016,-56.5815,-81.66,-15.3669,
36.5315,7.6623,94.3122,104.875,-72.5925,-65.9846,71.2584,13.8751,50.3878,13.5163,-25.408,-67.2866,-90.8604,-18.3013,
40.6061,9.1308,102.7534,112.6825,-82.337,-76.1255,79.1548,13.0426,49.7744,16.0795,-32.5604,-77.3494,-99.5088,-21.0596,
41.0622,9.5471,110.6882,120.0216,-91.4967,-77.3426,66.6926,11.2958,47.7522,17.0431,-24.3401,-86.8084,-107.6382,-16.4217,
35.4652,3.9126,101.7571,123.5463,-93.8402,-58.602,48.5911,8.4489,36.4514,14.8152,-20.7103,-89.9151,-95.5157,-11.8209,
34.06,3.919,81.5516,102.0335,-74.1098,-40.9859,31.5756,7.219,20.1643,9.8288,-25.0114,-70.4202,-75.6848,-10.3887,
29.3655,4.4071,62.5585,81.8115,-55.5632,-24.4268,15.5811,2.6884,4.8544,3.6956,-19.8952,-52.095,-57.0437,-5.6679,
18.2034,0.5271,44.705,62.8028,-38.1294,-8.8612,0.5462,-3.9808,2.1527,1.7865,-10.7479,-34.8693,-39.5211,1.18,
7.4702,-2.3968,27.9227,44.9347,-21.7416,5.7705,-13.5866,-8.5622,-11.9558,-8.4436,-10.5849,-18.6771,-23.0498,-4.1934,
2.9247,3.7725,12.1474,28.1386,-6.3371,19.5243,-26.8714,-5.3973,-25.3384,-13.9625,-4.4062,-3.4565,-7.5668,-9.0035,
-1.5894,7.8847,-2.6815,12.3503,8.1431,32.4528,-39.3591,-5.5557,-24.9029,-7.3404,3.0888,10.8509,6.9872,-3.1609,
-1.494,6.9293,-16.6206,-2.4908,21.7545,44.6057,-49.8928,-6.1867,-16.6603,2.2591,7.2418,24.2998,20.668,11.1288,
-6.707,0.24699,-29.7233,-16.4413,34.5492,52.2933,-49.3089,-13.0458,-18.5527,-2.6967,9.2178,36.9418,33.5279,8.8945,
-9.4378,-0.97289,-42.0399,-29.5548,46.5763,50.3608,-56.2326,-17.3245,-24.9111,-8.5607,16.1363,48.8253,45.6162,1.8532,
-10.5588,-1.1555,-53.6176,-41.8815,57.8817,44.688,-54.5458,-14.5983,-26.068,-6.3598,18.3017,59.9958,56.9792,5.8393,
-10.6482,0.11914,-64.5005,-53.4686,68.5088,43.694,-52.9603,-12.999,-24.7449,-5.2554,19.3727,70.4961,67.6605,8.1405,
-10.2505,2.7633,-74.7305,-64.3605,78.4983,53.3646,-63.0393,-16.3167,-25.4296,-7.5914,25.6824,80.3663,77.7009,7.4109,
-11.8046,0.91029,-84.3466,-74.5989,87.8884,64.2627,-72.9953,-16.5425,-30.8933,-5.4487,29.6851,89.6443,87.1388,10.5817,
-14.712,0.61447,-93.3858,-84.223,96.7151,74.507,-82.7155,-13.863,-41.3324,-4.8805,31.5191,98.3657,96.0105,21.7571,
-24.916,2.9877,-101.8827,-93.2696,105.0122,84.1366,-91.8526,-13.5131,-45.6009,-6.9978,40.2333,106.5637,104.3498,32.0208,
-34.7497,2.5675,-109.8697,-101.7734,112.8114,93.1884,-100.4415,-14.3896,-51.301,-6.337,51.9193,114.2699,112.1889,37.5714,
-43.9925,-0.23764,-117.3775,-109.767,120.1427,101.6971,-108.515,-18.5879,-62.3229,-3.3057,62.9041,121.5137,119.5575,49.4171,
-55.4529,7.9713,-124.4349,-117.281,127.0342,109.6952,-116.1041,-16.5083,-72.6836,-11.302,73.2299,128.3229,126.4841,57.1776,
-59.4771,21.593,-131.0688,-124.3441,133.5121,109.38,-95.0378,-7.0819,-54.2225,-24.7239,54.7361,134.7235,132.995,39.647,
-41.8084,15.8384,-109.1047,-102.7835,111.4014,88.7172,-75.2356,-2.0774,-36.8692,-21.1916,37.3519,112.5401,110.9153,23.1682,
-25.1999,6.9346,-88.4584,-82.5165,90.6173,69.2942,-56.6214,6.4831,-20.557,-5.8201,21.0108,91.6877,90.1604,7.6781,
-9.5879,6.0361,-69.0509,-63.4655,71.0803,51.0366,-39.1241,7.058,-5.2236,8.6291,5.6502,72.0864,70.6508,-6.8826,
-4.7951,-1.3154,-50.8078,-45.5576,52.7155,33.8744,-22.6767,-6.6219,9.1898,-3.2171,-8.7888,53.6612,52.3117,-20.5697,
6.3391,3.8249,-33.6594,-28.7241,35.4525,17.7419,-7.2161,-0.19879,22.7384,5.8938,-22.2413,36.3416,35.073,-15.5993,
4.5125,-0.74334,-17.5398,-12.9007,19.2254,2.5774,7.3169,3.6695,20.4102,11.3248,-22.353,20.0611,18.8686,-8.3969,
1.3495,-4.5549,-2.3874,1.9734,3.9719,-11.6773,20.9779,-0.88919,21.1141,6.7891,-22.9398,4.7574,3.6365,-14.1598,
10.9093,4.8772,11.8558,15.955,-10.3664,-25.0766,33.8192,3.5027,26.5959,9.2741,-13.8509,-9.628,-10.6817,-8.0073,
10.9776,2.4154,25.2445,16.3229,-8.66,-37.672,36.3696,5.4617,22.8305,10.4044,-16.6353,-23.1503,-24.1408,-5.8401,
9.5965,3.9577,37.2277,17.9951,-15.6117,-49.5117,42.6235,5.8574,24.5946,15.8061,-16.842,-35.8613,-36.7923,-13.443,
6.3694,4.4434,40.5375,17.6385,-21.1828,-53.7716,39.343,1.8903,24.8059,15.099,-15.1083,-47.8096,-48.6848,-17.6983,
11.0487,5.8638,35.4539,14.4108,-11.4763,-51.7506,32.4029,1.0537,19.22,12.9875,-17.3351,-59.0411,-59.8637,-8.2005,
18.3395,6.7172,29.2288,13.7871,-2.834,-48.4046,31.1816,0.26714,15.4153,9.5567,-17.5003,-69.5986,-70.3719,-4.5755,
15.5519,4.627,27.7165,11.7551,-7.7252,-40.9206,29.0697,0.97447,18.5882,6.8146,-14.763,-69.7611,-74.3444,-5.9877,
15.1007,5.7956,25.0892,6.711,-10.1542,-32.6808,22.0229,1.8799,17.9548,7.3696,-15.3235,-70.8781,-74.7044,-7.5566,
17.0872,5.4479,20.6918,-0.44014,-6.6524,-31.6842,18.7733,-1.125,10.611,8.8556,-14.886,-61.3228,-67.3296,-11.924,
11.9646,3.4338,23.5477,1.2735,-9.8687,-31.47,19.3342,0.14781,12.1435,10.0115,-6.0391,-56.4381,-59.1925,-10.0032,
6.426,3.7097,25.5092,6.0173,-14.5792,-30.0642,17.6922,4.9597,17.1995,11.8214,-2.7843,-51.606,-57.0872,-7.4748,
4.8354,-0.61048,19.8811,3.9693,-21.6584,-37.6601,16.8714,0.56449,12.0699,10.8709,-12.0174,-48.2685,-53.4208,-14.0165,
8.6426,-0.81481,20.8574,7.8285,-15.2973,-38.534,18.9926,-0.67467,13.0329,8.5314,-11.5374,-45.1314,-40.8155,-11.9702,
4.9906,-3.899,18.8831,4.7072,-10.764,-33.5708,14.2376,-1.3575,10.5637,5.368,-10.1222,-42.6645,-52.4666,-5.2264,
0.11209,-7.2802,16.0631,-0.63619,-12.2871,-26.9766,14.1065,-1.9988,8.7249,7.6977,-11.6838,-38.4176,-63.4186,-4.1892,
6.1307,-4.1925,20.6427,6.8736,-6.9708,-22.7071,19.7678,3.1826,12.7809,13.2611,-7.8495,-39.2458,-73.7135,3.5337,
6.245,-3.9412,20.8501,11.2816,-8.4805,-27.1293,18.0996,4.4377,13.4601,11.9833,-4.4863,-40.7477,-72.0627,2.8395,
-0.15547,-3.9455,14.0558,3.6151,-15.4437,-26.7066,10.5059,0.07384,10.0011,4.7566,-10.2429,-31.3127,-81.839,-6.7306,
1.5411,-0.57526,13.4534,-2.6274,-11.3836,-18.5965,11.5628,-2.0998,7.2319,0.37386,-12.2794,-24.3723,-91.0286,-4.1576,
7.4744,1.1463,13.8512,-0.78273,-4.1929,-14.8294,13.0384,-1.2506,6.0753,3.0027,-6.9631,-29.9,-90.8693,-2.7031,
9.9182,0.59532,9.6459,-2.1818,-2.4953,-10.5654,8.3995,-0.2115,6.1925,4.2686,-7.0275,-30.9983,-76.2584,-10.7359,
8.6,1.2832,14.6106,-0.36389,-4.5145,-9.6903,13.9213,1.4886,11.3648,3.7718,-5.8827,-30.3435,-75.78,-10.8148,
7.3609,1.9289,17.8315,3.2736,-5.4487,-15.6166,14.2911,2.1225,9.4778,2.8223,-4.8066,-33.5843,-73.8845,-7.5146,
8.3655,3.7413,9.0484,-5.118,-2.2297,-11.3056,5.7208,2.477,2.6422,-0.23953,-8.857,-20.0001,-74.2721,-7.5457,
7.3816,4.9631,5.6139,-8.6668,2.2428,-4.8422,5.3776,0.40023,4.8943,-2.6348,-9.7714,-4.7001,-69.3334,-5.6467,
4.5281,2.7371,4.3123,-2.8446,1.6259,-8.4085,5.0549,-2.9982,3.1539,-0.067073,-6.775,-8.8771,-61.3175,-6.2722,
3.7745,0.16277,1.1615,-2.192,-5.7021,-9.3498,4.7516,2.0024,1.0369,0.90128,-6.3685,-13.6467,-68.7252,-3.4853,
4.5121,3.5272,3.0202,-2.5427,-11.1447,-4.4503,5.4306,5.7384,2.4207,-4.4552,-10.3249,-11.3819,-64.6019,-3.2764,
6.6518,7.6541,4.285,-2.8718,-1.3172,-3.7011,4.6226,5.3943,-0.13487,-6.5983,-11.1514,-10.2172,-47.2285,-13.2029,
7.2168,4.3026,4.0277,-2.6997,2.136,-7.8176,6.2737,19.1707,-1.0909,-1.3819,-10.9645,-8.6401,-55.9639,-10.0004,
1.7223,-1.0175,-0.31109,-2.7789,-12.0922,-11.928,1.7997,32.1204,-0.30229,-0.093903,-14.8862,-6.4342,-65.3805,-3.3751,
0.41344,1.6949,-1.0156,-2.371,-10.282,-9.5254,0.48664,20.311,0.92091,-3.2215,-9.8954,-5.8075,-47.3577,-4.3776,
5.4503,4.7267,2.6608,-6.8085,4.4349,-7.2666,4.5548,4.9924,-3.2317,-9.5362,-4.7224,-8.5925,-30.4162,-6.2841,
6.0874,0.10455,0.090791,-11.7024,18.2688,-11.1692,3.3174,-9.4072,-8.3402,-12.3382,-11.1877,-9.0406,-20.6373,-7.835,
3.553,-2.0709,1.2902,-5.9386,18.3777,-6.8836,2.8774,-2.335,-1.3323,-2.6799,-14.1319,-3.4369,-26.3889,-3.75,
1.6526,3.1151,4.3463,-1.003,18.4804,0.037362,-0.42873,-3.4002,0.91678,-1.7962,-8.2223,0.86664,-19.7439,-2.3197,
-0.37477,1.9638,4.5674,-3.3529,18.8178,-4.3037,2.0076,-5.6063,-0.58449,-6.0267,-0.98005,-1.1136,-11.3287,-2.6624,
-0.59325,-6.1077,-0.76785,-7.731,14.5552,-12.4811,4.0563,-4.5471,-2.7186,-7.3523,-4.0547,-8.0362,-5.5873,-3.708,
6.1913,-1.403,-2.65,-7.2672,24.7692,-4.9838,0.92039,-1.8637,-1.1092,-5.4649,-9.1141,-6.5901,5.8352,-1.0749,
5.5788,-0.11349,0.16012,-9.0003,22.0782,-2.0332,1.1061,-1.0289,-0.80169,-5.378,-8.3263,-9.8101,-5.3612,-2.6977,
3.0747,0.13451,-0.090687,-4.8451,14.2453,-2.1524,3.2092,-0.72646,-3.4049,-5.2965,-3.2472,-7.0521,-13.4754,-4.2233,
2.6492,5.1877,-2.2544,0.024896,17.4884,2.0741,0.36551,-0.44145,-3.4416,-6.184,-4.7396,1.8071,-1.8206,-5.1747,
4.1775,10.902,2.4606,2.675,21.9827,4.6012,-2.7899,3.2,-0.1016,-3.6438,-9.0345,-2.881,-1.4704,-5.5876,
0.55241,6.8738,-2.5073,0.10433,12.469,-1.9414,-6.9608,0.11594,0.38643,-6.3173,-10.9026,-12.3491,-9.5769,-5.7342,
-2.1321,2.3638,-6.9368,-3.9995,4.7308,-7.8507,-7.2663,-5.9168,2.5326,-9.5534,-5.187,-6.0648,-2.0126,-4.6671,
-1.5217,7.5246,-0.73558,-0.38509,9.2677,-6.8977,-4.9021,-2.6693,-0.99378,-8.9802,-7.7683,-3.2903,-1.8919,-3.9051,
0.73849,13.5809,7.2621,10.966,7.9885,-3.8325,2.3816,7.855,-0.69341,-3.3799,-12.3636,-11.0469,-11.6605,-2.4657,
-2.1983,9.3916,2.0061,14.1644,-2.1318,-9.3872,4.6489,4.9736,2.7226,-4.1415,-12.5861,-17.6149,-8.5505,-4.246,
0.34392,13.1666,1.8855,19.0994,-4.4143,-6.896,4.8521,6.1212,9.308,-2.447,-2.1898,-15.112,-3.2173,1.3112,
-0.64058,9.9665,5.1468,16.9891,-16.6829,-12.2666,6.4892,9.1284,9.7138,-4.2283,-0.61211,-27.2202,-17.1242,-3.1058,
0.36172,7.9223,6.2843,15.0059,-10.8612,-14.4229,8.9923,9.5445,8.1667,-2.046,-2.5036,-28.4795,-30.1968,-3.8833,
-3.7571,6.2419,2.774,11.9361,-2.7379,-10.4242,5.3191,4.3923,3.0971,-4.5745,-1.6302,-21.7093,-21.1539,-0.999,
-5.7013,3.6977,6.7044,18.2098,-16.6737,-10.5219,10.5435,5.816,6.0448,-5.0234,-1.2915,-19.6839,-33.9847,-0.69809,
-0.53874,2.0298,5.3381,18.0813,-25.4347,-12.3009,7.983,7.3955,0.37969,-3.276,-10.8552,-20.9127,-38.815,-2.5846,
3.8321,5.2823,4.5361,12.6579,-9.8086,-3.3682,7.5038,8.3978,-2.0534,-0.18715,-10.686,-17.2481,-22.3861,8.1755,
-8.6901,0.8682,0.16632,11.6572,-7.1717,-1.9608,6.8123,5.2426,0.72109,-2.3453,-4.9834,-15.0081,-6.9429,11.7826,
-10.3378,-1.353,2.8079,15.5375,-13.7308,-0.15592,10.5014,7.0972,8.6316,2.8571,3.7517,-12.4199,-13.9981,13.2448,
-7.307,-2.7181,3.6037,13.1595,-8.0862,-1.1104,9.8713,8.1176,8.5961,3.65,4.9729,-18.9056,-1.5886,6.666,
-8.7974,-1.5909,0.9767,10.441,-2.2991,-1.0443,1.0841,6.6665,2.295,-2.3538,-2.0746,-18.7358,8.1472,-0.48313,
-9.9566,-2.2186,0.19497,8.1276,-3.8481,1.1878,1.2598,6.9896,3.3628,-1.0075,-7.9755,-13.996,-0.29538,0.75092,
-5.0209,-2.5674,-6.0832,4.7474,-2.6529,5.4548,3.5948,7.0522,5.0893,1.9454,-7.9789,-13.6382,1.1684,2.1521,
-6.1652,-2.8955,-9.0925,1.5707,-0.083386,8.5022,2.8969,7.1112,1.4097,-0.099245,-7.4999,-5.5888,5.437,-0.38736,
-8.2059,-2.7218,-5.1725,1.9584,-4.4172,4.1357,6.0976,6.6845,6.1454,-1.0576,-7.5323,-6.2178,-0.19182,4.4566,
0.24045,0.57475,-4.6214,1.5997,-1.0184,3.6464,4.5267,3.1502,7.4641,-0.75296,-2.0189,-13.7987,9.2197,12.6251,
2.1544,-0.42383,-1.9337,1.9859,3.3812,6.8023,4.2548,3.9253,5.0878,1.2202,3.4051,-6.7041,21.6819,12.8317,
-4.9649,-3.5317,2.2799,5,-6.2219,-2.042,6.6509,6.823,8.8801,5.2446,-2.3431,-0.27649,13.3911,6.036,
-3.462,-0.66844,-1.9545,2.0487,-10.4281,-5.053,2.1542,3.7623,8.5881,5.1706,-7.7463,0.94516,6.5619,4.9507,
2.0486,0.8177,-5.6934,-1.4485,-2.0894,3.9275,0.097016,2.0906,4.2166,3.8967,-0.5324,1.853,17.7378,4.172,
-4.341,-2.1237,-1.4956,-1.3618,-4.3744,0.79914,0.57336,4.8574,4.9277,6.5548,3.3557,1.7416,28.7246,0.065042,
-9.6242,-3.6835,4.6197,0.88954,-15.9223,-13.3488,8.4927,6.2532,14.514,11.2232,0.9852,-3.9065,27.7243,-1.6261,
-3.0212,-0.32897,6.5116,1.0771,-12.7978,-14.8375,14.0087,2.7445,16.7766,8.8625,1.6494,-5.8413,26.7837,3.5332,
-0.42979,0.17271,5.1571,-2.3619,-2.3887,-3.8241,6.4193,2.0979,9.5031,3.5105,5.8888,5.5964,34.3357,15.3723,
-1.1271,-2.489,4.1245,-1.4971,-1.0403,-0.46144,2.9008,4.6234,7.2459,2.0948,7.2225,4.5375,43.1218,18.0651,
-0.8183,-2.0984,1.2257,-1.1661,-1.2186,-2.1207,0.55786,4.1048,4.1598,-3.5742,1.7277,-9.4728,51.3808,2.8812,
-0.52824,-2.2135,1.3931,-2.7833,-1.3869,0.17566,1.7292,4.0994,3.1873,-4.5651,0.90111,-5.2895,49.9852,-3.9196,
-1.2197,-2.8038,2.5146,-4.3038,-0.5806,4.7446,4.2768,2.6484,1.7906,-0.19404,3.4979,6.8382,42.4061,6.6796,
-3.3159,0.015729,-0.76952,-4.2868,3.5518,8.0751,3.2971,1.7664,0.47807,-1.8694,-2.2553,-2.4904,42.0311,1.2174,
-7.6962,-2.1544,-2.4106,-2.3423,-9.4357,2.047,1.412,3.8296,0.69035,-4.8907,-9.1099,-16.4409,41.1965,-8.738,
-3.1366,-1.3022,-2.5069,-2.9247,-11.0388,0.2372,1.0868,2.8769,0.40842,-5.8021,-4.4655,-12.9232,43.7864,-1.2239,
-0.77973,2.8733,-4.5257,-9.2567,3.7236,4.3206,4.1546,-1.8755,-1.7857,-10.0337,1.828,-11.9068,50.5592,7.2857,
-5.3125,1.0139,-4.9772,-9.4244,9.6462,4.784,2.2183,-1.0398,-6.2581,-8.2266,-2.8612,-7.5772,43.428,7.0893,
-4.7525,0.22992,-6.848,-5.7257,-4.6711,6.1844,-4.9049,1.192,-9.4978,-2.1892,-9.6792,6.9774,30.4583,4.0126,
-1.0927,2.6265,-6.9188,-7.7925,-6.3188,4.8492,-2.2002,-1.2899,-2.1792,-1.0938,-6.2061,-0.069434,28.631,0.39763,
-2.2324,2.7099,-5.2984,-6.1197,-0.39609,1.9072,1.0653,-1.4535,1.085,-1.751,-2.7003,-14.1653,33.4206,-4.6874,
-1.1344,0.13691,-5.4627,-1.8959,-4.2289,-1.5817,1.0016,1.0441,-4.7649,-0.68233,-2.5385,-13.4358,29.9694,-3.9245,
1.344,0.61086,-3.2069,-3.2286,-7.8314,-7.2716,4.3157,0.49927,1.3058,2.2509,0.98803,-3.4709,19.0122,0.16759,
0.2993,2.0202,-0.60416,-5.9272,-6.8798,-5.389,-0.28178,-0.97672,6.5299,1.6341,3.3391,-7.6007,23.656,-2.7348,
-1.6471,-2.9215,-2.0139,-8.9458,-6.9487,-2.1734,-5.0854,-1.4003,0.83566,-0.87426,1.2108,-14.8577,36.3367,-1.6066,
-0.58393,-5.1563,-6.7138,-8.409,-3.6397,-3.4893,-3.8164,0.13,-1.6251,-2.75,-1.7544,-3.8433,48.2565,6.2026,
-1.7544,-2.1956,-7.5161,-6.6994,-3.1801,-2.5568,-1.418,1.3273,1.1238,0.066323,1.0022,8.1976,40.0584,5.1073,
-3.3359,-1.8229,-0.075217,-7.5028,-11.425,-1.6802,1.3186,3.4168,0.33343,2.2315,0.21918,-3.6224,27.291,-3.6348,
-8.9203,-7.98,-1.035,-9.9446,-18.9347,-11.2204,-5.0275,-1.1265,-6.9174,-4.6513,-8.4711,-11.1178,35.7765,-7.7555,
-5.4928,-8.4658,-0.9727,-5.4918,-12.9781,-10.0652,-4.7256,-1.0592,-1.2,-2.4438,-3.1423,3.6492,46.6455,-1.5054,
-2.9943,-6.7523,-0.19167,-4.9211,-9.0662,-4.3999,-4.2013,-1.2364,0.5595,-1.574,-1.2668,3.0686,33.4827,-6.9589,
-4.7426,-5.865,-0.17994,-5.1075,-9.9682,-3.6535,-0.57454,-1.6443,-1.402,-1.9618,-6.4932,-11.0946,25.6889,-5.0949,
-3.7354,-7.2006,-3.3024,-5.5247,-10.0933,-2.7114,0.1826,-2.2688,-2.5234,-4.4954,-4.8985,-15.0089,33.5474,2.6824,
1.7916,-0.98373,-2.1402,-3.7467,-0.32886,5.6462,-6.577,1.7239,-4.7819,-6.636,1.6621,-12.6619,39.2475,0.59351,
-2.4135,-1.6478,-1.2886,-3.7631,-5.3706,3.1381,-7.3875,2.8256,-3.7723,-5.9967,-3.981,-15.9997,22.7927,-3.0578,
-1.3041,-0.10293,-1.6935,-1.127,-8.4226,2.4679,2.697,4.1021,2.7207,2.5581,-4.7062,-10.219,11.6639,6.7669,
0.94306,0.62637,-6.1714,-5.1569,-0.92757,0.15063,-1.08,0.72268,-5.8784,3.6097,-4.6651,-5.5085,21.8101,1.7814,
-0.80075,0.82976,-0.25748,-2.6784,-2.5591,-4.4379,-0.77427,2.8485,-9.6231,0.2596,-9.4468,-8.7934,22.6707,-6.2792,
-0.27054,-3.0766,-0.24226,-1.0716,-11.0825,-6.1001,-1.21,0.26721,-6.6353,-4.0945,-11.2904,-10.1943,19.8639,-7.349,
3.6018,-3.8561,-3.6019,-5.8278,-5.1151,-0.43142,-0.17328,-1.6768,-0.45284,-1.9204,0.4745,4.5174,23.493,-6.9078,
-0.95259,-5.0706,-1.9396,-4.0319,-5.7721,-4.7439,3.2116,0.83395,6.3232,1.5692,5.2667,7.0184,9.55,-1.6726,
1.7561,-3.0791,5.6486,3.6818,-10.9691,-6.1462,5.67,6.3275,11.9694,5.0905,3.7454,-3.2847,3.4334,10.7198,
1.6505,-11.5717,-0.47512,-7.6261,-13.2035,-7.2239,-3.3471,-2.2471,1.61,-0.5178,-0.81783,-10.8006,15.2787,2.846,
2.5158,-10.395,-2.3748,-10.061,-0.36019,-1.4876,-2.1824,-2.5942,-2.8249,-0.96866,5.9801,2.8629,28.462,-0.21729,
-4.3843,-7.3614,-2.2321,-8.4933,-3.7128,-5.2552,1.3232,-2.9207,-3.1376,-3.8028,6.103,4.6191,21.3311,1.7237,
-5.567,-6.4373,0.7939,-8.4656,-12.6491,-7.832,-0.20243,-2.7454,-1.0211,-1.1645,4.773,-3.8528,11.3741,-1.2718,
-1.6176,-3.8819,0.5053,-5.7885,-2.9721,-2.3006,2.4608,0.55277,-6.9854,3.0031,2.3175,-0.48813,23.4661,-4.8109,
-2.0029,0.20737,-1.4532,-1.5848,4.919,6.0321,7.6158,2.9297,-8.9764,2.3406,2.6599,8.2178,32.6635,2.2262,
1.0098,4.5333,-4.2581,-1.4897,5.1058,13.383,-0.55392,2.7539,-9.4021,-1.1743,4.4289,10.6173,32.6319,8.8415,
6.0104,6.9128,-6.6541,-5.9796,12.2713,15.2316,-4.618,4.2759,-14.8636,-5.6831,1.0297,4.9185,26.0942,5.1776,
1.0705,3.8465,-3.6033,-9.2363,8.4015,9.7379,-2.1718,2.3322,-19.0334,-7.5113,-9.3964,-4.7766,12.7184,-2.6049,
-0.68072,3.8569,-0.25389,-8.9233,2.836,7.4667,-2.2827,1.951,-14.2758,-3.4454,-10.5196,-5.2131,14.1247,-0.76114,
3.2165,3.6255,-2.6488,-8.3879,9.4147,10.875,-2.6277,3.2802,-11.0091,-4.685,-5.5501,-1.0439,20.99,1.6947,
8.3259,4.854,-4.9002,-8.3668,18.4906,16.4893,-2.9522,2.1193,-15.651,-8.26,-7.1451,3.3572,22.1405,-3.2275,
9.5136,7.2143,-2.437,-10.0339,18.1045,17.1872,-1.5697,-0.177,-13.9886,-6.0772,-6.9573,1.469,17.679,-2.3105,
7.2553,6.5402,2.2887,-8.7088,12.9207,8.6839,3.104,0.55675,-6.642,-3.5436,-4.8529,-8.5017,3.3617,0.479,
8.5077,4.4606,-1.946,-8.4272,11.9049,3.1016,1.7129,1.2467,-7.4483,-4.0535,-7.2128,-9.6784,-0.93692,-5.0929,
12.3356,2.7467,-1.8292,-8.4035,14.0827,10.1464,4.5022,4.064,-7.9657,-1.8825,-4.3699,-1.3849,13.2193,-2.8591,
8.4622,-0.55135,3.342,-3.8022,11.0683,10.7427,7.3653,4.0609,-7.2466,-0.56451,0.95373,-0.57868,21.7052,6.2303,
4.821,-2.2055,4.8287,-0.92249,1.9686,3.5902,4.7542,-0.76208,1.1419,0.67465,3.5481,-5.6056,10.521,4.1692,
3.8086,-3.2782,-0.040545,-2.5546,-1.7652,0.24149,1.8177,-1.9214,5.6529,1.3573,2.612,-5.5105,4.8282,-9.8195,
3.3393,0.53411,-4.1357,-2.1601,3.8845,1.9145,-2.3885,4.2196,0.73425,-0.89353,1.2503,2.7741,14.4207,-10.4354,
-2.4049,-0.22107,-3.1644,-4.6818,-1.41,-2.7799,-2.4864,1.7971,-0.51487,-3.4912,-0.51175,4.777,11.868,0.072901,
-5.3941,-1.895,-3.2155,-6.5701,-3.9769,-3.3365,0.7958,3.8584,2.6495,-2.0765,5.5445,6.6596,10.433,-2.583,
-0.73189,2.0748,-5.9149,-3.7655,2.0465,5.0586,-0.69798,17.7269,2.0084,0.45847,11.4786,14.9369,20.4121,-1.9459,
-0.20581,1.9506,-7.006,1.2809,-2.8968,6.2011,-3.0665,30.7633,1.8876,1.3951,8.3795,13.5585,11.9568,9.2579,
-2.3629,2.5567,-6.3449,9.158,-8.7487,4.624,-5.5338,24.097,2.4975,2.9984,6.1893,10.5761,2.8035,9.4255,
-4.1493,0.47507,-2.5898,12.4649,-10.634,2.4184,-3.7555,8.5512,-0.062461,5.229,5.336,8.9772,6.4916,3.5578,
-1.9719,-3.41,-1.4703,12.6811,-11.9243,0.34531,-1.6018,-4.8568,-1.0228,5.8789,-0.28659,2.1718,-2.5747,10.093,
0.31558,4.2664,-3.5512,15.0533,-6.1472,8.2783,0.66351,5.3165,-0.72047,2.8751,-0.99276,6.1388,-5.5537,14.0667,
-6.2111,6.6617,-5.9895,14.8732,-9.394,3.6841,3.275,3.7925,-3.3286,-5.7333,-2.6202,6.9756,0.32288,-0.87728,
-4.1512,4.5748,-3.9429,15.668,-13.8916,-2.0801,-1.0188,-2.4606,-4.8156,-6.5941,-7.5242,-6.6989,-8.1322,-0.7037,
1.8822,2.8543,-0.33209,13.7639,-9.2019,5.7572,-1.4399,-3.2771,-3.563,0.55019,-3.6985,-10.6355,-15.3572,13.4385,
1.7693,3.6469,2.0984,12.4561,-6.2392,9.2682,3.4668,0.77593,-0.93868,1.481,0.86171,-0.35641,-15.3997,7.691,
-0.98817,5.1155,-0.67881,11.4675,-5.1422,3.6506,-0.35642,2.4164,-0.15969,-1.2591,-5.2158,-4.9145,-22.4297,-3.6169,
-0.92865,0.47003,-0.63831,10.7793,-3.8696,3.4314,-0.33526,1.3073,2.7422,5.0831,-3.9387,-18.1172,-22.048,2.8668,
0.33213,-0.2813,0.60551,11.338,-3.8781,9.7332,3.3005,3.8806,2.8188,8.3938,1.3595,-6.184,-14.6993,7.2743,
0.55294,0.94064,-1.1183,11.3804,-0.030268,10.3543,3.3432,4.8524,4.3367,5.2384,1.5187,7.9254,-23.6995,1.294,
2.6894,-0.80302,0.63605,12.3853,3.105,7.0819,1.9378,3.3564,7.6919,8.0576,1.1866,6.245,-26.3749,1.4578,
1.5637,-2.683,2.5261,10.6778,-6.2405,4.2464,1.3391,3.155,5.3022,9.0204,-4.6692,7.7981,-21.9004,-2.4865,
-1.1812,-2.763,2.6155,9.3143,-19.6044,0.85859,3.9103,6.0992,5.7074,6.7919,-4.1481,3.2333,-34.6863,-1.614,
0.81808,-1.6331,1.4945,9.2376,-11.6792,0.80731,-1.1448,1.8767,2.9546,2.5283,2.3676,-6.12,-30.3153,5.2316,
6.5531,-0.088893,5.7431,8.6829,2.0365,6.0611,-1.0761,-0.16414,1.3311,2.858,5.1176,4.3701,-14.3964,5.8815,
3.9912,-1.7708,5.6399,5.9932,-11.8238,-1.774,0.67571,2.0149,2.9385,3.8923,-4.1071,6.7595,-11.9658,-5.3172,
1.3414,-2.1467,5.3013,9.4897,-19.3093,-4.56,-2.2571,0.44795,4.6906,5.1048,-5.3069,-1.3586,-23.2992,-7.8904,
1.9838,-1.7769,8.1163,8.6794,-6.8226,-1.1532,-2.3627,-2.2305,5.132,5.0395,2.4831,-3.4467,-14.9114,-4.284,
0.90069,-0.22383,2.8088,3.8201,2.7458,-4.4582,-0.29294,-0.65016,0.96751,0.8805,1.37,-3.2397,-5.8222,-9.3293,
3.4977,0.5125,0.95305,5.76,-0.07048,-0.093364,2.3757,2.0399,-1.2597,2.5149,1.0468,1.534,2.4813,-5.1542,
5.2165,-5.7848,-0.067996,1.0761,-6.3328,5.6968,0.30545,-4.349,-2.148,0.91774,1.4659,3.8521,3.2963,5.2784,
6.5905,-2.7868,0.65921,-1.6398,1.5188,11.3803,1.4922,-0.47284,-2.7422,-0.82432,4.5112,12.5388,3.8216,12.9152,
5.9539,0.031721,4.7168,2.0738,2.6332,11.903,3.5716,6.5452,-1.3726,0.4302,3.9998,15.4021,1.9054,9.0071,
5.5967,0.99414,6.8444,1.9494,1.9928,8.2963,-1.463,2.2961,-3.7004,0.40439,-0.096547,8.2115,4.2012,2.2001,
2.6098,4.5499,-0.074237,-2.7469,8.3812,8.5214,-1.6162,-1.4571,-7.0938,-2.2714,2.0784,2.1752,0.33367,1.3448,
1.9708,5.2408,-2.9618,2.2382,9.8065,11.3846,5.2293,2.4867,-2.3299,-0.68888,4.8458,1.5623,-12.7018,-2.5923,
4.986,2.2752,0.34889,7.1656,10.9053,10.9425,2.2644,1.1327,-0.50284,-2.3348,2.3859,2.1919,-20.3753,-3.1597,
6.856,0.4515,3.9434,3.6022,10.492,6.1886,2.3695,-1.1045,0.73263,-3.3995,2.4837,-1.5551,-26.6249,5.948,
3.5526,0.42441,1.2967,2.4222,2.1497,2.4428,4.6375,-2.4844,1.1706,-1.7493,3.299,-4.3543,-32.258,-2.6041,
-1.2403,2.0862,-3.8428,3.4817,-1.1128,2.0553,5.0821,-2.5763,-0.58686,-3.814,-2.9245,0.48673,-32.0097,-8.4734,
1.2447,0.032812,-1.6836,3.2732,1.8463,-0.47815,8.1517,0.4703,1.3765,-2.6208,-3.7134,2.3857,-35.8737,5.0505,
6.4724,-2.3791,-2.0648,-0.29739,6.0743,2.4428,4.7707,1.8886,0.32985,2.3569,-0.11588,1.7604,-37.0955,5.7115,
4.1559,3.0659,-3.3871,-3.1725,12.9402,11.4553,0.62763,0.32899,-3.5463,1.2512,2.3012,8.8856,-24.265,-3.7902,
1.4962,0.95396,-1.2555,-4.4277,13.6103,11.2501,-4.2301,-0.65484,-7.6721,-6.5364,1.199,13.6549,-17.0242,-4.0445,
10.5655,-2.4777,-2.1445,-5.6083,12.7937,6.2368,-4.9406,0.83071,-5.7655,-6.6262,-1.765,10.4255,-17.931,-3.8018,
10.1727,-0.64207,-1.2927,-4.0668,15.1593,1.765,1.8636,0.53967,-3.2502,-1.6491,-3.8285,2.8103,-22.3987,-6.707,
2.0908,2.0478,-3.8664,-3.0996,18.8293,4.3104,-2.3454,-4.0722,-8.1166,-7.0935,-6.732,-2.9017,-27.0804,-6.5457,
9.4367,2.1659,-7.2499,-8.4573,26.1352,8.1492,-6.7844,-4.0689,-7.3891,-13.1758,-7.0514,-0.55889,-21.3584,-13.1429,
16.8245,2.2771,-3.6816,-9.6373,35.8955,0.18818,-2.2802,-2.6197,-3.3301,-13.1084,-7.8334,3.5722,-13.087,-18.3801,
18.4661,2.8634,-4.1836,-6.4075,40.7316,-3.4381,-4.3126,-4.6316,-6.2638,-14.4911,-9.0506,2.635,-12.5428,-8.8411,
23.3837,2.9326,-9.9582,-13.0129,41.9027,10.8682,-8.1512,-4.1128,-9.5034,-16.7551,-8.7486,-2.1029,-11.0673,-5.1776,
28.9703,10.7106,-6.7098,-14.8835,44.45,24.3161,-4.5288,1.6774,-12.5484,-15.0267,-14.2494,-7.5201,-6.3057,-12.3386,
33.2581,20.4323,-4.1376,-8.4469,42.9883,36.9572,-4.0161,6.1565,-11.0726,-14.8484,-17.0099,-12.6125,-15.3274,-11.8392,
41.3855,27.4006,-9.1924,-6.9762,46.1936,48.8397,-4.2571,10.1254,-8.962,-14.9214,-12.1329,-10.4099,-18.7465,-10.6469,
47.5792,34.4339,-3.82,-7.0393,53.5451,60.0093,-3.0376,11.4463,-12.7628,-15.4721,-7.5483,-4.4825,-8.4624,-13.3823,
44.0016,28.7524,0.024662,-10.2324,44.3068,69.3035,-6.4707,5.2159,-20.9146,-21.0517,-15.0492,-14.5774,-14.9446,-11.8565,
51.0027,33.776,-4.7973,-8.6543,40.6843,79.2453,-6.5647,10.2054,-17.2499,-16.8964,-21.3773,-12.7386,-16.9402,-5.3603,
56.3782,45.4882,-4.7504,-8.858,44.7512,88.5906,-4.4836,18.0292,-12.1171,-10.8209,-19.8532,2.1257,-19.0568,-6.7259,
56.1288,46.3741,0.11411,-10.0139,50.0196,97.3751,-7.8297,13.8142,-18.3801,-17.1613,-18.9032,6.6979,-23.4572,-6.0816,
61.1972,48.1709,-1.58,-11.1003,61.1185,104.4273,-10.4934,9.8518,-23.7848,-22.6395,-18.4924,2.6806,-7.9498,3.2013,
64.0328,52.7525,-0.76226,-13.5678,71.5514,95.0282,-2.874,8.0554,-18.2604,-20.5583,-18.1057,-9.7727,5.9038,0.84011,
67.1809,53.6849,1.9348,-12.9945,78.8277,82.8193,0.91413,3.475,-14.031,-21.4937,-19.1883,-20.9963,-8.5504,-13.3103,
74.719,52.3922,-0.59165,-9.8044,88.198,80.7424,0.37712,3.7482,-16.5638,-19.7219,-17.5553,-16.3623,-18.2805,-18.4165,
75.0566,51.6588,-0.55615,-9.2162,97.0061,79.7542,6.1391,5.4515,-15.57,-17.5747,-13.1276,-13.9343,-5.6145,-12.0093,
70.312,54.1027,0.20035,-9.3863,104.6831,72.3177,6.0115,4.4013,-15.3589,-20.1354,-10.6529,-16.2315,7.9789,-10.0837,
67.7805,50.6156,-0.052638,-8.5822,101.0537,64.8451,2.0358,4.8606,-15.6422,-19.6502,-16.0393,-13.5704,0.99227,-9.7197,
60.3392,38.9015,-0.04948,-8.0673,94.5081,54.6879,3.8414,2.1583,-16.6324,-18.9536,-26.6461,-18.0588,-13.1673,-12.0285,
55.996,36.3265,0.67639,-8.3061,87.6327,45.863,11.5651,0.34207,-17.3216,-17.093,-21.9141,-26.3753,-9.6054,-13.476,
57.6979,38.7266,1.8411,-9.0131,88.8823,44.7985,12.076,1.0444,-12.6665,-14.3802,-13.6091,-25.0337,5.0709,-14.8366,
58.8155,38.5724,0.52557,-7.2672,97.6493,42.3513,5.8081,-1.1876,-13.112,-18.0969,-19.7827,-20.8804,8.0206,-17.0801,
52.8762,32.8834,-0.47006,-5.8671,97.6957,33.5439,6.9056,-3.0443,-18.5916,-23.2778,-25.3442,-23.4842,-0.65555,-14.6088,
50.6678,32.3569,0.52224,-6.4791,100.9927,27.1927,6.4915,-1.8976,-14.5838,-20.9171,-18.5209,-21.111,6.6144,-13.7325,
50.0378,29.9331,2.4191,-8.0186,109.0332,16.8841,8.0298,-3.7119,-9.3704,-19.1801,-12.5894,-19.8444,20.3175,-15.8011,
45.1074,20.4243,2.274,-7.5375,108.1555,1.771,15.2612,-4.4535,-12.6646,-17.0654,-15.6904,-30.705,13.6756,-10.5142,
43.6062,17.994,2.3785,-7.3262,112.9944,-5.6863,8.8019,-5.3911,-14.5558,-10.4974,-17.8822,-26.6933,8.2758,-6.7499,
40.9896,15.9498,6.0924,-7.8507,120.3147,-11.13,6.3454,-8.9243,-8.38,-7.9396,-10.5428,-12.0765,21.7583,-11.1658,
33.469,8.9677,3.0758,-5.6925,127.1958,-24.5622,16.329,-10.558,-4.2618,-8.1862,-2.4384,-12.0748,27.4426,-9.2906,
23.5069,1.9215,-2.1707,-2.6996,115.9486,-37.1884,17.0363,-12.0939,-2.3191,-6.4899,-2.0509,-18.3402,32.7857,-2.7074,
10.7681,-7.1116,-1.3173,-2.7788,94.8917,-49.0571,10.4707,-13.5372,-0.49252,-4.4135,-0.72278,-18.4449,43.1113,-4.7143,
-0.0009154,-14.8796,0.20797,0.76238,75.0982,-60.2137,13.6988,-11.7611,0.98284,-1.7386,6.069,-12.0358,37.1497,-9.7341,
-7.2319,-21.6999,1.1596,3.6089,56.4923,-70.7009,23,-11.5376,8.6369,3.1867,9.0796,-5.0469,25.762,-1.919,
-14.2696,-25.9412,0.84882,2.1873,39.0028,-69.2306,22.8251,-12.0504,14.6264,8.5388,10.2218,-0.16455,31.2063,5.6677,
-23.5365,-24.8669,-0.16621,1.092,22.5626,-63.1484,13.2607,-8.917,11.3384,11.8831,15.3933,10.4504,39.939,0.9891,
-36.2244,-31.8106,0.08473,2.7137,7.1089,-70.6877,8.3677,-8.623,9.9352,9.9649,11.8186,7.1723,29.5889,-3.1676,
-48.1509,-39.3024,0.32061,5.6839,-7.4177,-80.5464,10.0348,-8.3466,14.8823,7.6797,7.0117,-3.6222,22.2695,2.0841,
-53.9387,-42.0057,-0.90369,1.2457,-21.0726,-78.4857,8.2276,-6.6407,14.7125,13.2447,16.4731,5.0308,23.5847,1.7179,
-51.4253,-41.1726,-1.5724,-0.51623,-33.9082,-67.751,0.74409,-6.9656,10.6967,17.0293,22.4746,18.829,26.267,3.302,
-53.8838,-38.9432,-4.1296,2.1658,-45.9738,-58.6242,-3.3984,-5.8243,6.439,10.9459,18.9565,31.7993,37.4654,17.2039,
-63.666,-40.9452,-8.2204,0.10793,-57.3153,-60.4092,0.18022,-2.5826,7.9811,8.8431,18.7832,29.6501,34.2534,19.6666,
-65.8716,-38.247,-3.6293,3.2349,-67.9764,-59.9181,1.3747,-1.2223,13.5282,15.7843,22.7179,25.22,25.6907,7.6404,
-61.9193,-36.4346,1.4087,6.8968,-77.9978,-51.9847,-4.4928,-4.0415,12.7161,16.7655,22.8011,20.8143,32.344,3.3256,
-57.9632,-34.4895,2.5295,11.0627,-87.418,-42.8396,-3.9818,1.2627,15.0866,16.4824,23.6022,24.6271,39.3214,11.0798,
-62.1984,-33.3842,-0.032658,12.8088,-96.2729,-41.7157,-5.1894,1.6686,14.6636,13.5655,20.2576,27.0061,30.2134,11.861,
-65.4561,-33.0682,0.2105,10.3533,-104.5965,-41.382,-4.1545,-2.5286,14.5069,14.4386,26.9962,22.7344,33.4621,8.0161,
-68.0362,-35.6638,-1.0074,7.081,-112.4207,-47.3349,-9.4493,-4.0641,12.4312,13.3313,28.5099,13.4166,40.8543,7.7761,
-73.595,-40.7544,-0.94698,10.9945,-119.7755,-57.0281,-12.7382,-3.8203,15.0598,7.2292,16.194,4.4169,24.3031,5.8637,
-73.7588,-41.4426,0.31513,17.3247,-126.6889,-58.1859,-5.9484,-4.7964,21.628,8.9646,13.0532,-6.6944,8.7449,1.8965,
-66.9232,-36.5461,-1.15,16.2852,-133.1876,-51.8025,-5.5919,-3.0623,18.4021,15.1752,16.6083,-10.1493,14.0048,6.6029,
-66.0413,-36.0404,-2.7683,13.1389,-137.4889,-52.3098,-7.9075,-1.1914,14.1645,14.0237,11.9964,0.34156,9.5491,12.2323,
-64.248,-34.1189,-0.43278,19.8222,-134.301,-48.448,-3.8174,-0.87914,18.8585,12.9411,10.0716,11.6493,-5.1239,6.9193,
-59.9109,-29.6617,0.55729,18.6331,-125.2788,-43.131,-4.5525,8.3329,19.6549,10.7186,12.3595,10.9505,-11.2037,0.23742,
-60.6548,-31.2562,3.4159,14.1406,-127.8852,-46.8097,-5.7256,21.9329,13.6554,8.6292,7.7616,6.9191,-13.4235,6.0078,
-51.2308,-26.9706,13.334,23.8971,-126.4787,-41.1087,4.741,34.7169,15.7282,15.8244,8.7423,10.8423,-17.9209,12.3959,
-43.8183,-25.3522,9.1601,22.4634,-116.4796,-36.2319,5.4209,18.5339,15.2666,13.9112,12.0742,4.8895,-10.0968,0.56499,
-40.7073,-22.867,3.7897,19.6694,-104.6705,-34.058,0.27498,3.3219,12.4224,6.8095,16.17,4.114,4.609,-3.8072,
-46.9419,-25.8335,-1.2584,14.6328,-109.9595,-35.8712,-6.4904,-6.5186,6.3744,0.61637,10.8615,6.2773,-3.983,-1.6506,
-44.1254,-21.8734,5.566,13.7548,-100.9518,-26.488,-1.2803,3.5135,14.1866,10.2204,11.6561,14.5777,-15.3131,3.2687,
-42.2008,-22.248,0.65257,6.9042,-85.4947,-25.6217,-7.2292,-4.6509,11.1665,5.0276,6.8591,13.4619,-3.5483,-3.9171,
-36.2945,-20.4312,-0.35068,7.936,-73.1341,-27.4588,-7.2777,-8.7104,7.1218,0.8698,12.7143,10.7257,10.7646,-0.78976,
-40.1426,-24.267,-1.0528,5.2905,-73.8078,-29.4267,-10.4562,-9.8752,3.5613,0.094482,13.6385,9.3591,10.2394,-0.50118,
-43.0363,-23.7748,-2.9178,5.4554,-74.1996,-23.3226,-11.2751,-2.0514,5.2763,1.0531,10.41,14.5825,7.6969,0.49321,
-40.4541,-25.2404,-3.7068,5.1279,-76.4963,-22.8873,-6.742,-0.00034001,8.3339,1.954,8.3394,8.4052,-2.4057,0.94533,
-36.0989,-23.2443,-1.0743,0.48188,-72.8708,-21.9962,-10.1938,-5.7849,5.9057,5.2108,9.2848,2.5982,4.969,-1.5215,
-35.6199,-19.1983,0.67762,-1.2345,-65.8472,-18.0251,-9.8234,-3.2684,5.3101,5.1393,6.5588,6.5395,15.9993,-1.6714,
-35.6521,-21.6618,-2.4965,2.455,-65.0297,-17.1846,-6.1005,0.060715,6.6788,-2.1589,-1.7885,5.9061,0.93935,0.11609,
-27.0053,-19.1568,-3.5518,3.0308,-55.1023,-11.0921,-5.9757,-1.148,6.5192,0.14004,0.97018,11.5775,-7.1917,7.0988,
-26.3491,-15.5973,0.035539,-1.4896,-49.868,-7.0523,-10.4376,-2.0432,3.2353,5.916,8.6245,8.9545,3.3629,3.7805,
-23.3221,-9.3588,2.4438,-0.91803,-40.1272,-0.84459,-12.2217,0.97167,-0.81495,4.115,10.9993,13.7196,9.9098,2.1077,
-21.4406,-8.7973,-3.0055,-5.2013,-33.3811,4.0268,-11.9703,-3.4249,1.1621,0.97558,7.9292,25.4299,12.6897,10.1759,
-25.2156,-11.8846,-4.9941,-7.5405,-42.2242,-0.31217,-11.0109,-6.8351,7.1182,2.6045,10.1048,15.9506,7.8307,9.8066,
-27.0771,-12.6178,-7.587,-6.1242,-46.4394,-5.1139,-12.7609,-5.4607,3.7986,1.002,10.4624,10.6548,0.61245,-2.351,
-24.4886,-9.933,-5.2036,-5.2748,-41.2432,-0.95093,-8.6208,-2.7229,7.427,2.87,5.4963,19.1745,2.0215,0.68214,
-20.6087,-7.8905,-0.070873,-4.9581,-38.2862,0.55262,-5.6932,-2.5593,10.3561,0.76988,3.7205,9.3472,1.4185,7.3903,
-17.444,-8.3812,-1.0307,-2.2503,-34.0608,-0.9268,-6.3157,-1.9236,2.9861,-1.6867,8.7997,2.0377,5.6719,4.0546,
-12.782,-6.6733,-0.72791,0.53584,-24.5454,2.7442,-5.6958,1.8068,-1.7728,0.58369,6.1026,15.1718,10.8752,5.0162,
-10.81,-5.0678,1.4849,-4.5575,-18.0112,1.8564,-9.9333,-1.4346,-3.8356,-1.1386,-1.2535,18.3589,1.7866,3.9923,
-12.8125,-7.897,3.5652,-4.0433,-21.0279,-9.5831,-7.1684,-5.4461,-1.4361,-0.82905,5.8118,6.8932,-4.3464,-3.7193,
-8.6697,-4.0487,-0.023145,1.5019,-20.7305,-4.1879,-4.8101,-0.78105,-0.86847,1.1484,8.8371,5.9977,-0.22921,-4.9424,
-4.0517,1.7381,-3.155,-1.2395,-18.2814,10.1634,-7.6547,6.7378,0.8711,-1.0894,2.7635,19.3764,-3.8306,8.1289,
-12.4857,-2.705,-3.4476,-3.5753,-31.2845,23.6536,-7.1954,10.19,0.3369,-2.4703,4.5259,23.0341,-17.0982,12.9438,
-24.993,-4.7119,-7.8205,-2.6379,-43.5075,36.3344,-13.2717,10.3015,-3.2987,-2.5631,6.9054,13.2163,-21.6159,3.2491,
-25.9038,-0.090839,-8.7971,-3.4435,-54.997,48.2543,-19.7057,12.0935,1.7194,-2.4093,4.081,15.7978,-19.3551,11.2488,
-24.1086,-2.2545,-3.2081,1.3424,-65.7972,59.459,-15.3904,16.9115,9.0881,0.86877,0.2207,26.6601,-22.2911,24.6739,
-29.1698,-9.1091,-2.7744,4.3951,-75.9494,69.9915,-15.672,20.9583,1.5532,2.9856,-3.8901,22.4091,-31.3177,25.9651,
-24.5273,-0.36766,-2.126,6.5416,-85.4924,79.892,-13.2854,28.8598,0.97803,12.4474,0.68161,30.7056,-28.4746,23.9252,
-23.7788,6.1621,-6.096,4.944,-94.4629,89.1985,-17.5497,29.2976,1.6425,12.4237,0.88191,42.9632,-15.9198,23.2128,
-32.234,-4.5719,-9.8276,-0.89625,-102.8951,97.9466,-23.0047,22.4781,-0.1433,2.2783,2.5162,33.998,-17.6162,16.7584,
-37.5306,-13.9384,-11.1661,-9.0372,-110.8214,82.7903,-27.8909,11.9708,-1.581,-2.1967,3.8115,24.2458,-30.6592,10.4507,
-30.2175,-7.5585,-10.7374,-9.7,-118.2721,85.2949,-25.4943,9.5651,-1.2449,-0.37794,3.3416,30.2626,-27.012,11.0287,
-26.2351,-3.9719,-6.9596,-3.0925,-110.6938,86.2027,-14.5647,15.4987,-0.44731,-0.1143,2.4182,25.3134,-11.2913,12.5362,
-24.661,-5.6616,-5.096,-1.4609,-105.9804,70.9074,-14.6549,15.5333,-0.42024,0.37472,2.2729,18.9741,-12.4215,18.0507,
-19.8071,-5.804,-5.7544,-7.64,-98.6575,63.2788,-17.1503,9.7804,-0.39526,3.7269,2.1368,25.5486,-25.7762,19.3776,
-21.0288,-7.8659,-4.4448,-6.2173,-94.6662,58.0358,-17.5671,7.7478,1.5567,-0.35308,0.080356,26.4259,-17.3602,11.4665,
-24.3463,-11.9733,-5.8649,-4.157,-87.2988,45.636,-19.1641,8.0062,-0.22351,-3.4654,2.2447,23.6355,-2.2186,6.1992,
-23.8499,-13.1833,-7.9238,-6.3179,-78.6869,34.7025,-16.5683,4.1512,-1.6566,1.0811,3.0741,24.6272,-12.5703,6.309,
-18.3215,-8.7771,-5.2792,-4.7336,-66.9758,35.7538,-13.8874,4.625,0.61196,1.2572,0.7205,25.8012,-13.0209,10.5102,
-15.5348,-7.0449,-6.6492,-6.6187,-57.8956,35.2958,-15.2229,4.5889,-1.112,-3.3975,2.3645,22.5659,1.8603,10.6025,
-13.8796,-8.3095,-8.4194,-9.837,-49.8423,30.045,-17.443,0.21579,-6.5889,-2.4708,4.8737,20.9709,6.4487,2.4945,
-16.1803,-5.642,-5.2634,-7.5598,-43.7185,28.965,-14.7094,0.92597,-4.9885,-1.1175,3.3762,19.4715,7.2668,-0.30649,
-18.3427,-7.4724,-3.2601,-6.865,-46.1569,25.0582,-9.7293,1.1116,-1.0735,-2.7374,-1.4059,9.3854,6.1077,6.2201,
-10.7347,-4.3727,-3.3057,-3.3198,-33.0236,24.2774,-6.0122,-0.16061,-0.28598,2.0063,1.8118,12.4374,4.0542,10.4259,
-13.2236,-3.8694,-4.7941,-2.3973,-25.0164,20.652,-7.3387,-1.8377,-1.956,3.5732,3.3903,14.8247,2.6057,2.811,
-17.9738,-7.2526,0.072566,-2.0127,-31.9513,15.3153,-7.1391,-0.52241,-1.1156,0.70748,2.4637,5.0174,0.76236,2.883,
-8.9419,-6.5768,0.30918,-3.0973,-26.419,15.1193,-5.9879,-1.2144,-0.80766,-0.54026,2.0749,0.6185,-2.4169,10.6638,
-3.8256,-7.8689,-0.43227,-5.5625,-14.4696,13.0073,-4.9053,-4.7565,-0.51823,-1.7127,1.7095,-1.1054,-5.4049,6.409,
-7.6937,-6.1919,2.7269,-3.0598,-13.3607,5.7187,-2.442,-4.7123,-1.6922,1.0409,2.812,-2.7265,-5.3218,-2.8938,
-6.9909,-3.1691,4.7325,-1.1886,-12.7998,3.2064,1.3199,-0.33223,-2.796,7.0045,3.8485,1.0525,1.505,3.7877,
-2.715,-2.979,-1.3361,-5.938,-2.873,11.2092,-4.5439,-0.79423,-1.1819,2.2454,-0.72115,4.8457,6.7173,10.3089,
4.4373,6.5998,-0.533,-5.8231,7.1813,24.6366,-10.7792,0.94019,0.5762,-1.5047,-1.8832,9.1343,4.6271,4.6287,
8.5098,12.4708,7.6941,-2.0988,5.7866,31.4739,-1.4553,5.2226,-1.8685,4.8526,2.5686,7.6224,0.97546,0.97699,
9.2043,9.071,7.4735,0.19629,1.3418,23.0775,6.1038,6.5964,-5.8542,5.7662,2.1735,2.5857,1.1574,5.4977,
13.2316,8.2857,6.7841,3.7999,8.2512,23.8625,4.5323,9.3341,-0.9232,7.5899,2.2841,10.8663,4.7039,11.6757,
6.1712,2.486,0.59247,-3.6589,7.2742,17.61,-1.0418,1.5432,1.0604,5.6882,-2.1913,10.6967,3.9392,1.3342,
3.1496,3.5419,1.28,-3.6806,7.5606,14.384,0.22574,-3.1289,0.27363,-0.19691,1.0734,4.0291,2.4978,-3.3253,
4.1657,3.5705,3.3722,-1.7723,5.9019,9.9058,-0.028999,-3.6643,-1.4298,-5.2465,2.696,-5.1305,-11.752,0.0074321,
8.254,3.3561,1.7238,-3.5944,9.404,5.9367,-0.99136,1.858,0.58397,1.8169,0.60631,-0.9665,-25.1469,4.3451,
6.0718,5.8063,0.89749,-6.5117,11.4913,9.196,-2.1372,4.88,0.78989,6.2877,0.32896,8.4915,-24.8429,3.3615,
-1.0412,6.422,4.2179,-1.7829,5.4992,8.6444,-0.56245,3.6231,-0.70353,1.5718,1.7553,2.6796,-37.4524,3.6419,
3.1186,9.6521,5.1701,3.3857,13.1232,9.813,-0.76967,3.1648,-0.90228,3.1648,1.8909,3.7241,-49.3052,9.9314,
7.752,9.0727,1.9676,-1.6379,20.0486,10.1883,-2.17,1.0465,-0.36598,6.3491,1.2953,12.1775,-60.4469,8.8533,
8.251,9.9749,5.2238,-0.57554,14.5071,11.9874,1.3344,5.8042,-0.34425,4.5221,-1.1923,7.1083,-68.269,4.4655,
5.1046,6.7248,7.5614,0.66383,13.8776,11.0267,1.0134,4.733,-2.9747,0.63538,-4.2543,-2.7182,-62.4859,3.9566,
-0.74506,-3.5604,3.4925,-4.437,14.2503,1.9297,-2.6626,-7.3613,0.81898,0.35606,-2.3116,-2.3139,-54.157,4.9243,
-1.9056,-3.5882,3.042,-4.4122,11.2261,-1.3196,-3.7081,-8.6069,1.0108,1.54,-4.8244,2.8862,-45.3642,4.8698,
2.547,2.8936,5.7516,-0.29108,13.4446,4.0618,1.3351,2.0324,-1.9419,0.48326,-7.9094,-4.0359,-40.7141,3.6137,
1.9123,1.7561,4.9245,-6.0582,18.9049,4.7824,-0.19129,0.46468,-1.3435,-3.4021,-4.0604,-11.5065,-41.6455,-4.7978,
2.7616,1.6508,2.7009,-9.5511,20.1807,0.63905,-5.9644,-7.276,0.66535,-1.7517,-3.3348,-1.1752,-46.3776,-4.9923,
4.2831,2.2746,0.85159,-3.9163,13.9082,-4.9429,-3.4374,-7.0804,2.3127,1.9688,-10.6065,0.58257,-52.0309,-1.5593,
5.9544,5.5128,1.2827,-2.2353,15.4841,-1.2721,-4.1952,-2.7994,1.6917,2.8148,-5.6316,-1.8623,-36.8577,-7.2505,
5.3559,8.3153,-0.48175,-5.2345,21.5447,4.3481,-7.5592,-0.46204,-2.025,0.95842,5.5523,3.3104,-20.5462,-5.1285,
1.9013,6.6111,-1.6577,-2.2693,21.9392,2.3999,-4.936,-0.67529,-1.1806,-0.78586,4.4963,2.8713,-16.0597,7.4717,
4.6795,7.1785,-2.0404,1.7235,22.5511,2.2557,-3.1938,-0.15307,1.7826,-1.2209,1.3342,2.2169,-16.0602,6.0593,
9.7014,11.5683,-3.8459,-2.2366,27.9469,1.6387,-5.4125,-0.62559,-3.1449,-0.66545,6.0746,10.7607,-4.9735,-4.4274,
9.3603,15.4537,-3.3744,-1.3792,32.7776,1.2992,-8.221,0.61701,-5.6075,-2.7949,11.2535,16.6228,0.38638,0.41778,
4.2191,9.4651,-3.8951,-0.091417,25.2673,-4.3226,-6.5227,2.267,0.75472,-8.653,4.553,3.8151,-13.7368,6.4185,
5.412,9.861,0.67693,8.5912,23.7513,-7.9197,2.0634,5.5054,5.0478,-4.7594,-0.54088,-5.0909,-27.0126,2.177,
11.3543,14.0901,3.5288,16.2704,31.0033,-5.0339,2.422,4.2112,-2.0036,1.7927,2.866,-7.1956,-39.4918,-2.7743,
6.8166,6.496,2.353,10.9561,27.6968,-5.214,-2.0619,0.10194,-4.2937,1.6854,3.6582,-6.7636,-51.2223,-1.6438,
2.31,4.4192,1.4887,9.0932,26.7581,-6.5882,-1.2151,3.2291,1.0254,2.7893,0.78735,-4.6708,-62.249,2.0705,
3.1355,8.0102,1.8815,16.7425,29.4912,-9.5676,5.6065,5.9276,1.9279,5.0323,-0.70592,-12.5855,-58.8755,-1.9103,
2.2243,2.9503,4.9021,15.0151,21.2138,-17.4292,5.993,-2.8637,-1.3212,0.15063,-6.2072,-19.7841,-62.8148,-6.8574,
3.2961,3.4964,3.8849,10.0166,22.1104,-18.0704,2.0182,-6.7895,-0.51881,-2.5097,-8.968,-11.125,-67.9637,2.9543,
3.3393,7.3838,1.4824,10.1387,22.471,-13.853,5.5128,-1.3206,1.6817,0.29218,-5.2967,-16.0014,-57.3782,13.1411,
5.7903,8.1458,3.5628,11.2174,25.7022,-11.8167,9.2792,1.4099,1.3396,-1.4123,-3.7738,-28.7798,-45.0177,7.2912,
8.3349,8.1392,2.8669,10.0622,34.7649,-6.2877,7.2759,-1.085,-0.1868,-5.6662,-6.4401,-26.5709,-49.0655,1.5508,
7.1119,7.4101,1.9718,8.7358,24.7255,-1.3305,6.1167,1.1495,0.54754,-1.2286,-5.8121,-20.3971,-49.7368,2.6633,
11.7467,9.6166,3.0587,5.5601,25.4111,-5.348,4.0625,4.6959,-0.69061,1.4962,-7.633,-21.3425,-34.9422,-5.4507,
25.1419,15.0652,7.9364,4.5036,37.9865,-8.1606,9.3623,2.7269,-1.3721,-1.7271,-9.8261,-27.0518,-38.3895,-15.0056,
37.7333,22.8379,10.3528,8.0898,49.8073,-4.297,15.0671,-0.81114,-1.2897,-5.9618,-11.6471,-30.7313,-42.8348,-16.0334,
49.5693,22.6734,0.33161,-3.7238,60.9189,-16.3312,7.6556,-12.0907,-12.5406,-18.378,-22.7579,-40.6976,-34.7209,-24.4714,
60.6952,31.1947,1.9987,-6.1517,71.3637,-27.1617,17.0784,-12.5703,-13.9575,-21.8553,-25.49,-51.9943,-29.0224,-24.6901,
71.1535,37.0358,1.8788,-4.3363,81.1819,-30.8342,17.9819,-18.0826,-19.8685,-26.8105,-29.7455,-62.9746,-26.317,-32.8497,
80.9843,43.7317,6.8277,-5.7634,90.411,-29.2255,19.0722,-19.6492,-18.4354,-28.3354,-22.8993,-61.727,-10.638,-39.7968,
90.2252,55.0873,7.8641,-6.8636,99.0863,-39.0409,26.1228,-17.5061,-20.2216,-30.0095,-21.5251,-58.9872,1.208,-41.2656,
98.9117,65.8821,11.4898,0.53784,107.2411,-38.3859,36.3658,-14.7683,-17.8032,-26.0395,-24.8131,-53.2788,15.2355,-33.7282,
107.077,69.2802,19.4773,1.9516,114.9067,-33.1905,42.8607,-16.7745,-11.9146,-23.995,-23.8065,-56.3488,25.0472,-36.0426,
114.7524,71.1492,26.2627,6.414,122.1123,-36.7425,46.3144,-10.2247,-9.5127,-23.7608,-12.9783,-64.7783,27.6415,-36.0494,
121.9672,75.5574,27.097,13.742,128.8855,-41.7687,48.8381,-2.3803,-4.6031,-14.14,-1.5939,-59.4451,40.083,-20.3891,
128.7492,65.4801,28.6045,14.1225,135.2524,-44.3241,48.0768,-6.817,1.2164,-7.7482,-1.2575,-49.8531,51.778,-17.4788,
135.1242,54.8026,30.2629,13.7573,141.2373,-47.4492,50.0131,-5.9258,0.66128,-13.0677,-5.5206,-47.8257,62.7713,-27.0347,
119.9064,47.658,20.7339,9.5574,146.863,-50.869,48.4581,-1.232,-3.7167,-13.7301,-7.1176,-53.1511,58.8846,-25.895,
101.3839,38.773,12.5004,6.8148,152.1512,-44.6836,37.115,-3.3272,-4.2171,-3.9885,-5.4854,-41.5264,52.2182,-13.0131,
81.2008,22.9491,12.2321,6.8881,157.1222,-42.9667,31.0315,-8.9124,-1.5537,-3.7489,-6.1204,-24.9348,51.0133,-6.4475,
62.2288,10.2439,8.3651,2.8594,161.7948,-50.2706,27.9647,-7.1724,2.6373,-10.0315,-3.1019,-24.2821,56.8706,-7.2659,
44.395,9.8705,-0.57267,-3.338,166.1871,-45.5671,20.7435,-5.5369,1.756,-5.3325,5.5202,-24.9943,63.8225,-13.8196,
27.6313,4.6987,3.0769,0.9599,170.3159,-42.1102,19.7396,-7.8561,4.7839,1.9771,9.2861,-9.3947,62.6444,-14.6779,
11.8735,-9.6832,-0.24099,3.0717,145.997,-53.6836,9.6374,-10.9999,2.8098,-4.6487,-2.1167,-0.27461,62.501,-5.3609,
-2.9389,-16.4535,-10.3494,-3.3796,123.1371,-57.8137,0.38204,-11.3042,-2.6614,-7.2623,-6.3284,-0.74007,65.4998,-8.4137,
-15.5371,-16.9126,-5.8721,0.19765,101.6489,-52.4169,6.1437,-11.1079,2.3185,-0.077692,3.2103,-2.6241,56.2672,-16.5859,
-24.7275,-21.2002,-2.6275,3.0781,81.45,-55.0562,6.2572,-11.4055,6.518,-0.073259,8.8025,-0.056284,51.927,-4.5033,
-34.0901,-30.2925,-8.9778,0.24185,62.463,-58.2608,0.82013,-9.9983,6.3679,0.65404,12.3717,2.116,62.9114,6.6127,
-33.9731,-28.9572,-7.475,6.0121,44.6152,-49.4625,4.6275,-6.0237,10.8063,8.8097,15.4855,3.4353,70.3444,-1.4971,
-38.6834,-28.1838,-7.5082,4.2054,27.8383,-46.4948,5.314,0.12206,8.7119,7.3171,13.5923,2.7473,64.1954,-3.8172,
-42.8699,-29.1439,-10.6731,-3.0368,12.068,-46.3564,0.4154,14.2147,4.0918,2.2987,16.3922,11.0181,72.1542,4.8475,
-40.7799,-30.7695,-10.9968,-3.3368,-2.7561,-40.6827,-2.9838,27.4619,3.8461,1.6787,20.2291,22.4083,81.925,2.6287,
-41.4666,-37.3594,-9.6141,-1.4493,-16.6907,-41.8572,0.32876,11.7141,6.7488,2.3008,14.918,20.8229,73.7555,-0.66248,
-42.3528,-35.1176,-8.0732,0.56605,-29.7893,-42.72,0.7912,-3.0887,7.308,6.0194,12.5769,19.0918,68.3661,6.1259,
-42.4629,-31.3236,-6.3837,-1.1549,-42.1019,-40.8799,-4.3182,-10.375,6.6283,6.8633,16.8838,17.7051,69.3256,10.3379,
-41.8431,-34.2642,-7.4467,-4.4598,-53.6758,-44.6936,-1.1663,-8.3064,8.6409,4.0416,15.871,9.4122,72.3971,6.8253,
-36.9224,-31.7266,-7.0002,0.14584,-64.5553,-42.4942,1.3135,-7.8078,10.5328,4.7627,12.0264,7.401,77.694,4.4879,
-39.7685,-30.064,-3.4464,1.3422,-66.8282,-35.8469,-1.8985,-9.9907,9.6597,7.1283,8.6535,6.2342,66.5247,4.9417,
-44.8544,-33.804,-4.9269,-1.8719,-71.2544,-34.9014,-3.4718,-11.5608,6.9109,7.9059,7.4109,5.1368,56.5076,4.8857,
-42.6451,-36.1141,-8.4879,-0.31306,-71.3177,-32.3254,-4.7096,-7.0106,6.9784,6.4674,10.8229,8.2028,64.2042,3.6285,
-39.6045,-34.4294,-7.0147,-2.2229,-66.5567,-25.0835,-5.3913,-6.5899,7.0417,6.0794,13.0656,8.6745,63.7264,4.857,
-38.1923,-27.0612,-6.1115,-6.4279,-59.671,-18.7577,-6.0322,-11.4972,2.7628,8.6067,10.8354,14.903,59.4209,12.7603,
-38.5519,-28.0886,-7.9139,-7.729,-62.1161,-19.3193,-4.4649,-11.5303,0.42786,7.8493,5.606,19.0705,56.5785,14.6462,
-36.7211,-28.3315,-6.9572,-2.9274,-62.2457,-21.5348,-3.2327,-5.0539,5.2224,7.8603,5.2696,14.5518,52.2195,8.9468,
-32.3485,-24.9444,-8.2272,-5.4026,-54.8956,-22.4119,-9.5465,-5.4738,2.7402,7.6299,5.6766,8.1353,49.8094,-1.9541,
-26.7919,-26.0988,-6.0459,-6.2837,-47.5042,-18.8978,-5.8402,-5.3863,1.8529,7.8954,5.5769,5.9599,46.5804,-2.5598,
-25.4256,-22.8459,-3.9964,-3.7375,-39.1106,-11.7384,-1.8748,-2.894,1.5003,5.2521,3.0732,11.146,37.7595,1.2092,
-23.6591,-16.4137,-4.9614,-5.6825,-32.1844,-8.3827,-5.3773,-3.4432,0.68734,2.7678,5.0579,15.0565,41.52,-1.5144,
-19.5882,-15.1877,-5.3868,-8.9567,-32.4225,-10.0489,-7.706,-6.3704,0.4049,2.361,6.9239,14.8762,45.536,-0.7009,
-17.9308,-15.2403,-1.2073,-8.9012,-31.9232,-4.6255,-1.941,-5.9877,-1.5476,2.7013,6.0265,24.107,42.3219,6.5725,
-21.4344,-17.9415,-0.89362,-9.5722,-27.8384,-5.553,-1.5838,-6.8339,-4.588,2.298,4.9418,26.7577,40.9877,4.0087,
-13.6409,-14.2137,-1.5631,-3.9364,-12.0681,-6.4251,-3.6581,-6.1827,-1.1795,2.8833,7.7785,17.6807,39.2515,-2.2576,
-6.5559,-9.9869,-1.4698,-1.7725,-5.4394,-3.1473,-0.064199,-5.8117,0.33758,2.2283,7.7937,11.7991,24.363,-0.19393,
-5.198,-8.9055,-0.41706,-2.1479,-3.1846,-1.0303,0.42182,-3.0527,-2.093,1.6125,4.4338,15.9117,24.3477,5.1201,
-8.0194,-10.5401,-1.1152,-3.2241,5.4423,1.6831,-3.7006,-0.70059,-5.5826,1.7569,1.0345,15.6801,36.9868,-0.24854,
-10.9129,-11.8359,0.398,-4.4769,0.29554,-0.34635,-0.58652,-2.5867,-0.90936,2.6154,2.9007,6.0626,31.0317,-3.1257,
-8.3299,-9.1978,-0.10827,-3.7263,-4.5429,-1.7716,2.8231,-3.8773,1.5553,1.0126,5.1368,5.2165,19.5288,5.2566,
-7.8301,-6.7175,-0.58371,-1.0926,1.0323,3.6371,3.6176,-2.1989,0.49814,-0.49437,3.3823,9.2418,27.5157,9.2795,
-8.5652,-7.5195,3.5489,-0.78587,0.24725,9.4447,0.26729,-1.8258,-3.1474,-0.70591,2.4562,6.5184,31.8905,-0.67705,
-3.7129,-3.6939,3.336,-4.5951,1.1967,11.7703,-4.0871,-1.7162,-3.9224,0.78271,9.0578,9.5017,33.8339,-4.0109,
-3.7309,-1.3033,-1.4437,-7.4527,3.7763,7.4489,-3.6006,-1.3721,1.3744,0.97694,6.8273,8.2085,27.7063,-0.15458,
-5.4357,-1.7071,-0.87515,-4.5954,3.0673,7.0017,-4.3489,-3.7003,1.7738,-1.0103,-0.81319,5.3054,15.9206,-1.1096,
-1.9761,-2.328,1.3465,-6.4888,2.1604,9.2329,-6.7391,-5.6475,-3.3938,-0.70828,2.3691,16.3157,13.2781,-2.2483,
0.79404,-3.8751,-1.3854,-7.3043,1.7898,11.3303,-4.6475,-3.139,-3.9131,1.9853,4.878,19.9161,8.3845,-2.3544,
0.023043,-1.9553,-3.4714,-1.3224,0.47708,11.8558,-0.75325,0.18238,-0.54527,3.0715,-0.95826,8.3572,-0.072742,0.92034,
0.50336,-5.2127,0.1111,-1.2438,-2.9262,6.8056,4.112,-0.79266,-0.51278,2.405,-3.3111,2.071,1.3777,-0.58137,
5.0529,-6.1052,1.3093,-3.8202,3.2754,5.6742,3.6243,-2.9143,-2.1692,2.5017,1.9492,8.9362,2.9822,-6.0901,
6.6777,-2.8466,0.74901,-5.0371,8.8632,10.6364,-1.8956,-4.1859,-2.0389,-1.505,5.2065,10.3284,-6.8379,-5.7245,
2.1799,-3.8809,2.3911,-6.9042,3.2699,7.3469,-1.0587,-4.1755,-1.6753,-5.5118,2.7247,5.6111,-8.1146,-3.2116,
1.5674,0.69096,0.80157,-1.669,2.592,5.9422,1.4152,-0.55027,-1.0926,1.5675,1.5976,13.9518,6.4722,-3.5011,
3.8833,3.5413,-2.6207,-2.0511,4.8464,8.9599,-2.5264,-0.51748,0.41894,3.8838,0.53719,13.1144,8.3738,-6.1833,
2.6864,-1.0095,0.91095,-7.2306,4.5556,11.7965,-6.2312,-4.3428,-0.088586,-3.0981,0.023022,2.6866,8.3533,-4.366,
-1.0902,-6.4925,2.5435,-8.0016,3.5594,8.92,-5.6159,-5.2875,-4.6626,-4.117,-2.1475,2.7668,7.6111,2.8858,
-3.1942,-6.3442,-1.2247,-1.4962,4.5509,5.2509,-2.1461,-1.3551,-5.5879,1.6734,-4.1881,4.2874,-2.7277,5.3635,
-0.83337,1.0264,-2.8385,0.76317,14.6422,13.8541,-4.1861,1.3778,-7.9037,-1.0781,-0.80329,7.646,5.8721,-2.4296,
3.5552,9.1597,-0.25782,-2.1749,22.4405,20.2535,-3.4532,0.81293,-6.4654,-3.4238,2.6196,11.5258,-3.639,-4.6942,
1.1727,9.333,-0.48331,0.60668,14.1042,11.0845,-0.59491,-0.44114,-1.0162,0.39705,1.2571,4.3263,-17.5207,-3.2077,
-0.34391,3.4704,0.027617,6.3544,6.0271,8.0089,1.369,3.9236,2.4192,0.37277,3.5918,-5.0923,-30.5695,-3.9796,
0.39985,-0.83494,-0.21524,5.2505,2.5322,8.2517,1.0461,2.4836,0.10466,-3.7467,2.1712,-9.3663,-36.6893,-3.0172,
-0.10607,3.5535,-0.68426,4.9354,4.7904,5.3462,-2.3911,-2.0042,-1.3474,-3.04,-1.8154,-2.0554,-48.5879,0.53779,
-4.6795,2.135,-2.8124,5.8441,7.6365,6.7127,-3.4529,-1.643,0.42019,-3.5805,0.46267,2.6472,-47.7215,2.6747,
-3.1936,1.7661,-6.2588,6.699,7.4195,12.3357,-1.0764,1.5893,-1.292,-4.5707,-0.77015,-3.5374,-38.8325,-1.101,
8.8081,13.4703,-0.82206,9.4301,11.5536,20.9956,-2.2171,6.0733,-1.4555,3.6573,-5.7856,-2.6018,-50.6025,-1.2759,
6.8336,12.6623,5.0121,6.9363,7.0038,14.9153,-1.12,4.2628,0.55983,7.294,-6.4026,-2.9278,-61.6664,-2.1634,
-0.56628,5.3946,3.988,9.6532,-1.3702,3.6561,1.1164,1.8374,3.6597,3.7233,-0.95675,-3.4755,-45.1922,-2.757,
3.8065,5.5533,-4.446,9.5564,-3.2162,1.5088,0.085543,0.2814,3.9225,3.018,-2.3456,2.0361,-48.7471,1.2653,
2.855,5.9428,-5.3843,5.3674,0.11005,5.5154,-1.607,1.4696,1.9997,3.5596,-8.2306,3.6005,-59.9223,5.7684,
-4.3058,5.8277,0.9643,11.5533,-1.1014,6.8719,-2.7155,5.4788,3.567,0.21297,-5.0853,-3.605,-56.2065,-1.0852,
1.014,6.2009,8.3787,17.8499,-4.1688,3.8085,5.8836,6.8377,7.9327,2.3694,2.6917,-4.5935,-46.3264,-5.1174,
3.8455,6.7927,6.9117,11.4763,-4.4006,2.6157,5.5301,1.6067,5.0461,2.2272,-1.8086,-3.354,-45.9572,0.97421,
-1.6881,8.7957,4.5688,9.3414,-3.6546,3.4228,4.7164,3.4385,4.7434,2.0936,-5.0741,-9.9017,-38.8614,6.2184,
2.5108,9.9552,8.8739,17.699,-4.1582,1.5302,12.8695,7.3296,10.0024,2.6908,-1.6366,-12.9226,-33.8784,-0.66264,
11.2779,11.0449,8.5827,15.4316,3.0809,5.0538,7.0355,1.8283,3.8589,1.3243,0.14904,-5.6399,-28.7122,-4.2381,
10.1193,12.3104,5.6576,4.3828,6.7524,10.5352,-1.099,-2.6197,-3.6035,0.76294,0.62203,0.96542,-22.6507,2.2832,
3.9686,11.8128,1.7027,1.9506,-2.5708,12.0722,-6.5767,-1.2577,-5.0745,-0.48767,-3.0307,3.5586,-25.3895,2.8691,
3.0075,10.863,5.6979,8.8235,-3.6214,14.9633,-6.9054,4.3614,-1.6366,0.74643,-3.0898,3.5865,-25.0709,5.8304,
1.3808,9.2474,9.2124,10.7042,1.4162,12.6197,-2.1523,5.0641,1.3537,0.70164,-2.4225,-2.4133,-23.5667,4.5163,
3.4674,11.8258,6.4903,6.4468,5.4288,11.1394,2.5559,2.1089,0.54934,-1.5094,-0.58971,-5.8841,-26.7322,-2.2624,
5.6692,8.7059,7.065,3.6491,6.0667,11.9166,0.9565,1.0178,1.4805,-3.3472,2.8199,-7.4595,-18.3801,-3.0908,
7.0163,6.4963,9.7746,4.1535,9.3181,12.4069,-1.7524,4.0902,0.66874,-0.49532,5.7837,-8.2172,-7.8772,-2.1824,
5.3905,7.7938,2.6801,-0.19302,6.1079,9.4933,0.52232,1.1937,-2.5049,0.73969,0.85742,-6.5189,-21.5046,1.082,
1.6924,6.844,-2.3011,1.2646,-3.8993,4.5854,3.3833,-2.2526,2.4659,3.1057,-2.0863,-7.0919,-22.7449,10.1759,
-0.096163,2.3362,0.97064,1.9118,-3.4246,3.5872,-3.8094,-2.3582,4.0054,-0.69632,-0.75607,-13.1736,-7.2802,4.9863,
2.3197,1.2317,4.2864,-2.5412,3.5298,6.2642,-3.0989,-1.7348,1.8364,-4.029,0.73555,-12.3836,4.8462,-6.4006,
4.8316,3.8089,1.3781,-2.1477,5.4872,9.9857,2.1483,-1.8716,0.52141,0.31056,3.3425,-6.097,-3.3983,-0.47292,
-0.51971,-0.51676,-4.2484,-0.81382,-3.7599,6.7352,-4.0059,-2.0005,-1.6793,-0.9136,2.9012,-5.9724,1.867,4.135,
-1.2114,-4.1012,-0.86002,2.8504,-10.0423,2.2338,-4.4885,0.77105,1.555,-1.5817,2.0043,-8.7471,10.1912,-4.0669,
5.6097,-0.96304,0.63784,2.6794,2.6118,2.0998,0.11915,1.6887,1.9436,-0.040523,-1.4905,-4.3659,9.5797,-7.1973,
5.0322,-1.1462,-4.944,-0.61485,11.3732,2.6971,2.7631,1.3464,0.13977,2.1311,-4.5345,0.47584,7.7996,-3.1501,
4.2483,0.85074,-3.2016,1.8322,3.9419,1.5707,-0.77714,0.78366,-0.35055,2.0032,-3.7805,0.44683,4.4391,-4.4073,
8.0908,8.2715,3.4984,0.51741,7.3208,0.75383,-3.3816,-1.9149,-2.0167,-0.28615,-1.3845,4.5178,2.9679,-4.3838,
3.7489,2.4726,4.7348,-1.4418,7.3635,-2.6661,-1.7325,-4.2101,1.4787,-0.26898,0.14481,2.8005,2.3079,0.69991,
-2.7428,-5.3883,1.076,2.5008,-4.1653,-2.9881,-4.5208,-4.9216,2.836,-0.25307,-3.2381,0.70405,8.9181,-0.78812,
-0.64954,-1.6906,1.0119,1.3869,-0.059013,2.4939,-5.2139,-1.2519,0.73767,-0.23743,-1.1156,7.8926,17.0601,-3.6334,
-2.2983,0.097622,-0.73648,-3.276,5.9701,0.65702,-7.0702,-0.45387,-1.4758,-3.3571,3.0487,3.3217,14.8308,-4.1387,
-6.9806,-3.2822,-3.102,2.2236,-1.1366,-4.2029,-2.7896,-0.90857,2.4692,-2.1914,0.93756,-9.893,3.3361,-5.3362,
-4.8745,-4.7728,0.21718,7.1514,-5.1662,-3.2276,6.7778,-1.095,8.3466,4.448,-1.7698,-12.4327,-7.2279,-2.3649,
-2.4129,-1.8351,-0.037274,-0.74946,1.6513,0.58103,-0.61877,-4.1628,0.37397,1.0477,-2.387,-6.1433,-3.6612,-1.0177,
0.38295,1.8905,-0.75794,-1.4279,5.6495,7.0541,-3.7151,-1.2619,-1.8176,0.74385,2.8179,1.2151,7.8866,-0.7157,
-1.327,-2.8025,-0.9532,3.7197,-0.23282,3.4976,1.5697,-0.94503,3.3529,1.4224,-1.9307,-5.3655,7.1727,-5.2523,
4.0555,-1.6702,2.4782,3.9787,13.7611,4.2518,3.8859,-0.40617,5.5621,0.85485,0.1136,-4.5614,12.0448,-0.59859,
0.67866,-4.7035,-0.80396,-7.5882,14.6222,0.86325,-0.4451,-4.9611,-1.2791,-6.1863,2.2759,-5.493,9.1529,0.16022,
0.39675,-2.2519,3.3419,0.82059,3.8627,2.0167,3.6792,-2.0121,4.341,0.21064,0.45193,-4.4403,11.737,-0.090126,
2.3014,-2.1166,5.0698,8.9663,-5.5278,-0.99655,3.4587,-1.8916,4.0808,4.5365,-6.3239,-8.5124,10.0687,-5.3876,
5.0553,-1.0257,4.7656,4.5719,-6.6424,-1.4189,2.2868,0.15009,-0.50286,0.8899,-4.4982,-10.4118,-3.5509,-2.1718,
9.3315,6.0255,3.2741,1.1644,-1.1824,4.2101,-2.9118,0.86421,-1.6778,-0.85049,0.83317,-1.3512,-4.0609,2.538,
10.9408,8.7974,0.42658,0.85353,5.3965,7.5724,-2.9781,-2.8031,-2.3,0.40538,1.9885,3.3092,10.2827,-2.194,
11.4897,8.9925,1.1239,-1.3668,13.5083,12.1798,2.2618,0.016217,-1.4391,-1.3062,1.6282,2.8697,17.2583,-1.339,
3.5697,4.5968,-0.38957,-4.1771,9.3236,8.5567,-0.28379,0.49741,-0.87058,-5.084,-4.2543,-0.67675,11.8842,1.1517,
0.22177,3.5978,0.83886,-0.31131,-1.118,1.0536,1.9022,-0.25557,3.7612,0.28253,-1.8297,-1.3593,12.3762,0.35945,
1.414,3.6232,0.065861,-1.4977,-2.7379,2.6779,5.8856,0.4829,-1.044,-1.9038,-0.51481,2.8199,17.6594,0.096684,
1.5697,-0.2101,1.7487,-6.4695,0.55942,9.9885,2.8809,0.21296,-5.0792,-8.2975,-0.24295,6.748,23.5893,2.742,
3.1629,-1.8845,0.92063,-7.2864,1.7314,9.6304,-6.2098,-3.8974,-6.4614,-5.6303,2.9049,5.1381,30.1279,1.3724,
4.6606,1.3623,-3.2317,-6.1261,-0.059505,7.3656,-4.6317,-4.8686,-7.2788,0.25138,3.4537,4.1067,30.9715,3.4594,
7.273,5.6189,-0.6277,-5.2766,6.6925,13.1902,1.4308,1.2081,-4.9139,-2.6562,0.83637,3.8603,29.5952,0.84175,
7.5598,8.8969,0.13309,-3.7545,12.3167,16.9783,-1.7883,3.305,-3.4135,-6.112,-1.3832,0.97733,32.8814,-3.3063,
3.2496,5.4708,-2.7672,-2.0832,0.97221,8.7285,0.24698,-0.74994,0.64744,0.03949,-1.3,-7.2762,24.6418,8.4614,
1.6083,1.2862,-4.5293,-1.9586,-3.4244,3.3846,0.71409,6.044,-0.83767,0.51905,-1.7044,-9.7322,21.2346,13.7383,
3.1993,1.4502,-3.0525,-6.4202,7.6271,10.1711,-5.3545,19.7813,-6.8132,-5.0559,1.0492,-5.0507,29.8427,-1.186,
3.4895,2.3273,-3.8335,-6.9991,6.2053,12.9351,-2.1405,31.2482,-3.5121,1.0322,4.3605,1.0372,21.3035,-6.0558,
2.3158,4.5978,-6.496,-6.0972,3.4229,8.785,-2.4945,15.2733,-1.3732,0.48837,1.2068,3.867,13.2768,2.5023,
4.3462,3.5988,-2.0086,-7.4184,8.2794,6.0885,-4.5137,0.2569,-1.5315,-7.0125,1.8575,-3.8366,19.9522,2.1114,
10.3522,1.9368,2.9324,-1.1889,6.3362,5.241,1.5414,-9.8814,0.48832,0.15646,2.2282,-8.9088,15.8623,-6.2102,
9.7309,1.8209,-1.0997,-1.1173,2.0998,2.5167,0.0029245,-7.8425,-0.50461,8.8244,-0.31582,0.30258,6.7161,-5.3554,
6.0137,2.9167,-2.2388,-7.0761,0.2864,3.0883,-5.5406,-10.9871,-3.6081,2.7511,-0.53807,7.2741,14.2667,6.2938,
6.3761,4.9106,0.54638,-4.4826,-1.4178,6.5187,-5.4494,-8.159,-5.0786,-1.5116,0.21734,3.7044,12.6875,11.9415,
3.3422,3.4109,-2.1373,-1.5618,-1.0915,3.9582,-1.9892,-9.3564,2.2158,1.7129,-0.036436,-0.13308,-2.1737,1.3433,
-1.9196,3.4472,-2.7324,-2.6734,-1.7494,-2.3049,-3.557,-11.9281,5.6983,-0.55908,0.68865,0.11587,0.0058437,-6.691,
0.60572,5.1686,-2.5684,-5.4055,-5.0189,-1.6846,-4.3075,-7.8384,-2.3564,-2.9361,0.64733,0.10892,-0.4769,-1.4693,
5.1487,6.5457,-5.0654,-5.8041,-9.297,1.5499,0.04831,-3.2707,-4.3842,-1.0727,1.3314,-5.4412,-14.5483,1.27,
1.2243,8.3221,-1.628,-1.8404,-7.052,-1.1942,-1.1599,-4.7613,-0.023777,-2.2132,2.4568,-4.8738,-18.8573,-3.3855,
-1.9826,6.6175,1.1203,-1.9714,-4.4602,-4.7384,-2.7775,-9.5377,-2.192,-1.8399,0.62217,6.2644,-12.6647,-1.4952,
1.752,2.6052,-4.9722,-7.3965,-5.3972,-0.83844,-3.8159,-10.6525,-10.014,-0.52444,-6.4048,7.576,-22.7508,3.1741,
8.8775,7.7518,-7.5662,-5.5063,-5.0736,13.3119,-3.5867,-5.6748,-7.4847,-1.4566,-5.5384,3.2648,-14.1547,0.57326,
7.3807,11.1429,-3.2556,-2.766,-12.4817,22.0339,-3.8537,-3.8882,1.6413,-6.6721,-0.86796,1.141,-13.3056,-1.8715,
7.4198,9.51,-2.5783,-4.0463,-16.5535,23.6039,-7.4789,-3.655,1.5423,-6.7537,-1.2978,5.4109,-26.6073,-0.79488,
10.5898,9.1806,-3.6292,-7.9011,-12.427,26.7667,-6.7894,-2.7125,0.72665,-1.7694,1.4314,6.2913,-13.5622,-1.4703,
7.7855,7.9066,-2.6878,-9.596,-9.994,25.8843,-5.6589,-2.7905,2.8524,0.024201,7.3713,4.2268,0.026225,-2.1052,
4.1851,6.2271,-7.588,-10.7072,-5.7791,26.0187,-10.3808,-2.8643,-5.2722,-4.5563,1.8675,9.999,-12.7496,-2.2196,
4.8981,5.3713,-9.5431,-10.065,-6.3965,23.493,-7.3476,-2.2103,-11.2226,-8.1395,-8.3676,9.3988,-24.0364,0.32343,
7.0146,9.3876,-1.258,-3.6763,-6.0125,23.0475,-4.0145,0.33271,-2.3543,-3.3126,-4.9733,3.5325,-17.2913,7.5351,
2.9783,9.0653,-4.3155,-5.6249,-2.5187,26.2444,-12.6917,-2.3388,-0.52631,-3.3553,-3.952,4.0434,-22.7618,5.3958,
4.2456,10.9318,-6.9489,-1.4312,-0.43914,30.9365,-6.1454,2.1401,-2.9046,-0.74362,-4.679,12.9601,-34.4113,6.0361,
2.3036,11.9631,-10.1478,0.82382,-4.0282,27.3926,-7.9463,4.1808,-5.3819,-1.9043,-6.5674,9.5309,-43.6752,5.4325,
1.4425,12.9325,-5.4411,1.4977,-3.0636,25.0262,-9.1562,5.1353,0.0026937,-1.0667,-3.0403,7.2718,-37.9212,3.4198,
3.0432,12.3975,-2.9455,4.059,-4.567,19.9092,-5.4738,4.1038,0.2435,1.6484,-2.6165,15.2716,-29.138,6.83,
2.6194,11.4125,-2.0456,9.8412,-11.2827,13.6532,-2.976,3.6168,-0.49424,5.1652,-2.7007,16.0423,-33.4155,13.4099,
-2.599,8.5586,1.2106,11.9018,-18.0775,11.1468,-3.5204,4.1227,3.1508,5.5782,-0.36948,0.97981,-39.3643,11.4,
1.8951,11.9017,3.5478,12.1523,-11.69,14.8165,-1.8631,8.2139,2.962,5.2437,0.61678,-5.9479,-22.9025,6.8598,
2.7457,10.7052,-0.52141,9.0126,-9.0608,11.035,-1.7513,8.6849,-0.59016,4.9291,-5.2048,-0.77078,-8.1515,1.1456,
-4.168,6.2065,-1.454,9.4357,-13.8198,6.5165,-2.6106,7.2,3.3016,5.5972,-7.3026,1.2037,-12.4831,4.4509,
-4.4003,5.8341,2.4892,11.762,-14.9188,-1.1053,-0.043809,5.8037,5.0317,0.92304,-3.0086,-0.79676,-16.0724,10.4508,
-1.0023,8.6175,5.4733,12.7436,-15.7105,-7.5465,3.5747,6.6607,4.4889,-2.2658,-1.1404,-5.3287,-11.0107,6.6902,
0.74459,12.1978,4.9039,11.2556,-9.7066,-0.58621,0.70866,6.0201,2.5323,0.039283,-3.7235,-6.6962,-3.8421,3.1553,
-2.4331,5.4404,0.99429,6.9648,-7.437,-1.7559,0.42518,2.0435,0.69314,-1.6503,-5.6692,-7.4993,-3.3706,5.6176,
-4.2155,0.77545,2.3811,9.9216,-11.8113,-10.8098,4.2563,3.8488,3.5438,-1.5511,-4.8469,-7.0495,-4.1325,3.3521,
-5.6498,3.8624,5.3713,10.5312,-14.718,-5.5814,-0.57884,2.4131,3.0902,-3.1452,-1.905,-11.2059,3.5873,0.49988,
-7.7208,5.0767,5.5312,5.5612,-12.8708,2.9484,-2.954,-0.62399,2.4227,-3.9206,-0.82616,-18.246,3.8542,2.8802,
-10.8729,0.19281,4.4764,9.3249,-16.6779,-6.6285,2.2845,0.61874,6.3751,-0.069943,-4.392,-24.6233,-6.7414,-5.2463,
-9.7386,-7.0496,6.136,14.55,-26.7644,-20.3308,5.5218,-0.38271,10.8129,6.2008,-5.0928,-29.4127,-9.7114,-7.8241,
-1.9237,-5.1806,3.3575,8.3746,-21.3022,-10.3138,-2.0405,-1.3238,3.4154,4.3827,-1.895,-16.5607,4.9713,4.6967,
1.5662,3.8073,-2.6285,0.64124,-8.937,4.405,-7.2203,2.612,-3.5384,0.74528,1.1113,-1.467,18.773,12.1277,
-1.1789,3.8199,-2.7118,-1.5664,-15.3902,17.7588,-4.6179,1.25,-0.67456,-0.022341,-0.64264,8.3824,5.5958,4.8925,
1.0608,6.242,1.0661,2.1428,-20.0107,14.0419,-5.5459,0.45183,0.089045,-1.2261,-3.7373,0.40791,4.0545,-3.355,
2.6846,8.5188,0.27901,-0.63711,-20.0151,15.8507,-7.8645,3.076,-3.5319,-3.3219,-6.1644,0.14224,7.4269,-4.8407,
1.559,4.633,0.74443,-1.081,-23.1527,13.9356,-2.5721,3.8556,-0.90967,-1.1946,-5.7948,-2.2766,0.71409,-3.5866,
3.635,4.5964,-0.98746,1.1534,-16.7019,12.8585,-3.1407,1.9375,-3.0243,-0.88151,-0.38542,0.02957,6.6972,-1.6837,
4.863,3.8385,-2.3742,-0.3618,-8.9511,14.4973,-4.3987,2.7853,-4.2888,-2.2747,1.0837,6.2941,15.4542,1.3096,
1.1967,-1.2125,0.17834,3.0339,-14.6808,8.3248,-1.7247,1.1715,0.30682,-1.1743,-2.8377,3.9882,8.7424,3.1588,
-1.044,0.065739,4.2652,5.0213,-16.451,2.282,1.5125,-0.5858,1.0115,0.58361,-0.98042,1.58,-1.6639,3.6924,
1.1878,3.1948,2.3221,-1.788,-11.3666,3.8323,-0.7474,1.1366,-2.6646,-0.6567,-0.19823,0.76186,-2.2874,1.3017,
3.0447,1.0749,-1.1917,-3.1265,-8.7564,7.9407,-4.5589,1.0684,-2.0228,-2.5455,-4.0427,-0.72966,9.9014,-1.1866,
1.175,-4.051,-0.39707,2.1226,-10.4002,3.849,-3.5623,0.76354,0.74993,-0.7053,-1.6308,-2.8553,14.3688,-2.3204,
1.5865,-1.3978,0.10869,1.5128,-3.9918,-1.2026,-1.9027,0.71727,-1.7052,1.2647,1.8411,-2.202,8.6859,-1.2173,
2.6964,0.85544,-1.1029,-2.6751,-0.61907,2.0028,-0.10158,0.4335,-0.88021,-0.98053,1.9718,-2.3111,11.78,-0.42118,
-2.0449,-5.7036,-0.31359,-2.2734,-8.5354,1.6419,-1.782,0.64868,0.86006,-3.0906,4.0229,-3.8594,12.7606,-3.5292,
-1.4401,-4.3973,-1.2589,1.2372,-4.1667,1.5431,-4.5679,3.5021,-0.15564,3.3616,4.2632,6.4953,15.3692,-1.389,
-4.9691,-4.8568,-10.1014,-4.3806,-6.5682,2.1735,-5.4991,-1.2878,-4.7261,3.4008,-5.3926,8.2747,14.688,4.7199,
-3.4657,-4.8059,-9.2539,-4.3587,-7.379,10.9611,-5.4096,0.47668,-5.6473,1.5096,-7.7201,9.9479,10.6737,10.9442,
-3.2582,-6.9281,-6.289,-7.9541,3.6686,13.1955,-10.3882,2.3763,-5.3085,-0.50921,-3.8829,16.5814,7.6227,4.503,
-3.7858,-6.2717,-5.1885,-9.6457,9.4738,5.4141,-6.1492,-0.89956,1.9997,0.7264,0.92957,18.2378,2.5858,0.61713,
-2.1122,-3.4851,-2.4669,-2.3183,4.5673,2.6789,-3.3699,-3.7379,4.772,1.165,2.3203,12.805,-3.8356,0.58033,
-1.0214,-6.6502,-0.39042,-1.6971,-3.9017,2.0365,-4.1318,-3.9958,3.5216,2.5411,2.6632,7.6986,-3.1233,1.0277,
0.96789,-7.2153,-3.7412,-5.9338,-1.7392,2.3965,-5.3299,-2.7919,3.7924,3.3527,3.4675,11.0928,-0.043618,4.3402,
2.838,-2.4436,-5.9273,-5.0958,10.8982,7.0729,-6.4564,-3.1063,3.5649,1.2234,6.1515,20.5506,-5.8256,5.5261,
-1.6706,-6.6357,-1.2329,-2.8619,8.3161,0.86397,-2.6946,-2.92,3.8329,-0.77821,1.9261,16.4251,-9.8148,-4.9284,
-3.4985,-6.7195,1.2512,0.68428,-4.7159,-8.3469,-2.051,-0.33464,1.6748,1.1967,-3.9741,5.3162,-11.1541,-10.8997,
2.255,2.6017,1.899,4.2586,-4.6743,-3.2668,1.6875,2.3365,0.36898,2.3302,1.326,2.3461,-17.9567,-0.36374,
5.012,5.3374,0.33905,0.62845,4.7649,3.196,3.0323,-2.1422,2.2753,-2.6306,6.0665,7.0259,-9.6487,3.9966,
3.5062,-1.9724,-2.3326,-3.9883,8.5766,-0.611,-4.6217,-8.5214,3.3438,-2.2316,4.4975,12.1477,4.6688,3.5156,
2.3317,-6.1922,0.69963,-1.8206,3.7239,-6.8406,-2.8979,-6.0812,1.6972,1.759,2.782,4.1887,-6.2159,1.8591,
4.8429,-2.2057,2.3449,1.9036,4.2234,-2.3333,3.7835,0.79113,0.87196,-0.99813,1.8918,-3.5349,-10.4227,-6.2066,
3.1061,-1.591,-0.68834,-1.5851,8.3083,-1.229,0.6644,1.7075,2.2659,-2.384,0.81392,6.3181,1.7718,-8.7263,
-5.0343,-7.0393,1.0404,-4.6232,4.6765,-6.2171,-4.9193,-3.4564,4.2993,1.3742,4.3803,10.0366,2.8706,-8.4439,
-3.7676,-5.1705,0.013898,-5.3099,7.7702,-2.9514,-6.5521,-6.6232,2.113,-1.6006,5.564,-1.6526,0.7699,-10.8296,
4.4122,2.6115,3.1466,-2.8217,17.6683,0.84114,1.7948,-4.0567,-1.1468,-2.7094,4.5072,-2.7587,5.3034,-0.29739,
4.8706,1.2493,5.1267,-3.8579,15.8851,-6.1994,0.96394,-4.5364,-7.1038,-2.788,1.5855,-3.7982,2.8159,5.2638,
5.7834,-0.03024,3.1321,-6.7597,13.7269,-3.6581,1.6292,-2.5767,-2.58,-2.3795,2.2135,-6.7036,0.47797,-1.5597,
5.6773,-1.2337,-1.6356,-9.9695,15.5544,1.1407,2.7363,-4.1098,1.1902,-6.3346,2.3216,-5.0965,-4.6124,-5.0815,
4.1316,0.04491,-4.6707,-9.6126,23.057,-1.5791,-2.9712,-5.5502,-5.8713,-8.1239,1.4592,-2.6214,-4.0949,-3.0897,
4.1247,0.76557,-1.257,-3.0098,19.5044,-6.0636,-0.62381,-3.0481,-1.9036,-3.0567,1.1307,-6.0795,-1.6796,-3.6272,
4.1182,-0.96759,-0.94059,-0.17813,10.3804,-4.4945,-1.3093,-4.0705,3.2723,-2.1504,-2.5526,-6.4381,-6.1586,-1.2404,
4.3533,1.0189,-2.3302,-3.0597,14.0962,1.5595,-0.74857,-0.45156,0.18367,-2.5031,0.49286,4.5537,-15.4298,3.6545,
2.8868,1.1987,-0.50315,-5.5272,12.0451,0.26111,3.8756,0.29843,0.41362,-3.0762,3.1144,6.9316,-20.0476,-3.0722,
3.9186,2.3319,0.73211,-4.4729,8.6711,0.48619,2.92,-3.8171,0.62999,-4.0967,1.2405,9.167,-10.8912,-3.611,
1.9965,0.023022,0.44698,-5.4092,7.9101,2.1445,2.0216,-3.8288,-0.13093,-1.6815,3.8174,8.3763,-7.586,4.0772,
-0.29243,-1.1837,0.1792,-4.8436,7.1945,1.2929,0.21357,-0.94749,2.0461,2.5167,8.1681,8.5966,-14.1207,0.21762,
0.68921,-1.1129,2.0964,-3.107,4.352,0.73271,-2.2101,-0.89087,2.8874,0.91921,10.5699,15.7933,-12.7918,-8.4728,
2.0941,0.40017,2.453,-3.4025,6.0195,3.0993,0.33313,0.12691,1.2679,2.3108,7.5255,17.7382,-6.7216,-6.5181,
-1.8881,5.6786,-2.0327,-2.2347,8.5502,4.3594,2.723,2.0473,0.22774,6.0283,-0.639,18.6019,-7.7648,4.9599,
-5.872,5.5791,-0.70569,1.0331,3.9401,1.9289,3.2832,-0.7269,5.276,5.4254,2.5331,19.6552,-12.8418,11.1701,
-12.2688,-3.4326,0.78268,-1.9212,-5.4551,-6.3818,-4.1448,-5.5038,1.5847,-3.577,1.8989,4.4964,-20.7487,0.85912,
-8.8811,-2.0213,3.8692,-0.1187,-2.4767,-7.6861,2.1299,0.852,2.6949,-0.22889,-4.7225,-3.7272,-15.4059,3.4587,
-5.9379,-1.9003,0.74477,-3.4863,2.9743,-7.7071,6.3402,-0.16321,1.5692,0.267,-4.9213,-5.9139,-0.98444,6.1434,
-7.0281,-5.6429,-1.7103,-3.2769,6.1705,-6.7625,1.1393,-4.01,-1.4173,-4.57,3.0865,-5.5588,5.3414,-3.384,
-8.7756,-7.4735,2.0078,-0.42915,4.595,-9.9722,2.2762,-1.5998,3.7294,0.76592,2.6604,-3.5381,1.4055,-7.7607,
-9.6951,-3.1684,0.44126,-3.2957,1.427,-9.856,1.1755,-1.986,1.5772,0.72019,0.57231,-4.2899,4.6954,-2.4746,
-7.185,3.7704,-3.4414,-5.0259,3.7517,-1.0697,-4.6798,-5.723,-3.8198,-4.6254,4.3946,-1.6221,9.7165,2.4949,
-6.5133,-0.071285,-0.58379,-1.5913,3.2852,-2.2108,-1.7479,-4.1748,1.4706,-0.25102,1.4798,1.6082,4.0718,-0.78832,
-5.6402,-4.4053,0.4151,2.3605,-0.28591,-7.3808,3.1777,0.41403,3.7925,2.6566,-4.3936,-2.3447,-0.99318,-6.5256,
-5.0605,0.92044,2.5596,4.3883,-0.50949,0.052139,5.1564,4.0048,4.2885,2.2564,-0.032357,-7.7474,-2.6206,-2.5189,
-2.1056,2.0703,2.1653,0.99174,4.5825,1.2541,1.2318,0.14936,2.8262,0.91598,2.6204,-8.4876,-2.2222,0.28358,
-0.53345,-0.946,-0.85716,-7.7449,12.9842,-3.6419,-2.6989,-6.1266,-4.0923,-2.9958,3.4275,-5.5682,6.5878,-5.0361,
-4.5988,0.79799,1.8454,-6.0749,7.1439,-1.7361,3.0071,-1.1792,-3.1239,0.31742,2.9809,-4.5112,-2.2431,-8.8313,
-4.5641,3.401,0.047642,1.2793,0.68907,-0.90884,0.17488,2.9886,1.1611,3.9136,-2.7418,-3.5174,-11.9907,-2.758,
-3.0852,0.54559,-5.0171,-5.3052,5.7096,-4.4695,-2.9689,-0.32393,-0.1136,1.0274,2.4842,-5.4758,2.8287,2.4694,
-3.8639,-2.8616,0.58655,-8.3614,3.9208,-9.022,2.9938,-0.78689,0.37515,0.48385,6.1915,-11.4137,16.759,-3.9458,
-0.2574,1.1672,7.7824,-2.0749,-0.17061,-7.5166,4.7426,2.1531,4.6912,6.2396,-0.44625,-5.426,1.6535,-2.7445,
-1.447,0.85595,4.1822,0.21902,-4.7399,-9.2346,1.8068,1.7832,7.061,4.6602,1.2675,0.44293,-2.4226,5.3742,
-6.9043,-4.2571,-2.5767,-0.51748,-3.7326,-10.8501,-1.9171,-0.011523,1.5757,0.76469,3.3606,-1.2709,8.5686,3.364,
-3.8382,-4.7243,0.71166,1.683,0.10701,-8.0297,-0.59653,1.6766,0.75803,3.3706,0.025733,-1.9178,0.58332,2.4395,
0.97112,-0.34421,5.248,5.6791,-4.4794,-4.8966,0.16193,3.745,6.7379,4.8554,0.26493,-3.9721,-13.5517,8.3185,
-4.3896,1.1229,-0.36928,4.3747,-5.6567,-3.1568,-3.222,2.5562,4.888,0.22548,1.2136,-5.6617,-3.7003,3.9632,
-7.2594,-2.0777,0.85794,7.2455,3.601,-11.4033,1.0689,2.1621,4.3535,3.3457,1.8639,-8.4553,-1.3093,-1.8184,
-4.173,-4.6044,4.4217,12.8361,13.2667,-23.4933,2.2098,0.34488,1.9229,4.35,0.54654,-14.9381,-15.3308,-3.8787,
-1.0301,-2.3999,5.1207,13.0302,17.2914,-23.53,4.4874,0.32464,1.3256,1.1965,1.96,-14.5237,-11.1569,0.69279,
-6.2707,-5.6301,-0.97137,7.9099,10.4691,-25.9743,5.6642,2.2331,-0.19993,-2.7315,-6.3525,-13.1701,-3.7388,3.5435,
-8.546,-5.5333,1.7385,11.5326,1.4053,-29.9597,5.5653,5.2326,2.9451,2.0117,-12.4789,-14.5491,-10.5044,-2.2127,
-6.587,-7.1297,8.3828,15.1792,-11.2125,-32.5004,7.6417,3.9546,8.5532,5.2652,-10.2841,-27.1737,-23.9741,-4.4903,
-6.433,-6.461,7.1565,13.5456,-11.2629,-30.7916,6.4598,6.8503,7.799,4.2264,-8.9441,-24.8202,-29.4048,-3.498,
-5.3237,-5.8323,6.4866,12.4919,-10.8281,-28.7029,5.8318,9.5728,7.0901,3.7319,-7.2022,-22.6078,-26.9174,-2.0828,
-4.2813,-5.2412,5.8562,11.5012,-10.4194,-27.2219,5.2406,12.6136,6.9055,3.2668,-5.565,-20.0463,-24.5792,-0.75278,
-3.3011,-4.6858,5.2639,10.5701,-10.0352,-25.3474,4.6852,14.9903,6.2506,2.8298,-4.5078,-17.6382,-22.3811,0.49768,
-3.1033,-3.9227,4.4657,9.454,-9.9152,-23.8268,3.4398,17.4653,5.8751,2.1781,-3.2734,-15.6161,-20.5566,1.4317,
-2.1939,-3.4461,3.957,8.1636,-9.5613,-22.156,2.9927,19.0687,5.2819,2.2881,-1.8719,-13.956,-18.6,2.0689,
6.6146,-1.3114,5.1656,12.0119,-4.6493,-18.8987,4.7411,32.0246,6.411,6.0074,-2.7237,-15.529,-6.397,-7.214,
1.6382,-2.9197,4.1325,7.676,-5.093,-12.7029,4.2159,44.2031,1.9288,4.4419,-8.5856,-8.5714,1.4591,-5.5761,
-1.3522,-1.2983,2.4383,4.3234,-2.8597,-10.0127,2.9986,38.6584,0.36677,0.80096,-3.7322,3.0301,9.5662,4.3994,
2.8259,0.94879,1.5691,5.7507,0.92732,-11.0992,2.5777,44.2927,2.5139,0.99387,2.0349,-0.76716,3.9306,4.3764,
0.4876,-0.79537,3.6441,8.0572,-0.81555,-10.192,1.2178,39.4659,1.1583,2.1395,-1.2202,-6.7469,1.0436,0.016479,
-3.1571,-3.3987,1.7383,6.3685,-0.043257,-6.9294,4.2782,31.0724,-1.0804,0.80587,-0.90602,0.64755,9.8986,4.5948,
0.16561,-3.436,-1.9812,3.3355,0.20053,-8.6826,7.6371,32.3413,-1.7387,1.4806,-1.0924,2.7781,5.2076,9.381,
3.048,-0.33756,1.0299,5.5453,1.6345,-4.7874,3.3223,30.883,-4.0447,0.42771,-2.9553,2.1297,-5.7099,3.9977,
1.1779,-1.5226,5.5474,4.9716,5.6338,1.5254,1.9177,24.9327,-2.5968,-2.2495,-0.6088,-1.614,-17.6599,-3.714,
3.7585,-1.672,-0.32881,0.093806,12.2854,-0.73507,0.11561,23.6775,-1.7178,-1.8733,-3.2236,-7.0605,-30.7003,-5.1786,
8.1123,1.0794,-0.068112,-3.0453,8.8972,-0.45,-0.61469,21.5339,-3.302,0.40822,-3.7531,-2.5395,-39.3428,-1.2525,
9.554,-0.43136,5.7208,-1.4161,0.65037,0.5411,1.8325,17.3496,-1.1759,-0.097975,-0.63561,-2.3869,-42.7668,-1.1771,
8.9807,-0.88742,2.967,-2.2955,6.3959,3.8831,-1.6514,17.7549,-3.0335,0.38984,-3.9719,-4.6538,-38.7546,1.3036,
8.4419,0.1297,1.3427,-6.4961,6.976,5.5778,-2.999,15.7253,-3.3335,0.84838,-11.4464,-6.7852,-43.6604,4.1175,
9.6224,-2.5294,1.5033,-3.9374,0.53216,-0.78215,0.31463,10.2022,-0.48213,-2.3358,-6.662,-9.5116,-48.9945,-2.1549,
10.7325,0.27368,-0.27389,-0.5674,6.0436,0.95177,-0.90932,12.7233,-2.1407,-0.50864,5.0657,-1.951,-31.9548,-8.5333,
9.3656,0.49868,-2.4266,-4.6307,8.8145,4.0282,-3.5059,12.6833,-4.6633,2.6554,0.66483,2.7458,-15.9375,-11.1543,
12.6596,0.4683,-1.3171,-5.3172,10.6957,5.2323,-1.3678,7.5835,-2.9373,1.0498,-2.75,6.4374,-17.1504,-8.5573,
12.8646,-1.0058,-2.2022,-4.9979,12.4644,6.3648,0.16079,6.1649,-3.2432,-1.905,-1.6204,7.9796,-30.2214,-3.7053,
7.9951,-1.6686,-2.3113,-4.4573,4.2449,6.2237,-0.090053,7.9639,-4.2537,-1.55,-7.067,1.4746,-25.6363,-0.8317,
6.7921,2.0469,-2.4136,-3.467,-1.0715,5.1273,-1.7719,8.209,-3.2755,2.1584,-4.9558,0.66323,-9.9981,-2.469,
3.2513,-1.2091,-4.4381,-8.8023,4.5362,-0.24174,-2.3887,6.5114,-1.8739,1.7877,6.6695,10.9875,4.7018,-3.5259,
3.7796,-3.3058,-4.8948,-7.5508,9.8077,0.013727,-2.9683,4.4339,-0.55621,-1.935,6.5108,18.282,15.5069,2.2292,
6.6858,-2.8664,-7.2522,-5.4106,7.5324,3.1464,-6.4056,2.4807,-2.2101,-3.5056,1.5404,14.534,14.3355,-0.073689,
7.49,-2.4535,-7.058,-6.2912,2.0188,3.681,-6.7442,3.5371,-0.38978,1.7659,5.0634,12.4571,19.019,-6.0948,
5.5943,-2.7882,-2.2962,-3.5036,1.4157,-0.39674,-3.4475,4.2888,0.59748,1.178,1.8675,8.8172,20.7699,-2.3551,
3.5714,-4.3081,5.3134,1.2859,0.60744,-2.5421,2.303,5.2363,0.8026,-2.9905,0.55018,-2.0762,22.1748,4.2941,
5.0446,-2.3627,5.2358,0.0036618,0.81219,2.1899,1.9236,7.0915,-0.45062,-4.498,2.2042,-6.0487,23.4956,3.7953,
6.9109,-1.9797,-3.5143,-3.1298,5.343,3.7455,0.60315,4.0147,-2.111,-6.8795,-2.0257,-1.5887,21.8452,1.3982,
6.7369,-5.4766,-3.5446,-2.2189,3.8169,-2.505,4.1822,-0.32379,-3.1894,-7.1898,-2.1453,-8.0011,17.4007,-0.37272,
9.7076,-3.2193,3.417,-0.6395,5.9984,-1.8723,2.9674,-0.30391,-3.48,-4.8302,0.39398,-17.6439,22.6237,-0.83229,
8.8838,-0.37507,4.8987,-0.36017,8.2896,5.2295,-1.308,-0.5271,-5.4404,-4.299,-0.35256,-11.0417,26.8099,-3.9158,
5.4584,-1.3167,0.2667,0.14361,2.9718,6.8441,-1.7117,0.46862,-5.5961,-0.18491,1.1146,1.1898,21.3446,-2.7168,
3.2027,-4.6121,-6.4982,-2.7575,0.86527,1.1308,0.31918,1.4048,0.52424,5.1288,4.9041,2.0827,17.1719,4.6771,
-0.12245,-5.0583,-6.3493,-1.8687,-0.87387,-3.5163,1.5053,-3.2587,4.5901,6.0264,4.3689,2.6807,27.4698,6.5656,
-0.59727,-6.2013,-3.076,-0.79296,-4.6776,-1.3774,-2.9235,-4.0278,3.3506,4.7003,2.6608,10.2328,33.5341,3.7613,
4.0179,-8.9622,-3.6144,-5.3247,-8.4943,-0.57136,-4.9173,-4.509,6.2831,2.2491,4.1883,8.8959,18.2657,2.3308,
10.2845,-2.8811,-3.6387,-1.8719,-2.9232,3.0781,1.4035,-18.3385,6.1468,2.3553,4.6602,3.3007,14.0365,-1.9066,
10.1498,0.6662,-1.0098,-0.79529,0.14472,1.9296,1.8012,-31.3382,2.886,-2.6062,1.0061,-1.2361,21.8714,-3.7204,
7.8534,-2.0251,2.6655,-0.024899,-1.0695,-1.8019,2.8982,-43.5579,5.3637,-4.1373,0.22261,-1.4031,22.2461,0.59991,
8.5875,2.6762,2.747,2.1462,-1.7282,5.2961,3.9296,-39.3779,-1.4656,-2.2019,-0.99604,6.6353,19.7065,-5.4612,
10.2414,5.6486,-0.068899,-0.63365,-6.2038,11.0039,4.4168,-40.1482,-7.4032,-0.38252,-5.9975,12.2627,15.8726,-5.8569,
9.1447,0.97115,-4.4033,-3.4884,-7.2781,5.0413,-1.1507,-39.6678,-1.6566,-0.3598,-1.2996,12.973,18.2949,4.1357,
7.1502,-0.53292,-6.5497,-1.8328,-5.3951,5.2207,-8.3125,-35.8414,-1.5572,-0.82014,8.9018,17.9792,28.284,2.9233,
3.1056,-0.26021,-2.0591,-0.99972,-10.6148,7.5588,-2.7523,-33.4498,-4.1147,0.91652,5.7163,14.7315,22.4898,-0.86731,
3.6424,-0.0033971,2.162,-1.6629,-12.1473,3.4896,2.4743,-26.8637,-1.6989,1.1023,1.2758,5.4117,17.0428,1.8361,
4.6291,-1.6904,-1.5831,-2.7679,-12.6238,-0.33472,0.63863,-24.0466,3.4648,0.31323,6.2609,4.3636,15.7793,2.4488,
2.6639,-0.86586,-2.2113,-2.3611,-13.0714,2.3362,-1.0867,-23.8089,6.3901,0.053242,4.6802,5.3069,7.3605,-0.34946,
4.4323,4.9707,2.2597,1.6369,1.2102,7.9806,2.353,-20.4521,3.5966,1.9782,-0.90326,4.9885,14.1497,-5.1487,
2.4791,-0.38925,-1.4913,-2.0767,12.9478,-2.8621,8.7193,-23.8043,-2.1628,-1.7559,-0.12617,-1.3364,21.7369,-10.3834,
4.4998,-4.9454,-4.5351,-5.5673,25.4275,-14.5007,8.4373,-27.438,-1.3099,-7.6763,3.0147,-2.4613,19.2276,-0.36066,
6.6401,-1.274,-2.8169,-2.341,38.0019,-8.8102,5.5207,-25.3095,-2.1954,-5.2873,-1.5043,1.0606,19.038,9.7841,
2.8673,-0.2337,-1.6836,-5.093,38.0114,-2.9789,5.6714,-21.8627,-8.3307,-2.0775,-3.3422,0.51506,14.0394,0.03803,
5.5873,1.7085,-3.9932,-7.6795,37.177,-1.3539,6.295,-19.1047,-5.9026,-0.98902,3.1248,0.48416,14.1609,-0.92858,
6.2162,-2.2506,-4.2353,-5.2908,27.7153,-3.683,8.3276,-17.4767,0.71827,0.034417,1.0089,-3.4015,16.6854,2.9838,
1.0227,-7.8999,-1.0889,-2.081,14.9654,-5.39,6.8639,-4.3763,0.19301,2.9246,-2.9078,-4.6434,8.4537,-4.9078,
-2.8948,-7.4257,-3.9158,-4.3661,16.9597,-8.4409,1.1496,9.9862,0.66359,1.7851,2.0872,1.9019,-4.5868,-7.9876,
-3.2033,-10.3548,-10.9115,-8.9246,18.3525,-12.7553,-1.8116,15.0509,3.0341,-3.6245,3.408,0.82369,-4.3118,-1.724,
-1.3239,-9.4926,-11.9445,-10.5587,15.0822,-6.9283,-2.9082,0.04787,-0.76333,-3.166,0.06999,4.3897,0.52666,-0.89763,
0.92495,-1.9329,-5.202,-7.7558,16.3467,0.477,3.7744,-14.055,-2.4045,3.0497,1.7532,14.0085,2.1821,-1.5669,
-3.4691,-2.781,-6.3359,-2.9519,12.9555,-3.8902,1.6195,-24.5399,-0.3323,2.3846,-0.28037,12.6858,5.4258,-3.8828,
-2.2966,-4.5424,-6.9197,-0.36468,8.8037,-7.9951,-2.8159,-15.8367,4.5084,1.7596,3.1109,13.8528,0.76149,-1.2397,
-3.6051,-8.6086,-4.0944,-3.7172,3.9372,-13.3,-1.6831,-18.2609,1.3453,-0.7566,6.2987,7.2371,-13.3842,-1.1653,
-1.7018,-1.5839,0.24889,0.60337,7.7985,-6.4762,2.5155,-17.406,2.9521,3.3864,8.5721,2.2234,-11.2554,-2.7824,
-3.5279,-1.0074,-4.1048,-1.843,6.8482,1.1428,-1.4919,-12.5057,4.2207,3.6651,9.986,1.608,3.52,-10.8106,
-2.5933,-3.1161,-4.5814,-4.8659,11.0171,4.6901,-3.5715,-12.4783,3.2446,-0.65213,13.4842,7.5371,15.4806,-5.5822,
-2.9196,-6.3032,-5.7528,-8.4303,9.3917,-4.2684,-5.7678,-19.4423,-4.1809,-8.8077,6.4086,3.2285,11.6592,1.9835,
-0.57506,-4.238,-4.2026,-4.7912,0.87425,-8.1099,-0.84222,-15.6245,-0.7968,-5.146,1.4446,-4.9192,5.8982,1.6233,
1.6286,-1.8145,-5.1553,-6.1905,-0.38304,2.2591,0.89554,-10.1073,1.4206,-1.2218,-0.32933,4.294,0.96503,-2.0895,
4.1822,-1.4649,-6.0515,-10.881,8.5578,10.559,1.083,-9.2601,-3.7265,-2.354,2.8237,15.8463,2.1122,-4.6154,
6.5824,3.6847,-3.5192,-5.6489,12.1417,5.3462,0.77706,-8.9455,-3.262,-2.9357,5.3054,7.4241,8.9749,-10.3641,
3.7773,5.8742,-0.41554,-2.8993,7.5568,-0.75919,-2.644,-8.8907,-1.1381,-4.2053,-0.31515,1.1941,9.4007,-6.8502,
0.41763,1.4244,1.7786,-6.8227,4.4523,3.3837,-2.7263,-9.5625,-0.34641,-0.81999,-3.4297,7.63,5.2212,6.3353,
3.0437,1.0975,0.94894,-8.1006,6.3543,5.3499,-5.6963,-8.7478,-2.0129,0.4345,0.87341,5.4849,9.9696,3.786,
5.2709,3.442,3.7843,-4.2403,5.4909,-0.75595,-2.4622,-8.2232,0.035883,-1.0381,3.2314,-2.0748,15.6382,-2.2259,
3.9908,1.7892,2.111,-0.61146,4.1971,-2.1564,-0.8682,-12.0681,2.4443,-3.3859,3.0375,-0.50403,12.7717,-0.16419,
0.85908,2.164,-6.2106,-0.093068,11.1759,1.8291,-6.119,-11.3442,-0.1127,-2.7006,8.1576,2.9004,21.1642,-3.0466,
-0.39776,1.7932,-7.5252,1.1178,10.2648,-1.4136,-2.1364,-6.5658,3.5095,2.0407,13.2118,1.0392,25.9199,-5.033,
0.1085,0.23935,-5.6274,2.497,2.9,-10.0059,3.2944,-7.1357,2.817,-0.97377,5.6706,-3.3615,12.3136,-3.7667,
-0.62137,1.4303,-1.1924,7.8908,-0.40746,-9.1646,5.2659,-5.5027,-0.0035913,-0.67438,4.1251,-5.8114,9.4052,-2.8178,
-3.4764,1.3442,2.7357,12.7198,-4.7216,-7.6506,1.5757,-1.3159,-0.0031465,3.7046,8.2162,-5.9448,17.5182,-0.23836,
-5.437,0.54068,0.40242,12.6799,-9.4995,-11.2887,-0.68798,-1.4779,-1.2083,1.3132,-0.71249,-3.9005,9.9596,7.2477,
-3.1825,0.50824,-2.9966,9.5086,-11.3401,-13.5041,3.6916,-2.3536,0.79244,-1.1762,-6.4548,-5.5951,-1.2437,7.2948,
0.6236,3.1291,-3.5395,7.733,-5.5982,-5.704,-0.14506,-0.52538,-0.46017,1.0638,-0.041713,-3.09,6.303,0.34942,
0.10425,3.4233,-0.91701,7.269,0.040752,0.42304,-1.1007,0.47047,-2.8427,1.9643,-0.03921,0.46986,7.853,1.7747,
-3.7586,2.2538,1.0664,7.797,-3.3364,-1.5308,1.8576,-0.039923,-1.2261,-0.082,-3.8935,-0.52243,1.597,2.6323,
-2.5688,1.6366,-2.8539,10.2217,-7.9564,-0.47459,0.30038,-0.51946,-0.6706,-1.5233,-1.7317,0.47279,5.84,0.54619,
-5.7889,-2.8001,-4.1292,9.6081,-17.1203,-4.7847,2.6923,-0.0061303,-0.1482,0.014091,-0.66367,-5.3399,3.5611,1.9595,
-10.0208,0.019421,-0.74796,7.3449,-15.8516,-5.2205,3.736,1.1995,1.066,4.593,-1.3468,-7.1887,2.6246,4.4934,
-7.0097,3.3925,-3.113,2.0832,-8.1523,7.1441,-3.2368,-0.80086,-2.3727,2.3894,-0.30185,1.9195,6.3237,6.1518,
-2.7327,1.7427,-6.3006,0.51198,-13.9297,16.8383,-6.899,0.21105,-5.1224,-0.1645,0.68013,7.5889,1.6055,9.6391,
0.082573,2.3612,-4.2356,4.5788,-22.4937,20.4075,-2.3875,4.7784,-0.71743,2.0148,-1.0477,4.4822,3.1966,11.7121,
-1.3684,1.2555,-2.5354,7.1964,-24.5187,17.7371,1.13,3.0452,2.6998,3.3399,-3.3952,1.321,5.4147,6.6708,
-1.2865,1.6623,-1.4192,4.8367,-21.1192,15.2263,-1.3482,-0.029825,0.60942,4.5855,-1.745,5.5803,0.26936,3.3782,
-2.6554,1.0804,-1.3338,-0.27402,-21.2985,12.3848,-1.7494,-0.99213,1.537,2.3824,0.28769,4.2814,-3.603,7.0322,
-2.737,-1.1536,1.3973,3.8398,-19.2972,9.9545,7.7555,3.1647,8.9165,2.4805,1.4757,-4.4116,-2.1819,8.7794,
-0.64438,-0.60266,-0.13258,8.9118,-12.837,10.8032,4.8803,2.4927,3.5611,3.7777,-1.5051,-7.0392,-2.0508,-2.3524,
3.4916,1.1207,3.0089,7.6542,-10.3796,11.8423,3.8641,3.5484,-0.74995,5.7202,0.27242,-5.4116,0.72334,-4.8628,
3.0412,-1.5976,4.9975,1.1694,-13.3722,7.5163,3.8732,1.6483,-1.4279,-1.6125,-0.46729,-10.6305,2.8496,0.97254,
4.0635,1.1498,3.9747,-1.0699,-5.58,11.6451,1.4717,2.2728,1.7908,-1.7567,-0.68021,-5.4134,9.668,2.1195,
3.0964,2.2856,2.0486,1.6449,-5.4866,13.5975,4.5164,4.787,0.4781,2.928,-5.2191,-1.4731,6.4364,-0.1773,
-0.22244,2.3895,0.23843,4.1978,-17.4495,8.2019,7.3789,8.1157,-0.75542,2.5114,-6.1108,-4.0359,-4.7956,3.9311,
-3.5833,-0.64619,-0.25758,1.0536,-20.7406,6.2637,3.562,6.1827,4.1104,1.8785,2.4508,-5.2397,-11.2566,1.7673,
-3.1274,-4.7048,-5.3038,-0.2149,-12.9887,9.0214,-0.26718,1.7139,2.6585,1.5248,1.0984,-2.7562,-0.69923,-2.4365,
0.91667,-2.4943,-7.3957,3.6548,-7.3887,10.4083,-0.73308,3.0578,0.57123,3.8439,-1.3776,1.7475,10.9123,2.5304,
2.7901,-3.3087,-5.5059,-0.42107,-7.9094,7.3735,-3.0995,1.4279,4.875,3.6131,5.4537,-5.106,3.9909,3.8246,
3.3454,-1.4232,-3.0062,-1.1189,-2.3734,11.9925,-4.1185,2.0653,5.3057,0.26303,5.3677,-5.0409,6.8847,3.8363,
-2.1575,-1.8197,-4.2721,-0.087474,-8.4975,14.6474,-0.49698,4.3515,-0.79725,-3.1272,-6.5235,2.4924,5.9897,-1.2146,
-0.099901,-3.1568,-5.462,-1.0466,-8.4701,10.8765,-0.46716,3.6085,-3.6419,-1.0114,-3.722,7.6455,-3.0468,-4.0338,
4.0034,-3.6903,-7.7854,-5.563,1.9201,7.0904,-5.5008,0.74044,-7.5208,-3.1199,1.5625,4.0533,3.1615,-3.0689,
3.2813,-3.4689,-3.4619,-2.8191,1.3229,13.8958,2.5425,5.5167,-3.6951,-3.4146,-5.2797,-0.5282,9.2388,1.936,
1.8789,-2.5381,-2.0491,2.4115,-3.8179,16.6773,4.0765,5.9089,-0.34011,-0.55886,-9.0605,-1.2196,-2.6439,2.5425,
3.9358,-0.21619,-3.1314,0.097614,0.50854,12.0612,-1.2294,2.4208,-2.4889,0.67996,1.8475,-2.8337,-5.1364,3.5952,
1.2895,-0.20322,-4.8713,-7.621,3.3705,7.9636,-3.5657,1.3117,-8.1241,-3.6992,2.7005,-7.4839,-0.48989,-1.9231,
6.9963,6.0755,-3.6151,-2.3435,9.9168,17.6086,-1.4236,5.5713,-4.2622,-0.10321,0.12836,3.088,9.6624,-5.1822,
6.3355,4.5061,-6.5317,-4.3721,3.2962,15.3468,-6.3998,-2.7167,-2.8016,-0.81992,-3.4948,6.0362,12.6981,-6.0761,
4.7506,5.4411,-2.042,-2.9044,-0.035054,7.4366,-3.3643,-2.3127,0.49994,0.43457,-3.0441,1.5767,9.767,-4.0243,
3.0195,1.7399,0.49087,-0.31981,-1.479,3.1338,1.658,4.0928,2.3984,1.8545,-2.3793,-4.3027,2.4323,-1.8544,
3.802,-2.2211,1.4251,-0.30085,-3.8006,4.8737,-1.3342,3.847,5.6287,2.2254,1.1377,-1.1523,2.7681,2.5949,
0.44082,-0.88254,-5.6499,-6.7903,-4.7774,0.96634,-11.618,-2.4094,3.1218,-2.4879,1.3104,4.9424,0.43331,-1.1762,
-0.79092,3.2678,-4.106,-4.2137,-5.2141,-1.7432,-5.8592,-0.57758,-0.19899,0.31297,0.026929,9.7076,-5.6187,0.09969,
-2.1895,4.0363,2.4071,-0.10427,-12.1319,0.77176,-1.6511,2.3494,-6.9357,3.6684,-9.1335,8.161,-2.8712,-0.38845,
-0.13017,3.7938,1.7805,-3.4727,-6.5835,3.1358,-4.9267,3.1725,-4.5916,2.0023,-8.5857,11.0456,3.0859,-2.7755,
2.0473,1.3971,-3.3876,-9.2899,3.2115,1.7424,-8.7284,-0.63327,-0.70024,-1.7333,1.3294,19.3009,2.1774,-7.6702,
1.9242,1.313,-2.7026,-7.2865,3.0186,6.9402,-7.723,-1.5594,-3.551,-0.66518,2.2138,21.5171,9.7597,-9.1384,
-0.11945,1.7162,-0.61226,-1.5466,-2.9471,9.4163,-1.957,3.3549,-2.3736,2.7492,-2.2574,10.1031,5.7997,-0.87733,
-4.4508,-0.31478,-2.0216,-0.97166,-3.252,4.5128,-4.2495,4.1177,-0.30275,2.1021,-1.6398,-2.0724,-6.1172,4.4782,
-4.6659,0.66821,-2.3824,-2.8418,1.7636,5.2061,-6.4049,0.49596,-1.2491,1.9757,0.86851,6.7288,1.4804,5.6555,
-3.1807,-2.5054,-5.8549,-8.2149,4.7908,5.1347,-6.262,-5.0774,-7.1997,-0.79392,-3.281,15.2431,11.7555,1.2184,
-2.0258,-2.8372,-6.9496,-7.7222,4.9856,6.2727,-7.8142,-5.7369,-11.1063,-2.6747,-2.12,11.9182,12.9781,2.1094,
-0.45795,-0.25639,2.1444,-3.884,0.3481,7.343,-3.0066,-1.0539,-2.2448,0.37829,2.3455,4.9366,7.3792,6.3216,
0.29266,-0.0002734,2.2565,-3.4102,-0.39591,3.7687,-2.1035,0.69636,1.5051,-2.2957,0.035397,-0.42153,1.393,-0.083478,
1.9621,2.1691,0.43412,-2.9644,5.1712,3.3014,-4.6287,-0.55049,-2.6828,-2.3992,1.7207,3.7013,1.0682,-6.5862,
-0.56576,2.039,3.3001,-6.6429,-0.92363,0.69321,-5.3148,-2.4457,-3.9681,-1.7733,1.6175,7.3357,-3.3342,-2.3346,
3.3243,4.327,1.6561,-6.7265,-0.86844,-0.79441,-2.586,2.0392,-0.3553,-0.22041,-0.40799,4.0032,-8.9189,6.9643,
4.0892,1.1749,-2.7816,-2.9485,2.0762,-2.6749,2.3899,1.9173,-0.81592,3.1673,-1.3474,-3.4674,-3.0811,2.2085,
1.6747,1.3453,1.9646,3.254,-3.592,-4.6836,4.898,1.0789,-1.9723,8.5208,-0.54363,-0.12628,7.468,-1.0575,
2.0559,3.675,0.40069,-0.79786,-7.715,-3.9209,-2.6269,0.53199,-3.3,5.1168,-0.02885,0.36346,-2.6212,-1.4762,
1.4509,1.5265,-4.9258,-7.0163,-5.8056,0.65338,-3.4334,0.5003,0.27227,1.4356,5.2758,-3.0326,-7.2844,-4.7618,
