"AF3","AF4","F3","F4","F7","F8","FC5","FC6","O1","O2","P7","P8","T7","T8",
-45.5537,45.5537,-199.3282,-223.9128,-196.4357,175.2255,350.6925,-54.7128,-163.1745,-132.3229,104.3643,405.6463,503.5026,73.9947,
-38.9641,38.9641,-201.4685,-224.578,-170.5495,160.3737,326.2765,-63.4816,-167.484,-138.4835,84.1227,375.5229,461.7233,55.455,
-29.8776,34.6979,-203.4804,-225.2033,-146.2166,149.7872,301.397,-71.2416,-171.5349,-144.2745,64.9754,338.8915,419.9199,38.0277,
-13.9849,46.3548,-205.3716,-225.7911,-123.3436,148.7537,289.8212,-64.316,-175.3428,-149.718,46.9768,304.458,380.6247,21.6461,
0.95415,54.1785,-207.1493,-226.3437,-101.843,141.7564,281.1088,-55.6366,-178.9223,-154.835,32.5891,289.0826,347.6639,6.2473,
14.9969,53.3382,-208.8203,-226.863,-81.6324,129.3949,269.0627,-53.7444,-182.2869,-159.6449,16.5337,257.6377,312.7041,-8.2275,
17.1099,42.1842,-210.3911,-227.3513,-62.6344,108.3748,241.1088,-64.6197,-185.4497,-164.1662,1.4417,228.0794,279.8418,-21.8339,
23.0729,42.7864,-211.8676,-227.8102,-44.7764,94.8827,229.7756,-74.8426,-188.4227,-168.4162,-12.7448,200.2946,248.9513,-34.6239,
20.9656,39.4963,-213.2556,-228.2416,-27.9898,75.0897,215.7481,-81.9214,-191.2174,-172.4112,-26.0801,174.177,226.9041,-46.6464,
22.1178,40.9829,-214.5602,-228.6471,-12.2104,64.1971,205.6957,-62.9061,-193.8443,-176.1666,-37.7717,149.988,213.7722,-57.9476,
24.1652,40.4517,-215.7866,-229.0283,2.6222,53.5964,204.4407,-45.0317,-196.3137,-179.6966,-38.8798,135.2042,192.2688,-54.3501,
24.8847,39.2301,-212.4806,-229.3866,16.5649,42.4271,199.6463,-56.4298,-198.6349,-183.0148,-38.7164,123.9587,179.5272,-65.1891,
16.6427,37.3582,-204.552,-229.7234,29.671,36.0251,187.6675,-38.944,-200.8168,-186.1339,-29.6446,118.4493,181.289,-67.1828,
1.5441,34.1524,-195.1714,-230.04,41.9907,27.5966,179.2995,-22.5074,-202.8678,-189.0658,-13.7659,125.4424,184.5117,-49.0518,
-7.828,33.7907,-177.4354,-230.3376,53.5713,27.1459,181.3158,-11.3953,-192.0212,-191.8219,-3.6604,132.0158,187.541,-32.0087,
-10.9738,33.9324,-162.21,-230.6173,64.457,36.3634,178.391,-7.0961,-173.5101,-194.4126,0.17463,138.1949,177.4936,-16.832,
-16.5819,38.6454,-151.0311,-230.8803,74.6896,41.8943,169.6158,7.4296,-160.6894,-196.8478,6.4307,144.0032,174.0748,-6.1807,
-29.6869,26.9262,-150.4049,-225.7046,84.3082,26.6062,151.967,7.1041,-153.6996,-199.137,11.1065,149.463,155.1946,-4.605,
-36.4619,14.4651,-148.8522,-215.2951,93.3497,18.5026,133.4492,3.5451,-144.2359,-201.2887,13.5734,149.5335,131.783,-7.462,
-48.3742,5.4022,-144.2596,-202.3776,101.8487,13.0539,121.1037,2.8502,-137.9921,-203.3114,7.9385,136.7054,130.0222,-2.1938,
-59.5717,-9.0219,-136.5684,-192.1636,105.74,-1.8293,111.9089,-5.0341,-131.6412,-205.2127,7.4622,124.1643,128.005,-2.0621,
-70.0974,-19.2064,-127.1692,-176.0543,85.2956,-15.8196,100.6148,-7.8653,-116.2707,-206.8799,19.7887,114.545,106.2247,-7.9642,
-78.3048,-22.8747,-116.6465,-162.1161,66.0779,-24.9935,93.614,-2.0907,-98.6892,-188.2002,25.8322,114.9036,90.0903,-2.6656,
-83.9706,-26.0817,-101.2123,-144.9176,48.0132,-32.4122,93.5406,9.3627,-89.635,-170.4005,20.1847,110.1783,90.7102,8.3403,
-74.3529,-19.9373,-81.4005,-122.1225,31.0324,-29.262,92.9901,22.9009,-77.2668,-148.848,26.4456,94.1679,92.7396,19.6503,
-66.7584,-18.9818,-70.9731,-108.6489,15.0705,-25.3373,86.6875,31.0476,-59.8566,-128.5892,38.1151,86.8303,88.3803,23.5327,
-66.8503,-22.4227,-67.4376,-100.9251,0.066233,-30.8065,79.3171,33.7645,-46.3828,-114.8483,38.9616,95.7205,76.5695,26.2181,
-63.3212,-28.7901,-60.9813,-91.9771,-14.0377,-35.707,73.1118,36.0769,-39.7435,-101.2085,35.6601,101.1852,70.5295,31.8759,
-58.3171,-31.16,-50.333,-77.5409,-27.2955,-36.2161,67.5198,38.0097,-30.3694,-82.362,38.5817,96.8009,73.2872,38.399,
-55.541,-29.5314,-41.7694,-65.8985,-39.7577,-41.9969,59.3713,35.9701,-22.0393,-69.948,45.1849,94.1263,64.3107,35.8545,
-46.4239,-29.2058,-29.1399,-58.0882,-51.4723,-45.7436,57.7372,35.2581,-11.5579,-61.8947,51.1509,80.284,60.934,34.6671,
-41.7103,-29.3816,-18.7148,-47.854,-62.4839,-46.3734,55.7192,35.0708,-5.5623,-55.289,52.4201,73.0569,67.4008,43.1924,
-44.0282,-28.5828,-13.2534,-36.3059,-72.8349,-48.4115,53.3402,33.9307,0.55627,-43.7767,52.6491,69.1551,53.716,48.3134,
-36.5662,-26.3859,-4.7454,-28.343,-82.5648,-50.3275,51.5856,31.4129,8.2357,-29.099,50.9365,54.4005,36.5133,38.1838,
-24.0079,-21.6693,2.0473,-21.0988,-91.7109,-50.4409,44.8755,26.3946,16.1777,-18.435,49.0856,51.8599,48.4225,37.098,
-15.5776,-19.6462,9.3958,-10.4329,-100.3083,-48.6198,43.3878,24.0881,27.4991,-4.5544,54.5761,62.8483,48.7709,48.9721,
-6.2072,-18.7084,17.7505,-5.7095,-108.3898,-40.6409,41.9898,22.8837,33.3209,3.1906,54.917,66.6699,31.7447,55.5545,
4.5297,-16.8628,22.2289,-7.5359,-106.9476,-34.1049,37.7834,20.7876,37.3474,4.6867,53.7913,55.6796,22.7301,45.2316,
6.1857,-15.851,24.2696,-2.2635,-106.7977,-31.5766,35.034,19.5403,42.337,12.1178,64.0612,62.4622,35.4663,56.6177,
4.6095,-14.1768,27.8749,5.8263,-109.7896,-27.5126,27.3886,17.6448,38.5922,15.9707,65.7614,61.3658,41.6535,64.4284,
12.0462,-11.398,29.0949,6.923,-102.7203,-18.1491,24.299,14.6579,32.9022,15.9763,54.1025,49.0067,27.5851,48.0292,
18.795,-9.0271,26.1437,6.2664,-98.7265,-9.5886,21.636,12.0914,34.5432,20.5611,45.7949,48.7177,11.83,44.9062,
20.8003,-9.2084,32.0469,8.0596,-106.5412,-8.7723,21.5427,12.0888,41.3887,28.2455,51.0009,52.784,-1.7747,51.6119,
26.0602,-8.4149,38.5602,11.6738,-100.3897,-10.8971,22.9017,11.1225,43.9671,29.6843,53.0025,48.4121,7.7318,45.3821,
33.1735,-4.5358,33.3543,10.9731,-80.2663,-5.9047,14.7789,7.081,43.7389,28.3854,46.9301,44.5433,15.4628,37.8382,
37.4498,-1.8533,35.6916,10.3145,-74.1248,-4.1044,10.5179,4.2458,47.3813,32.9485,45.5603,43.3167,0.43503,40.3884,
37.6132,-2.2243,38.3701,11.1417,-79.8004,-14.9456,7.4765,-0.34754,39.718,28.0793,37.0423,32.0409,-13.6911,35.5548,
38.4894,-5.2238,22.8115,0.59125,-71.8789,-18.6281,-7.0721,-7.7985,23.2349,13.6201,20.7198,16.0184,-26.367,20.1651,
40.0367,-8.767,7.3428,-13.5442,-58.4074,-24.741,-20.7478,-21.4306,7.7408,-1.2971,7.3046,0.95731,-38.8849,4.8552,
41.7318,-12.3384,-1.4129,-22.975,-48.8769,-37.3566,-33.6029,-34.2447,-6.8236,-15.3193,-7.2337,-13.2001,-50.6519,-9.5361,
45.9766,-18.3467,-11.9332,-29.7914,-42.0882,-38.1282,-45.6867,-46.2901,-20.0323,-28.5001,-20.8997,-26.5081,-61.7127,-23.064,
57.318,-7.8462,-10.976,-28.727,-25.4629,-24.994,-57.0455,-52.3098,-19.553,-34.141,-33.7457,-39.0176,-72.11,-35.7801,
67.9789,1.7836,-8.8717,-30.3779,-9.8351,-27.3512,-67.7228,-63.2712,-25.1287,-39.3233,-38.1082,-50.7766,-81.8834,-47.7333,
78.0002,9.8718,-1.1081,-24.2164,4.855,-28.6022,-62.6953,-73.5749,-22.1748,-32.1432,-36.7856,-61.83,-85.5265,-43.7845,
87.4202,13.3771,0.64542,-21.0764,18.6637,-23.7528,-61.5849,-83.2604,-21.5674,-28.5276,-48.6784,-72.2202,-94.4949,-44.2907,
96.275,9.6817,2.0527,-23.1861,31.6439,-19.4354,-68.4949,-92.3648,-21.2375,-29.2263,-51.663,-81.987,-102.9252,-44.5255,
103.6346,0.66489,1.6884,-22.0361,43.8452,-17.0642,-68.0004,-100.9229,-19.2401,-26.7496,-44.4656,-91.1678,-110.8497,-44.5053,
93.8011,-5.8825,-6.3667,-23.8474,55.3145,-23.5121,-72.3565,-108.9675,-28.9319,-33.5808,-55.8977,-99.7977,-114.2016,-55.935,
89.6191,-6.976,-5.0206,-24.3445,66.0957,-25.9576,-72.8356,-116.5295,-30.5707,-34.9402,-65.1978,-107.9098,-118.9189,-58.9664,
79.9036,-14.7522,-0.86296,-21.92,76.2299,-27.7746,-77.1426,-123.6377,-26.3259,-31.3975,-54.0551,-115.5352,-121.4247,-47.7151,
81.3757,-13.3849,10.7582,-9.5173,85.7561,-26.5902,-68.6574,-130.3195,-14.1413,-20.3548,-52.2578,-122.7031,-114.6214,-51.119,
90.5931,-6.3153,20.7175,3.1048,94.7108,-26.923,-55.3794,-136.6003,-5.58,-5.0335,-52.4968,-129.4409,-109.1904,-57.2109,
90.8221,-9.3106,20.921,7.2571,103.1281,-26.2717,-58.8048,-142.5043,-1.3886,3.8251,-40.6701,-128.5434,-108.4233,-42.6908,
81.5162,-13.0905,25.4501,12.1245,95.9766,-20.3569,-59.1332,-141.0644,6.4073,6.0059,-32.4451,-123.2412,-113.0049,-32.8987,
82.4098,-9.8949,35.9746,25.3763,76.118,-18.1716,-50.2825,-133.0829,14.218,9.9839,-32.909,-129.9467,-120.3246,-37.1918,
90.4808,-2.5526,44.9031,37.9537,63.9586,-8.404,-42.4451,-122.6876,23.0057,23.4849,-27.0778,-121.0655,-115.8772,-26.2829,
94.9337,5.5546,54.5012,49.7765,50.7208,6.2003,-42.0678,-114.1213,31.9894,36.1758,-17.0173,-104.8838,-104.827,-13.8599,
90.6839,6.6675,60.8721,58.3591,33.5776,19.9282,-46.7741,-111.1299,33.4445,35.4515,-16.4782,-112.6907,-101.4294,-14.4746,
82.5916,1.206,62.7637,67.1498,17.4629,31.0246,-48.5476,-107.1139,41.8019,39.8316,-16.2126,-120.0293,-106.1901,-8.5447,
79.8055,-0.071385,61.1668,73.4849,2.3152,40.0092,-55.0345,-101.4097,49.6579,47.8063,-13.0709,-125.6015,-113.9187,-6.8269,
83.6942,0.89677,62.3175,77.7529,-11.9237,51.7086,-61.8554,-99.1815,49.089,50.2406,-15.1787,-132.1654,-121.1836,-7.3812,
75.7803,-5.9057,63.8813,80.3184,-25.3083,62.7061,-65.857,-99.4974,46.6254,53.0105,-24.3911,-121.2225,-126.4456,-0.18962,
57.2535,-10.3719,65.3504,84.1761,-37.8898,73.0437,-76.0056,-95.456,48.1664,58.9887,-24.3737,-103.3446,-132.9589,4.6422,
42.7311,-13.6059,67.2139,87.3203,-49.7164,82.7611,-85.5453,-88.7647,52.9892,62.6802,-19.0549,-104.3747,-139.0813,8.2201,
32.9366,-19.0563,69.4478,91.2403,-60.8334,91.8954,-94.5126,-84.403,56.5585,62.7755,-22.2501,-102.4503,-137.2444,21.7064,
18.4271,-21.2872,72.0296,93.9604,-71.2834,100.4817,-101.4958,-81.2667,59.9137,66.722,-17.5409,-91.0009,-116.9584,31.0091,
3.2215,-28.2049,73.4927,96.5177,-81.1064,108.5528,-106.9754,-79.7654,66.9239,71.8775,-8.2935,-82.1666,-124.0409,24.3281,
-11.0718,-31.0921,78.9653,104.8266,-90.34,116.1396,-112.3668,-77.148,76.6475,80.3395,-3.2164,-68.8003,-125.3958,31.7867,
-24.5075,-33.8059,82.663,112.637,-99.0196,123.2713,-107.7939,-80.9552,80.9663,89.6191,1.5559,-71.1802,-107.5082,41.6896,
-34.2445,-36.1163,87.3447,119.9788,-107.1785,129.975,-95.5417,-81.4006,88.6418,98.342,5.8013,-77.9966,-101.0577,41.1164,
-35.3233,-36.1185,94.878,126.8801,-114.8478,136.2765,-89.0863,-73.8654,97.4233,106.5415,10.0325,-62.9529,-97.6453,48.0494,
-30.3116,-36.8436,98.3446,131.5598,-122.0569,142.1999,-90.4898,-65.095,105.6779,114.249,22.9281,-45.0758,-84.0741,55.2896,
-29.6982,-33.4277,100.8796,131.62,-128.8335,146.6836,-93.9785,-61.4304,112.5934,121.494,35.6525,-29.2353,-73.9679,56.5515,
-32.7368,-26.6016,108.9268,137.8228,-135.2035,147.0413,-84.4832,-53.888,119.9378,128.3044,47.6133,-26.5171,-77.7248,67.2584,
-34.388,-21.3901,115.0452,143.6534,-141.1913,149.0651,-83.9939,-56.1983,126.8415,134.7061,52.2281,-25.649,-74.2666,77.3227,
-32.0836,-20.3479,108.3832,137.2033,-146.8198,146.1465,-93.0543,-66.9264,119.472,131.3235,43.551,-24.3512,-60.4104,63.2835,
-32.5687,-21.0552,115.9802,142.469,-152.1106,131.1112,-97.7144,-77.0109,121.9446,135.4957,44.7943,-31.0849,-66.9087,56.594,
-40.2557,-28.4687,120.4705,148.0208,-157.084,115.0501,-105.3491,-83.9594,124.2691,137.971,44.517,-31.6297,-76.9941,53.6805,
-39.7686,-27.7249,107.4573,142.3931,-161.7589,116.3413,-113.1282,-93.0218,118.7412,131.6209,43.7738,-15.6319,-86.4745,53.3518,
-37.1415,-23.4099,100.7689,123.4856,-166.1534,121.1714,-120.4405,-101.5405,111.3757,125.8928,41.3888,-17.9482,-88.5171,52.3203,
-36.3593,-27.308,90.8663,111.2558,-170.2842,118.2395,-127.3141,-109.5481,106.1395,122.6776,38.423,-30.8506,-69.1061,49.663,
-25.2599,-20.1261,91.4401,117.3547,-174.1671,123.4374,-133.7752,-109.3624,112.0634,129.4169,40.2152,-14.8995,-50.8597,60.7832,
-16.7544,-8.0723,100.0537,124.4134,-177.8171,127.3593,-139.8487,-97.7392,117.1497,135.7519,42.3816,-0.14676,-33.7081,70.5131,
-11.4104,-8.5518,101.884,123.8182,-181.2481,126.9486,-145.5578,-91.8749,118.3154,134.5969,53.9387,-14.238,-17.5856,65.8004,
-6.1465,-10.6898,92.6375,119.0402,-184.4732,130.178,-150.9243,-89.0135,113.8681,134.9568,62.3927,-18.3246,-2.4305,65.4678,
-13.4905,-12.9409,77.9202,114.7903,-187.5048,123.8135,-155.9689,-86.5649,104.1435,129.7519,44.5492,-19.1534,11.8153,61.5397,
-24.9733,-26.2645,65.291,105.7335,-190.3545,103.1281,-160.7107,-94.6277,99.0999,120.7617,27.7762,-32.1042,25.2064,43.7473,
-26.8491,-38.7886,54.6253,96.4972,-193.0332,92.1199,-165.1681,-101.4833,93.1541,113.5158,20.807,-44.2779,37.794,27.9868,
-33.1922,-41.5232,48.2141,92.3944,-195.5512,96.4749,-169.358,-94.1892,89.2519,113.2125,9.194,-48.6109,49.6264,35.2254,
-39.1544,-46.9853,45.5622,96.7331,-197.9182,97.1939,-173.2965,-84.4403,91.3686,114.3735,3.5812,-55.0942,53.277,40.1013,
-42.1078,-53.8074,40.9003,101.5339,-200.1431,88.9521,-176.9987,-81.302,88.779,112.8138,-0.4901,-65.8886,44.7782,28.5362,
-45.848,-64.6789,34.1079,99.2985,-202.2345,83.6152,-180.4788,-80.7625,85.3802,112.3117,-5.7631,-76.0353,27.9915,15.2551,
-46.4715,-74.8982,34.4717,106.3559,-204.2004,84.8647,-183.7501,-78.327,89.8987,108.9473,-13.1302,-85.5731,12.212,10.9652,
-42.7191,-74.0194,44.9369,114.0746,-206.0484,87.9678,-186.8251,-65.9143,96.0742,111.0876,-23.9118,-94.5388,-2.6207,9.8256,
-38.9509,-73.1939,45.3739,121.3301,-207.7855,92.5716,-189.7156,-57.8621,95.8529,110.9298,-28.5026,-102.9664,-16.5635,8.0308,
-35.6497,-75.069,42.1693,124.1734,-209.4184,100.5149,-192.4326,-57.7649,92.5121,108.1304,-23.9004,-110.8884,-29.6697,5.1386,
-19.5312,-62.3697,53.7392,130.823,-210.9533,108.584,-194.9867,-44.6578,101.0613,115.7426,-15.2353,-118.3351,-41.9895,12.5433,
-26.5542,-70.1968,64.6148,137.0736,-212.3961,95.6819,-197.3875,-53.0656,91.5028,103.8572,-28.4212,-125.335,-53.5701,-2.3093,
-27.3712,-75.1441,73.0302,142.9492,-213.7523,93.7972,-199.6442,-51.3278,83.1203,92.323,-35.2725,-131.9149,-64.4559,-13.1377,
-27.1752,-76.902,70.0947,148.4723,-215.0272,98.7747,-201.7656,-45.8381,75.7229,85.3376,-41.3509,-138.1,-74.6886,-19.0979,
-24.3395,-75.4212,64.6838,146.0715,-216.2255,98.8739,-203.7596,-43.8108,69.0103,79.0121,-48.7521,-143.914,-84.3072,-20.6035,
-24.8073,-78.1268,62.731,142.6096,-217.352,88.6029,-205.6341,-38.2898,69.208,76.6815,-48.2371,-149.3792,-93.3488,-19.3673,
-24.042,-77.5365,59.6902,134.7762,-218.4109,84.9737,-207.396,-35.7515,63.3685,69.9115,-46.548,-154.5164,-101.8479,-21.3385,
-21.8763,-76.4998,57.7961,127.8949,-219.4062,82.0445,-209.0523,-32.8833,58.8433,64.5117,-44.4782,-157.1763,-109.837,-22.2273,
-20.3227,-75.5253,56.4973,121.4262,-220.3419,79.7732,-210.6091,-29.7051,55.0716,59.4358,-42.0506,-152.8073,-117.3468,-23.063,
-18.6213,-74.3679,55.0358,115.587,-221.2213,77.8795,-212.0726,-26.9586,51.2852,54.9057,-40.0096,-148.9414,-124.406,-24.0894,
-17.263,-73.0393,53.4209,110.339,-222.0481,75.8578,-213.4482,-24.136,47.4852,50.4063,-37.85,-145.0663,-131.0416,-24.8132,
-15.2632,-72.0312,52.626,104.6827,-222.8252,74.1988,-214.7413,-22.2057,44.1539,46.4178,-36.5431,-141.665,-125.5895,-25.7348,
-13.8653,-60.9608,61.0375,111.899,-223.5557,67.8186,-215.9568,-11.2325,54.52,57.13,-34.8326,-129.7908,-132.1541,-17.4421,
-8.4539,-57.0619,56.6523,97.7135,-224.2423,67.8468,-217.0994,-11.7636,47.6336,50.087,-37.3221,-127.5469,-110.1249,-20.9749,
-6.9826,-56.5307,43.612,82.6914,-224.8878,65.2221,-218.1735,-7.6836,30.7959,39.3688,-36.0469,-116.0377,-89.4174,-28.3935,
-7.7688,-47.5951,47.0209,85.6838,-225.4945,55.7652,-219.1831,4.1058,30.6355,42.0682,-32.6789,-98.7115,-69.9523,-24.0385,
-9.4718,-44.0165,56.0098,84.6403,-226.0649,47.8396,-220.1321,4.5825,34.8229,40.2673,-28.549,-104.117,-79.8552,-17.5347,
-8.1805,-46.4371,49.5158,77.8746,-205.5112,36.5336,-221.0242,5.9947,28.636,35.1998,-27.5591,-111.97,-81.9334,-21.5442,
-1.4229,-45.0969,37.3861,68.8638,-179.0805,21.3262,-221.8627,10.9374,23.5436,30.6777,-32.1723,-103.4439,-62.9174,-30.8566,
0.59065,-39.4988,32.2506,57.0192,-171.3485,16.6722,-222.6509,6.425,21.1669,23.5346,-32.1701,-83.1373,-50.1038,-34.7898,
-5.2295,-39.5391,30.7976,48.7774,-168.2985,15.6717,-223.3919,2.183,18.9327,19.2301,-24.4552,-74.4133,-47.0974,-27.3999,
-3.4695,-38.1309,26.0575,45.3689,-145.6671,15.2138,-224.0884,6.8725,16.8326,15.6662,-24.4342,-72.8405,-56.8049,-19.4891,
2.0411,-31.5045,19.6736,39.2723,-122.8271,17.6752,-224.7431,10.7987,8.1099,10.8696,-28.2705,-54.3701,-49.0582,-21.6942,
-2.6607,-28.4093,18.734,32.3365,-101.3575,14.9276,-225.3585,13.7661,7.3822,13.8327,-21.9949,-37.0079,-32.0147,-15.331,
-6.5986,-27.9096,21.2255,31.6015,-87.322,15.7188,-225.937,15.5916,9.5907,12.2797,-16.5777,-32.1363,-28.2862,-7.4214,
-4.7565,-27.6812,20.434,26.3311,-67.9827,20.0782,-226.4808,14.656,2.7487,3.8303,-17.0292,-44.3082,-29.4812,-18.5454,
-4.23,-30.1178,17.0387,21.6176,-55.1064,8.9917,-226.9919,16.91,1.3783,6.2517,-16.2486,-48.0369,-31.3278,-24.9046,
-8.3148,-30.2389,15.5342,23.695,-65.9,-5.6478,-227.4724,19.2696,11.4188,10.2149,-10.9351,-31.0547,-32.3404,-13.7691,
-12.6363,-27.9425,20.3869,24.6836,-60.3794,-12.4192,-227.9241,21.0058,14.5901,10.5662,-5.4586,-17.7426,-25.0975,-11.0149,
-10.4319,-21.4454,29.2867,28.5053,-42.6566,-15.0486,-228.3486,25.048,6.9659,14.2707,-6.5772,-30.6575,-24.5556,-18.0667,
-8.842,-16.7843,32.3501,33.0616,-32.9869,-22.8224,-228.7477,26.9195,8.4763,14.8606,-7.1466,-39.4232,-29.8311,-17.4647,
-13.6141,-14.8133,26.0706,31.0778,-30.0437,-29.166,-229.1228,25.7864,15.1984,11.0766,-1.4153,-25.9707,-20.3286,-13.0427,
-19.787,-15.6116,14.1422,21.7414,-25.5896,-38.7443,-229.4755,20.6239,6.3327,8.7248,-4.4637,-17.4227,-15.4933,-16.8393,
-8.9587,-8.4083,16.186,19.9547,-12.0033,-40.2759,-229.8069,22.2786,7.3989,13.9861,-3.7139,-13.9671,-19.8662,-12.4549,
-4.3237,-6.2167,16.4198,14.178,-5.2574,-42.9212,-230.1185,18.2907,5.7498,5.193,-7.5885,-14.3342,-21.8076,-12.4306,
-3.8233,-3.1923,14.2298,10.6762,0.60188,-42.997,-230.4114,18.8805,-0.62078,1.7482,-7.3741,-0.21756,-15.9197,-10.9616,
-4.799,-2.2777,7.8322,2.5636,6.5913,-47.889,-230.6867,15.5783,-9.5016,0.92017,-5.7266,13.8955,-18.098,-10.5449,
-5.2341,2.4385,2.783,-5.5439,17.524,-51.041,-230.9455,12.4744,-13.993,-5.1606,-4.6599,11.495,-10.5041,-12.0813,
-4.4381,4.7024,3.098,-7.6215,18.8828,-50.3892,-231.1888,14.1362,-12.1894,-5.8152,-2.9342,6.9488,-11.3203,-15.6951,
-2.7256,4.4202,-0.94435,-11.5029,24.0165,-53.6325,-231.4175,12.3238,-13.3861,-6.9124,-5.6505,20.6319,-22.2103,-16.1996,
-0.15173,9.9395,-5.7082,-21.4176,36.6755,-54.7526,-231.6324,10.1383,-19.3316,-8.908,-6.2756,33.494,-11.7187,-10.889,
-1.5888,14.6459,-6.8118,-30.2558,35.8006,-55.8061,-231.8345,10.9762,-26.8487,-8.8556,-3.0066,20.6383,0.071782,-11.1999,
2.1219,18.8285,-11.4647,-30.1275,30.5192,-60.8938,-232.0244,16.3433,-28.3712,-10.0114,1.2712,23.4975,-0.65577,-9.8049,
7.0561,22.2784,-15.8384,-31.9352,29.8932,-69.0502,-204.2439,27.1729,-23.5353,-6.2773,1.9182,36.1876,-2.3035,-3.1909,
1.8121,24.3161,-17.7802,-42.0705,26.1716,-79.0072,-177.8893,35.1836,-23.5693,-1.0803,1.3208,47.1523,4.5835,-5.4095,
0.49847,26.9543,-16.9547,-48.9464,20.9857,-88.3667,-153.1159,40.5443,-24.3247,1.1538,12.5699,56.1331,18.4085,-3.88,
-3.3881,18.1065,-27.0245,-59.9889,11.0497,-97.1647,-129.829,44.8605,-28.1676,-2.2897,16.1542,58.55,14.532,-6.0575,
-4.3898,23.5278,-29.5001,-61.451,24.1253,-105.4348,-107.9392,53.4971,-25.2725,2.4272,15.4257,65.883,23.0603,-5.4529,
-5.3315,31.5159,-25.5612,-61.8615,32.5595,-113.2087,-87.3629,49.082,-22.5511,6.3787,16.6696,76.03,33.4866,-2.4744,
-1.3964,32.2763,-26.6788,-63.2115,26.9907,-120.5162,-68.0211,46.378,-24.8132,5.7553,15.4282,74.24,26.8979,2.2536,
5.6772,37.3298,-29.1754,-65.4442,37.1816,-127.3852,-49.8398,55.8879,-30.3143,2.7589,16.1902,70.9909,32.2744,5.7338,
5.0956,40.6332,-27.184,-70.4356,49.0507,-133.8421,-32.7494,59.524,-28.2544,-3.4327,20.7619,75.1671,44.4379,6.5946,
4.7899,44.9441,-26.0349,-71.994,58.7614,-139.9116,-16.6845,55.9528,-26.5592,-2.2624,21.9263,83.6725,46.2302,10.0553,
7.877,50.9245,-27.3653,-73.9409,59.0924,-145.6169,-1.5834,53.5597,-28.3401,-2.1266,23.0214,84.9191,34.2974,6.5599,
15.84,58.7153,-23.5537,-71.6736,69.2854,-150.9799,12.6116,55.89,-24.9525,-7.5427,32.9683,87.7777,44.532,6.4073,
27.1821,67.4845,-21.4176,-72.9168,79.2282,-156.0211,25.9549,58.0802,-23.6963,-6.8491,40.8721,96.6111,55.9601,20.1229,
31.3353,70.6662,-22.5431,-82.6418,88.5746,-160.7598,38.4976,49.7745,-24.2027,-4.51,38.9017,104.9144,52.2408,29.1591,
38.6147,80.5263,-17.8161,-89.1322,97.3601,-165.2142,50.2878,49.6805,-21.7862,-5.2037,46.691,112.7195,61.6399,31.2659,
47.867,89.7947,-12.8908,-82.338,105.6185,-169.4014,61.3705,60.7997,-15.6588,-1.999,57.9895,120.0564,72.0415,40.4772,
52.4668,98.507,-11.3939,-89.2078,113.3814,-173.3373,71.7883,71.2517,-12.5501,0.29012,68.6101,126.953,81.819,47.4486,
58.2368,106.6966,-15.772,-96.1479,120.6785,-177.0371,81.581,81.0766,-15.8944,-7.681,75.8217,133.4358,91.0098,45.807,
67.7578,114.3948,-13.3796,-92.3074,127.5378,-180.5148,90.7861,90.312,-12.5304,-9.6305,81.3955,139.5297,99.6493,53.1817,
73.0926,121.6311,-4.6229,-93.2762,133.9855,-174.9864,99.4389,98.9933,-12.5017,-8.3296,87.3578,145.2579,107.7703,62.2831,
82.807,128.4332,4.3314,-94.4288,140.0464,-155.3284,107.5726,107.1537,-12.2338,-10.2401,96.2164,150.6424,115.4041,68.1868,
91.9386,134.8272,-1.7131,-96.4759,145.7436,-138.7778,115.2182,114.8245,-18.7306,-16.3742,98.5176,155.7039,122.5798,72.7727,
99.9196,140.8376,-10.5282,-98.1589,151.099,-123.4615,122.4052,122.035,-26.0427,-20.9356,88.9914,160.4616,129.325,74.4317,
98.5035,146.4873,-6.2813,-95.4031,156.133,-116.777,129.1608,128.8129,-22.3107,-21.8488,87.749,164.9339,135.6655,70.6889,
102.2345,151.7981,-2.5302,-91.1249,160.8651,-108.8063,135.5112,135.1841,-21.9362,-26.8042,87.7865,169.1379,141.6256,66.4478,
103.5722,156.7902,-10.814,-99.3957,165.3132,-92.8779,141.4805,133.5808,-34.3583,-39.2959,76.4942,173.0896,144.4563,61.738,
107.481,161.4828,-19.324,-107.532,169.4944,-78.1464,147.0917,129.9045,-44.3481,-51.0382,64.6735,176.8042,124.7014,48.8745,
114.53,165.8938,-25.3954,-115.1801,173.4247,-66.2268,152.3662,125.9666,-52.7745,-62.0759,55.9728,175.7165,110.4709,31.842,
111.2731,170.0402,-37.9717,-122.3693,177.1192,-64.4223,157.3242,115.2751,-63.708,-72.4513,38.5145,151.0735,89.7426,15.8315,
96.4018,164.5378,-49.7934,-129.1271,180.5921,-72.6083,161.9848,94.2586,-73.9855,-82.2043,22.1036,127.9091,70.2581,0.7816,
78.5666,141.1682,-60.9058,-135.4795,183.8565,-82.3518,166.3657,74.5031,-83.6464,-91.372,6.6774,106.1345,51.9426,-13.3653,
73.1295,130.5287,-71.3514,-141.4507,186.9252,-91.5107,170.4837,55.9329,-92.7276,-99.9897,-7.8233,85.6665,34.726,-26.6634,
79.3468,136.797,-81.1703,-147.0637,189.8096,-85.5381,174.3547,38.4769,-101.264,-108.0903,-21.4539,66.4265,18.5425,-39.1636,
79.8886,135.6995,-90.4001,-152.3399,192.5211,-77.0314,177.9934,34.4813,-109.2881,-115.7049,-34.2666,48.3409,3.3299,-50.9138,
81.6032,133.1012,-99.0761,-157.2995,195.0698,-68.3122,181.4138,35.0635,-116.8308,-122.8626,-46.3106,31.3404,-10.9699,-61.9589,
82.9733,129.4532,-107.2315,-161.9615,197.4656,-69.5158,184.629,43.5648,-123.921,-129.5908,-57.632,21.8675,-24.4117,-72.3414,
75.5848,116.3833,-114.8977,-166.3438,199.7177,-71.1295,187.6513,46.7355,-130.5857,-135.9154,-68.2741,18.6272,-34.2756,-58.9626,
67.9162,105.7854,-112.7038,-170.4632,201.8346,-67.5846,190.4922,49.9569,-136.8506,-141.8605,-76.5909,24.4995,-36.316,-53.7376,
77.3388,102.3305,-99.1929,-157.8253,203.8245,-66.4218,193.1626,61.0595,-142.7395,-147.4488,-59.4617,21.5835,-37.5117,-54.8519,
86.7985,105.1088,-79.9849,-134.2557,205.6951,-66.0519,195.6729,71.4959,-120.0752,-152.7019,-43.6019,8.9603,-25.861,-47.9454,
70.3827,96.1507,-68.6784,-127.7669,207.4534,-70.043,198.0325,69.3756,-110.2193,-157.6398,-40.7449,13.002,-21.1759,-37.1145,
52.0597,76.2817,-72.2704,-130.2243,209.1062,-73.5532,200.2506,60.8747,-110.3551,-157.0995,-38.7821,26.3218,-22.7978,-27.1748,
48.8156,57.6048,-78.7802,-125.0621,210.6598,-66.4887,202.3355,60.8374,-109.2772,-147.4328,-40.0708,32.0938,-14.9222,-28.1956,
50.7074,47.8817,-73.0896,-116.5941,212.1202,-57.1967,204.2954,59.5973,-99.8285,-133.2841,-37.6666,22.4554,-12.0987,-31.8066,
33.565,47.4192,-60.5088,-104.2955,213.493,-64.37,206.1377,52.6472,-83.2332,-117.0922,-21.4266,28.8211,-16.6752,-19.2931,
17.4511,35.656,-59.0479,-97.3149,214.7834,-74.6078,207.8694,40.5703,-74.6243,-105.9693,-9.7771,41.1919,-4.8284,-4.0355,
2.304,25.5629,-61.5305,-97.5016,215.9964,-84.2313,209.4973,31.1467,-71.3517,-95.9952,-13.2879,52.8203,4.3793,1.389,
-11.9342,22.5828,-67.9616,-97.4361,217.1366,-93.2774,211.0274,19.6369,-69.9631,-90.7179,-17.3113,36.8767,-9.9834,-8.8177,
-25.3182,30.1462,-69.9097,-94.2412,218.2084,-101.7808,212.4658,10.5047,-56.3651,-83.1055,-2.1726,34.4229,-23.4844,-6.6016,
-37.8991,37.9784,-70.0534,-93.8894,219.2159,-109.7739,213.8178,2.6436,-48.1629,-77.1553,6.2734,39.1064,-16.291,-3.313,
-49.7251,49.7997,-60.3066,-77.8922,220.163,-110.2979,215.0888,6.5824,-39.7295,-60.7154,8.5481,43.7499,-1.2135,5.3219,
-60.8416,60.9117,-42.5882,-59.1186,221.0532,-94.28,216.2834,20.2874,-23.2458,-42.9724,22.1352,55.2249,12.9593,19.1026,
-71.2911,71.357,-25.9329,-41.4715,221.89,-74.5232,217.4064,33.1702,-7.751,-26.2941,34.9071,66.0114,26.2817,32.0564,
-60.8674,81.1756,-10.2769,-24.8832,196.1636,-55.9518,218.462,45.28,6.8141,-10.6164,46.9126,76.1507,38.8048,44.233,
-57.9383,90.405,1.0652,-11.218,170.2938,-38.4947,219.4543,56.6632,20.5052,4.1205,58.1979,85.6817,50.5765,55.6791,
-49.6417,99.0807,12.0881,1.0238,150.3145,-22.085,220.3871,60.0123,33.3749,17.9733,68.806,94.6408,61.6419,66.4383,
-45.4582,107.2359,11.122,-0.24267,128.5214,-16.4214,221.2638,53.7602,45.4724,30.9949,78.7777,103.0623,72.0434,76.552,
-47.069,114.9017,5.1521,-6.0127,107.7947,-13.026,221.4856,45.232,37.9236,32.9914,83.6922,110.9786,81.8208,81.5996,
-46.8962,122.1076,3.156,-9.2671,88.5528,-12.0032,207.9553,43.2412,42.1559,38.4835,86.6242,118.4199,88.2398,78.873,
-38.2976,128.8812,11.1615,-1.9624,75.5271,-15.6216,199.8165,44.9852,53.7265,41.9597,90.1041,107.4581,81.4993,75.5867,
-27.0819,135.2483,17.9634,7.5551,73.1644,-17.3356,190.4788,44.9375,50.6236,43.5393,83.4923,98.8412,74.44,76.1129,
-27.6266,141.2334,12.7883,2.0401,66.6049,-14.6082,177.3629,41.0359,40.5963,42.1317,81.1343,104.2389,78.8917,71.7871,
-27.656,146.8594,10.334,-2.1794,58.9934,-7.706,160.6953,39.7788,43.704,37.4349,77.9532,94.8513,78.7377,69.1674,
-15.8733,152.1478,15.4985,4.7003,60.7564,-4.8335,148.6435,39.8027,48.7949,39.5271,71.3483,90.6065,68.7108,71.2838,
-9.8594,157.119,22.0402,12.8541,55.906,-9.123,144.3044,39.5835,52.8569,46.5557,74.0571,95.5342,69.65,63.3916,
-9.5093,161.7918,21.9231,16.1798,53.2745,-6.8884,133.9589,38.8957,52.3366,44.0029,77.5669,86.6687,75.3525,56.4546,
-7.0105,166.1843,18.6795,9.9068,53.4525,-2.1368,121.583,34.1518,44.3757,37.0244,68.0926,73.7558,66.493,55.4775,
-0.32271,170.3133,20.451,7.8664,43.4967,-3.4546,115.7341,32.1029,44.1239,40.1058,59.669,69.8126,53.8266,52.631,
3.5528,174.1945,25.0083,17.999,36.0659,-4.2114,109.7541,39.8175,48.7067,45.412,58.9807,67.5518,50.5968,51.4011,
2.3755,166.7553,29.2926,23.6682,31.4921,-4.4409,103.6511,42.2489,44.3382,44.6157,53.5139,58.6782,44.6691,48.3173,
8.9817,156.7502,33.8018,27.0686,26.2283,-7.0667,100.3243,37.7856,41.1962,46.2773,48.857,52.2652,40.0605,40.5977,
15.4324,149.5142,37.3171,30.024,21.039,-10.2579,97.4381,37.2059,49.5705,47.5978,55.3254,45.9961,37.8981,38.885,
14.0248,134.277,35.5602,28.2228,12.0641,-14.9448,89.1814,38.8301,49.0066,43.2959,53.9343,36.9696,28.3936,36.5521,
20.1732,125.0151,40.4165,33.0369,11.5812,-16.2178,85.0358,41.5616,44.8609,47.2061,45.6365,32.1003,24.5204,33.6356,
16.5524,110.2836,36.0631,33.465,3.6557,-25.3674,78.9696,36.1756,43.1334,44.8559,34.2215,16.0743,8.9492,22.9406,
12.908,100.5333,29.3202,34.5904,-1.625,-21.6764,73.5083,37.1388,41.2685,39.9951,31.4451,7.7587,-5.6878,17.4666,
16.9535,93.0548,33.3454,31.5509,-4.9022,-14.5915,66.6874,38.7666,38.3102,40.9697,31.9682,21.3932,-12.0952,21.721,
18.3466,81.2048,37.6114,31.5858,-13.285,-22.8748,59.7939,33.5483,41.7964,43.332,31.4966,17.0964,-11.8517,22.3462,
16.7641,71.0301,36.8007,38.8499,-16.344,-25.8404,49.9395,35.3916,45.5554,42.6605,33.4635,5.4655,-11.6223,19.5594,
24.4352,68.6967,40.8594,44.2314,-7.6508,-12.2391,45.0152,43.3912,44.75,50.7059,36.7581,17.6709,-6.1044,26.5808,
28.7536,64.0925,44.1924,44.952,-6.2279,-12.4686,40.868,37.4133,43.5113,56.3402,32.6244,26.734,-4.7743,30.7705,
18.3513,47.2315,38.1664,41.773,-19.9542,-25.8205,33.1133,27.4557,46.2032,49.1034,27.2925,11.0299,-13.6469,17.837,
11.4659,30.2977,36.3586,40.7131,-32.857,-38.3713,29.6805,30.6293,44.8771,45.6755,21.7988,-1.5625,-21.0225,9.5362,
19.455,28.1188,45.2643,45.9831,-31.1263,-40.1666,26.4534,36.0219,43.6307,52.5759,19.5265,9.1361,-20.7255,18.605,
19.0106,18.9594,47.6097,49.2492,-43.3587,-48.6028,20.2869,28.7994,45.5922,55.9288,20.5241,0.15226,-31.2921,13.8733,
15.2184,3.7218,44.5121,51.8378,-54.8572,-59.7867,15.4543,23.9379,46.4721,54.7423,18.5697,-13.9569,-38.3327,-0.69789,
15.9926,-7.468,43.5286,51.3791,-57.3504,-62.8277,11.3935,24.6708,46.8172,57.0014,14.3221,-9.6248,-35.3098,1.0312,
16.7205,-10.6351,47.4246,54.3221,-61.3809,-63.1551,9.5048,21.9855,45.2132,59.1251,10.8114,-16.0369,-45.0011,5.5489,
22.7071,-12.1661,51.569,61.4267,-62.7597,-59.6068,8.6936,24.7637,42.7414,62.5675,9.4398,-23.9928,-40.1319,4.0111,
27.129,-18.1853,48.9566,55.8127,-61.8869,-49.2822,3.3515,27.1341,44.9974,65.0797,10.8014,-23.9997,-27.1189,-1.5325,
21.8856,-25.0477,47.7066,55.1152,-65.1633,-53.3149,-5.7674,22.8552,49.2872,62.8624,11.3584,-35.3339,-37.3021,-8.4301,
12.1368,-36.8012,45.5671,59.2801,-75.3535,-63.3724,-14.8214,13.0477,45.6071,59.8135,7.0619,-47.3139,-41.5715,-20.6988,
8.0342,-48.6932,42.3512,54.277,-84.9323,-64.3903,-21.163,7.9265,39.4962,59.5992,0.37124,-51.8262,-40.5234,-30.5441,
6.588,-54.3282,38.3641,50.5387,-93.9364,-58.5989,-28.5705,3.5943,35.6804,57.4693,-8.3279,-54.5014,-52.192,-32.0857,
-0.3152,-56.6121,37.2671,53.0496,-102.4002,-54.842,-32.8818,-1.683,29.9242,57.6365,-14.3362,-59.6674,-63.1605,-34.2583,
-4.3934,-62.6156,35.2722,53.0003,-110.3562,-54.2028,-36.4523,-1.8228,24.9954,57.3116,-20.9476,-59.7026,-53.3453,-36.7819,
-2.6835,-66.0891,32.674,51.7485,-117.8348,-50.4682,-43.4242,-2.6773,24.4596,52.909,-26.4392,-70.2204,-47.7345,-38.4314,
-7.584,-75.8623,29.5085,49.8491,-124.8647,-41.8963,-53.111,-7.0962,23.2332,49.4933,-28.4685,-80.1072,-50.4138,-47.9358,
-11.4675,-78.5411,25.8095,48.3042,-131.4728,-30.7057,-60.0475,-10.0451,17.0187,51.3442,-29.6527,-84.9417,-52.6914,-50.3621,
-10.0563,-76.9624,26.4304,43.7185,-137.6845,-28.6226,-64.8806,-14.5038,12.8644,51.3968,-40.6477,-79.1221,-60.3764,-47.5816,
-16.4428,-85.1186,26.0498,41.3363,-143.5234,-33.8951,-70.3877,-17.249,12.8154,47.5901,-50.5014,-88.4748,-62.7794,-53.6448,
-21.9637,-91.8221,19.9071,45.3641,-149.012,-31.138,-73.6363,-17.4189,10.3592,46.4219,-49.6405,-97.2663,-62.1461,-56.9335,
-18.4767,-92.8203,16.5435,46.2572,-154.1713,-17.4596,-72.8335,-19.0253,8.0505,45.3238,-50.7594,-102.9995,-67.3349,-52.3127,
-17.8501,-96.892,16.0328,44.4461,-159.021,-9.1812,-75.2119,-23.6684,8.5318,41.6401,-53.4984,-110.9195,-58.4746,-54.9581,
-22.8048,-102.8888,15.794,46.3588,-163.5797,-6.9433,-79.1351,-27.3097,8.743,38.4185,-51.4936,-117.8822,-46.0478,-57.6864,
-21.1956,-103.7054,18.9437,47.6747,-167.865,5.7658,-87.1615,-31.6971,7.0131,37.3187,-49.6092,-106.23,-36.7775,-55.9124,
-16.7904,-106.4007,19.9767,42.1631,-171.8931,19.5198,-96.0318,-37.2667,4.4232,37.2487,-43.9811,-102.5073,-20.4708,-55.6907,
-22.7728,-114.1166,15.6446,36.4998,-175.6795,19.1918,-104.3699,-42.0205,3.9168,35.2548,-44.4757,-110.4568,-15.025,-61.2678,
-33.6987,-120.165,13.9828,42.7457,-179.2387,15.8714,-109.1951,-42.6326,1.0305,35.7908,-55.9072,-117.9294,-28.2235,-64.5813,
-36.9797,-123.5602,16.0361,47.894,-182.5844,20.2215,-112.2842,-44.8951,0.0045516,34.6075,-66.6528,-124.9536,-40.6301,-65.5269,
-33.0737,-130.2466,17.2431,45.7433,-185.7293,29.8545,-115.4291,-49.6732,-1.201,30.3619,-66.269,-130.3511,-52.2922,-66.6566,
-32.2941,-132.434,17.4138,46.6141,-188.6856,42.1632,-122.6033,-49.8263,-4.262,30.2274,-65.9083,-128.5561,-38.9106,-66.755,
-34.9362,-130.5139,21.9126,52.7353,-191.4644,53.7334,-124.7678,-49.9702,-0.87323,29.6186,-66.5335,-134.9427,-47.4223,-68.2933,
-28.9836,-131.8421,27.3463,57.7659,-194.0766,58.4631,-128.8509,-53.7204,1.1074,24.9494,-64.4697,-140.9461,-52.7721,-70.9441,
-30.1369,-135.0186,26.1877,54.7821,-196.532,69.0554,-133.6531,-54.8358,-1.369,23.9346,-62.0476,-135.3817,-44.3029,-67.1697,
-35.5595,-139.4505,21.242,52.9414,-198.8401,76.8431,-132.8648,-53.9557,4.0153,29.247,-57.8428,-128.2226,-41.6447,-59.765,
-32.2207,-142.4117,14.4238,49.0416,-201.0096,80.6682,-138.6314,-55.2981,1.6053,27.2512,-60.8797,-128.0011,-52.8844,-61.7227,
-37.2771,-147.967,8.015,39.5914,-203.0491,88.6028,-144.0519,-59.9338,-7.8908,16.6983,-69.0373,-123.4543,-55.7371,-67.9015,
-47.8151,-152.948,4.8828,39.3853,-203.7608,97.3866,-144.3268,-61.8816,-7.6586,13.0451,-66.1001,-114.842,-40.1006,-61.1761,
-50.0077,-155.0995,-4.3285,33.8889,-202.3814,105.6434,-149.7672,-70.9429,-7.9222,12.0212,-62.8572,-117.8336,-36.4895,-54.8542,
-38.8125,-148.2037,-2.6225,31.8551,-190.2386,113.4048,-154.8812,-67.6507,-3.1085,16.6025,-54.2655,-116.0662,-34.3001,-49.1528,
-32.3859,-142.9269,3.5609,37.4161,-181.4753,120.7005,-152.096,-58.5299,2.1397,18.7399,-45.9475,-99.7023,-24.2883,-42.5883,
-27.7917,-143.7513,5.9983,41.6786,-167.9355,127.5585,-148.0317,-55.2591,8.5192,24.123,-40.5395,-84.8021,-19.2156,-30.633,
-31.9088,-149.2262,-7.377,27.1268,-155.4492,134.005,-153.2498,-62.0665,5.1155,25.0862,-49.1944,-83.5703,-24.3292,-25.4205,
-36.9837,-152.9264,-19.7088,13.6891,-152.1478,140.0647,-158.1548,-64.8504,2.6395,21.8938,-51.7863,-74.4587,-24.0747,-21.7261,
-37.4162,-155.079,-18.7673,16.0007,-145.1881,145.7608,-162.7655,-66.9849,4.6502,21.785,-43.1355,-67.8221,-18.0505,-22.5917,
-32.7609,-147.7027,-15.2309,17.451,-123.4616,151.1152,-167.0996,-67.7866,5.3353,29.6367,-35.7269,-62.7886,-8.2911,-22.2003,
-38.7492,-149.2046,-22.271,3.1474,-119.6694,156.1482,-171.1736,-72.6372,2.3639,30.0279,-38.6448,-59.2625,-21.8936,-18.217,
-45.3423,-152.5448,-27.4422,-0.65689,-126.5892,143.1635,-175.0032,-76.2329,2.9454,24.1288,-39.4596,-63.1781,-34.68,-17.8473,
-39.7292,-146.7661,-24.8314,9.5059,-116.704,136.0204,-166.6722,-72.6228,9.5171,23.6454,-34.1995,-70.9566,-46.6992,-23.5249,
-38.0686,-141.5758,-24.0651,6.7661,-103.6762,139.1871,-166.554,-68.9886,8.223,24.3956,-34.7988,-65.4941,-43.7765,-21.3903,
-37.9534,-136.6965,-24.7901,2.745,-97.2144,132.041,-163.0685,-68.4647,0.25802,21.7268,-35.8441,-53.611,-48.6215,-12.6353,
-31.8201,-130.905,-14.6258,11.7391,-95.7201,113.5134,-146.5357,-62.4286,3.1348,21.8693,-28.3911,-60.9994,-54.8635,-13.8052,
-28.7058,-122.3276,-0.49212,25.1347,-99.8591,102.1231,-133.164,-50.2472,15.239,30.9212,-25.4826,-66.2573,-64.3459,-16.5925,
-22.1632,-110.6496,8.6964,37.7267,-94.8316,105.1548,-118.9077,-39.5194,23.4837,38.225,-25.3999,-54.0871,-69.6442,-8.848,
-16.2534,-105.2157,12.2722,39.0785,-83.1159,101.9787,-105.7472,-36.4251,23.7617,35.6907,-17.8501,-45.298,-67.1525,-2.7738,
-16.0014,-100.5898,16.1154,36.0106,-73.0675,84.0497,-105.4282,-36.4088,21.6129,32.8262,-12.6815,-49.0879,-61.4364,-5.7406,
-7.0875,-88.5288,22.6203,44.2143,-59.2835,77.8014,-95.0051,-31.091,24.8958,36.4002,-13.6078,-47.3479,-58.4731,-3.227,
-6.1803,-85.1453,19.3349,40.5971,-55.2445,76.5077,-84.4843,-30.1896,23.4021,31.8056,-18.576,-42.5788,-63.1599,-2.0691,
-15.2098,-84.1342,16.9697,33.0999,-53.1349,68.3021,-89.7794,-31.0296,18.3823,25.8001,-17.7026,-38.819,-57.2009,-7.4888,
-16.4659,-78.3628,21.9771,37.1399,-56.9363,56.7322,-88.4897,-28.9266,18.9671,24.4931,-13.9889,-42.5154,-63.6508,-13.5469,
-7.2832,-70.7689,22.5867,44.0701,-59.787,53.3282,-81.7343,-23.8168,21.203,21.5773,-15.0777,-41.8927,-73.9317,-9.3596,
-10.4619,-69.1741,19.5445,39.7389,-54.9948,49.8873,-85.2664,-22.6287,19.2077,16.6674,-17.7887,-37.6921,-83.5958,-6.1467,
-16.8238,-69.1208,23.9152,37.1133,-49.5257,38.9406,-92.9246,-22.4761,14.922,18.3187,-18.8903,-40.974,-89.4263,-12.2856,
-10.5117,-61.5996,24.8904,36.8147,-39.8055,39.0143,-98.4364,-21.6097,10.6522,16.7372,-17.275,-40.9257,-70.0815,-12.5128,
-7.7119,-57.1802,26.0485,38.7032,-37.6581,40.7708,-93.7353,-16.6977,14.5928,15.9744,-13.1055,-41.1217,-61.7788,-3.8083,
-7.0082,-53.5084,34.8495,50.1198,-36.6037,34.7091,-92.2085,-8.224,24.5631,22.4877,-8.7037,-49.0183,-47.2258,3.892,
-3.6952,-49.3336,32.7585,52.8972,-27.1766,36.001,-99.6914,-6.7665,25.4999,24.9949,-10.5916,-46.0772,-37.1614,3.1765,
-7.0889,-52.8815,24.7675,42.7335,-28.6797,36.974,-105.5205,-12.3863,19.3901,20.8436,-13.0896,-37.287,-48.1886,-8.3423,
-11.7248,-54.7699,25.4506,39.4466,-36.3587,30.6587,-106.6606,-15.7404,17.0219,17.4238,-13.0271,-34.8088,-51.8047,-10.0109,
-16.8061,-56.7865,22.9594,39.9721,-43.8182,21.1061,-109.42,-20.0984,18.8929,13.4861,-19.4761,-34.1663,-43.876,-5.5536,
-11.9416,-51.4514,22.546,46.7325,-40.7074,23.214,-109.6037,-18.8927,22.5793,16.5331,-17.3439,-33.0804,-45.1,-5.703,
-1.8248,-42.3385,31.0754,55.7389,-31.757,34.1134,-103.2685,-10.7693,25.8045,23.9775,-5.4568,-36.639,-49.8656,-3.1914,
-7.018,-45.5828,31.139,52.8765,-36.6003,33.9948,-105.7495,-16.8721,24.2558,18.682,-9.9501,-42.1539,-47.356,-3.4819,
-9.0073,-46.704,30.2348,52.5962,-44.0452,28.5809,-110.0093,-26.4646,24.7289,17.0794,-16.5837,-37.2143,-45.4783,-6.1653,
-6.2975,-49.4456,35.8923,55.4662,-45.5001,22.2865,-106.5423,-31.3846,23.4863,22.0799,-13.9017,-39.079,-54.078,-11.8211,
-9.535,-54.9148,37.3542,58.1638,-48.7956,14.9238,-105.6933,-39.8656,19.908,17.6221,-17.6469,-50.8343,-59.269,-17.1374,
-13.5424,-54.2712,39.6924,62.1456,-58.6423,7.5207,-103.4491,-45.9096,22.3287,14.3954,-28.8803,-61.8842,-64.149,-23.5807,
-13.9352,-49.8096,46.229,67.3349,-62.1134,9.2386,-96.0371,-44.3601,22.6762,16.6651,-27.3885,-65.4018,-73.5565,-22.8893,
-11.6528,-48.2671,48.7579,74.382,-59.8327,15.4332,-94.6132,-47.4831,17.9412,12.7727,-28.6377,-71.6006,-73.9633,-18.6234,
-5.1688,-45.3713,58.3657,84.0191,-65.8839,12.5788,-85.5622,-45.5982,26.5059,15.381,-27.4016,-77.4277,-74.3463,-17.0238,
-0.038454,-39.2746,68.9637,93.078,-76.0309,6.5214,-72.2335,-38.0416,36.4847,23.1348,-19.0086,-81.941,-83.9855,-22.7513,
3.5793,-34.7489,78.9259,101.5933,-79.7844,8.2993,-65.2484,-34.5543,36.4648,26.326,-16.1809,-86.4248,-93.0463,-23.0734,
11.3183,-33.8691,88.2903,109.5977,-68.4897,15.2731,-63.9846,-34.6502,39.3386,28.8443,-20.7536,-92.5673,-95.4173,-16.1454,
20.2801,-29.9087,92.7546,117.1218,-51.847,28.4567,-68.8226,-34.9815,41.7985,29.0418,-20.9547,-90.3877,-79.0874,-13.7304,
16.1714,-30.5244,88.1533,119.6151,-54.5207,39.1622,-69.0317,-40.5953,43.1471,27.7813,-15.8409,-84.9643,-82.5368,-16.7631,
12.5497,-32.3085,84.0691,117.4995,-60.1674,50.069,-64.1665,-42.257,43.2095,30.6939,-14.6493,-80.5897,-90.8411,-15.9984,
10.8325,-35.1904,69.3841,103.7012,-42.4573,61.1648,-72.8499,-41.1677,32.9043,27.888,-16.6628,-67.0773,-71.2906,-12.1461,
1.9879,-41.7557,51.121,83.3792,-25.8099,71.595,-82.5789,-47.8566,25.6275,18.984,-17.5911,-59.1962,-57.4927,-9.4893,
1.3865,-39.7325,35.6409,64.2764,-10.1613,81.3993,-91.4831,-53.6623,23.6077,15.4346,-16.5359,-53.7162,-55.4892,-8.9197,
1.0621,-37.1076,22.6564,46.3198,4.5484,90.6153,-96.8404,-52.6117,16.1654,16.196,-15.7844,-42.5395,-38.0598,-8.1438,
-7.1963,-42.5941,13.5838,29.4406,13.1933,99.2784,-100.189,-51.8654,14.2316,16.1881,-17.7299,-34.2026,-26.4969,-4.7626,
-13.2725,-46.5462,3.8511,15.6228,22.7658,107.4217,-103.5776,-57.1894,13.6187,12.5657,-14.9789,-27.0887,-29.9686,-6.1641,
-16.0911,-50.7431,-3.3698,7.2136,24.0512,110.6171,-100.9784,-58.8194,11.5963,10.1246,-9.9828,-25.7044,-25.0372,-9.8916,
-18.2591,-52.2778,-7.7469,-0.2091,20.9211,110.9704,-96.6067,-52.1568,7.7675,12.1686,-12.0349,-24.8852,-12.6887,-6.647,
-17.6457,-48.1772,-13.5488,-9.8377,33.7659,111.5423,-92.7387,-45.1712,5.373,12.8841,-15.6514,-15.6794,-5.1787,-1.9096,
-19.7205,-45.0456,-24.546,-18.1651,45.8399,113.7679,-88.8614,-46.5583,2.8815,8.0137,-14.4713,-4.8567,-3.6629,-2.036,
-21.4291,-44.2709,-29.8219,-22.86,50.3203,118.0293,-83.5295,-45.2108,1.7445,7.5331,-7.8182,6.0403,5.7161,0.97843,
-15.3229,-39.6864,-28.0329,-32.0935,61.4011,123.9627,-78.9999,-39.1237,-0.28814,9.4915,-0.11853,19.175,19.4731,11.5248,
-5.2447,-23.8079,-30.207,-39.3267,71.8171,130.6249,-75.2242,-28.0997,-0.75302,14.7063,9.0474,32.1245,32.4048,24.3309,
-8.3045,-20.9334,-42.4946,-51.0671,81.608,136.8874,-75.0491,-23.0392,1.7023,17.1984,16.6997,44.297,44.5605,29.1375,
-18.1705,-31.0056,-54.0449,-62.103,90.8116,139.2793,-81.3924,-26.7183,-0.087074,11.1048,19.7951,55.7392,55.9868,25.2201,
-31.1803,-43.2452,-64.9022,-72.4769,99.4629,133.5738,-90.6088,-39.2152,-14.1818,-3.6615,7.279,66.4948,66.7276,18.1631,
-43.1683,-50.171,-75.1081,-82.2282,107.5951,133.9955,-99.2723,-46.3828,-27.4309,-5.2495,7.0836,76.6051,76.824,26.9557,
-41.7832,-46.9196,-84.7016,-91.3945,115.2394,138.2481,-107.416,-40.4664,-33.4979,-5.1753,13.6483,86.1088,86.3145,29.9179,
-41.4454,-40.9711,-93.7195,-100.0109,122.425,119.5889,-86.871,-37.3155,-29.3188,-17.1573,4.3932,66.8423,92.5843,14.8664,
-24.8587,-24.4129,-73.9964,-79.9102,110.7407,101.0853,-67.5588,-20.9765,-13.4597,-2.0278,17.868,48.7318,72.9293,23.374,
-12.1594,-13.1866,-55.4566,-61.0156,89.9963,80.9202,-49.4052,-11.8847,1.4479,-0.82135,2.6959,31.7079,54.4535,7.8715,
-4.1995,-12.8776,-38.0292,-43.2547,70.4965,61.965,-32.3409,-5.387,4.2533,1.1561,-1.6837,15.7054,37.0863,-6.4596,
-3.7059,-14.2739,-21.6474,-26.5594,60.0002,44.1471,-16.3005,1.4441,7.6138,5.1843,-0.85909,0.66307,20.7611,-3.4207,
-17.5835,-22.8174,-6.2486,-10.8658,42.3002,27.3983,-14.3581,-7.0786,4.5054,0.29353,-14.9075,-13.4767,5.4155,-7.3128,
-22.4343,-26.7513,8.2263,3.8861,25.6622,11.6544,-14.4612,-10.9925,4.717,-2.1347,-16.0625,-26.7681,-9.0095,-10.7304,
-8.5545,-20.3255,21.8328,17.753,36.6557,-3.1449,-13.5931,-3.1019,7.3267,-0.077702,-3.0469,-20.2208,-22.5689,-10.5687,
-3.2207,-12.3573,20.884,25.2442,44.0976,-7.0535,-15.67,1.9047,10.7433,6.6756,1.4744,-13.7052,-26.8791,-12.345,
-12.9094,-10.8927,18.9081,27.3449,27.3517,-8.7995,-22.2016,0.10322,6.9652,3.1416,-12.3528,-16.0161,-39.3663,-15.2197,
-13.8223,-8.07,28.1377,35.5859,17.6359,-13.8154,-22.0748,5.6404,5.3422,-3.0727,-18.6013,-16.7426,-51.1044,-8.2807,
-11.306,-8.7908,36.8135,42.851,23.0855,-27.0864,-17.6168,8.9174,10.0831,-0.23698,-16.2801,-29.838,-49.9663,-8.989,
-3.6377,-5.1301,44.9686,53.5363,21.9413,-28.7152,-16.3188,14.4079,15.5037,8.6948,-11.6879,-42.1478,-49.6196,-12.065,
2.6062,-4.5813,52.6349,64.4242,11.225,-20.9662,-17.0268,22.9436,19.1533,10.8248,-12.1918,-34.3161,-56.0423,-10.136,
2.209,-7.4395,51.6461,74.6587,14.6489,-31.5187,-24.9232,27.5926,23.5479,10.4164,-13.1474,-39.7289,-59.6696,-7.8407,
-2.2621,-8.9216,43.2447,76.6869,23.4112,-40.2324,-37.5278,24.9729,23.0989,14.6117,-12.8407,-51.4451,-58.4997,-6.8881,
-7.4291,-11.2786,47.8806,80.2806,7.9065,-41.1931,-49.3761,27.331,26.0515,21.448,-14.4804,-58.3611,-69.0898,-4.0647,
-7.2242,-11.3249,59.1078,89.5638,-6.6679,-52.8215,-48.8238,37.5016,35.8167,30.0432,-14.8168,-62.3311,-79.0444,-2.6156,
-6.5496,-12.3325,65.5637,98.29,-20.3678,-63.7523,-49.0277,44.1692,45.9599,37.6407,-13.2048,-70.8836,-88.4017,-3.1817,
-10.0132,-14.003,70.3069,106.4926,-24.569,-65.9526,-49.9423,46.3396,54.7713,45.9874,-13.3765,-72.4153,-95.2693,-2.0268,
-12.0637,-16.2961,75.0065,114.203,-37.1948,-70.4315,-43.8125,45.7284,57.5108,50.2176,-14.2611,-77.4702,-103.6531,-0.21797,
-9.1705,-16.5234,80.3883,121.4508,-42.0733,-75.6056,-33.2298,49.4924,57.6756,50.338,-14.1286,-85.1145,-111.534,0.51823,
-2.5948,-7.0962,89.665,128.2638,-38.3439,-66.9718,-22.3183,60.2613,64.0971,56.2357,-13.5219,-84.587,-118.9419,0.72822,
2.6226,-1.1266,95.7339,134.6679,-45.4431,-66.5687,-7.7226,68.456,69.1693,64.6719,-9.0952,-83.1272,-113.372,-2.9309,
5.1164,-4.6745,90.2307,140.6879,-38.1371,-75.3492,-0.75164,65.0717,64.2959,60.5505,-9.2725,-84.1652,-107.7749,-2.032,
10.3529,1.1495,89.3963,146.3466,-23.0745,-71.5512,0.016473,62.3723,63.0894,54.266,-13.7777,-71.6436,-112.6367,3.1515,
11.9009,7.106,95.3607,148.7731,-24.3414,-73.7659,11.8256,63.2095,66.7758,56.0715,-9.3356,-59.8732,-117.2067,-0.65304,
15.2844,8.3669,102.4135,150.2112,-26.9782,-82.5963,25.2161,64.9605,65.9028,54.8766,-3.2319,-64.7167,-112.3435,-6.1575,
22.5622,11.7214,109.7662,153.7319,-23.9134,-87.7635,37.8031,63.9553,63.3947,50.1379,-5.4482,-73.3669,-109.4593,-3.3778,
27.9573,16.8028,112.3393,153.1848,-14.2838,-95.5133,49.6349,60.6,62.0013,50.5039,-5.1214,-67.0368,-104.8199,-3.175,
31.3414,21.3381,108.2502,144.2348,-6.437,-97.7361,59.7931,58.6514,58.0401,48.197,0.24742,-48.9146,-89.1306,-8.0461,
27.0507,17.6476,102.2372,134.1345,-8.461,-97.1747,66.3283,58.5064,52.1475,37.1101,3.125,-40.0746,-88.6033,-10.4557,
26.6327,13.9374,93.4517,128.7378,-2.8919,-100.7442,70.7845,54.2729,44.9211,32.7143,3.1785,-45.6239,-90.7592,-10.0693,
37.8091,21.5372,82.3008,114.5055,11.3816,-93.4944,69.1889,46.4371,36.6823,31.9564,1.7826,-31.0762,-71.2136,-8.26,
37.2277,25.7886,67.4809,93.5351,24.7987,-79.9307,59.0117,41.9639,27.4917,20.639,-1.9398,-15.1116,-52.8408,-4.149,
20.8941,18.9387,49.332,73.823,37.4108,-76.0991,41.371,33.6614,12.3447,5.3007,-4.2337,-0.10494,-35.5703,-1.4898,
5.5404,11.0535,32.2721,55.2936,49.2661,-75.3893,24.7888,21.0366,-0.44726,-9.1174,-2.5334,11.4706,-19.3361,-2.8467,
-2.2639,11.8365,16.2358,37.876,60.4102,-67.492,10.5271,19.2923,-9.0975,-13.6316,-1.8994,24.2797,-4.076,-3.1578,
-10.5639,7.993,1.1616,21.5035,70.8856,-60.7912,-2.8789,18.3758,-19.8798,-17.8753,-3.4726,36.923,10.2686,-1.2812,
-13.5453,-0.44045,-13.0081,6.1133,80.7324,-55.9384,-15.9624,7.8734,-27.6049,-26.2027,-1.095,39.8897,23.7525,-3.3736,
-13.4558,-0.17306,-26.3276,-8.3535,89.9885,-46.5565,-23.4406,2.3393,-37.2768,-32.5847,-1.7524,48.3424,36.4273,-2.4481,
-26.1459,-4.5011,-38.8479,-21.9523,98.6892,-44.2452,-27.8188,0.27062,-46.6095,-38.8245,-6.9498,59.5419,48.3417,3.0013,
-30.8437,-8.0873,-50.6171,-34.7352,106.8678,-36.7699,-30.9701,-3.12,-44.295,-44.2074,-2.1944,70.0693,59.5412,6.6778,
-28.9931,-7.6021,-61.68,-46.7511,114.5558,-30.2253,-34.4145,-6.7889,-48.3857,-49.2677,-2.0627,70.9269,70.0687,1.9385,
-27.2535,-4.2537,-72.0792,-58.046,121.7824,-28.8938,-25.601,0.84903,-46.9288,-41.4914,-1.9389,74.8662,79.9646,5.1967,
-31.4029,-7.3731,-81.8545,-68.6633,128.5755,-31.0167,-29.8497,-1.1303,-47.0058,-40.9304,0.10559,84.4742,84.5667,8.2589,
-25.4214,-2.8332,-91.0432,-78.6435,134.9609,-18.7914,-28.2997,-0.82132,-47.3185,-40.1618,9.9812,93.5058,93.5927,14.7532,
-18.5934,3.6036,-99.6806,-88.0248,140.9633,-8.9868,-20.8169,3.0846,-45.9252,-37.7516,12.2748,97.5364,102.0772,21.5813,
-9.7651,13.5107,-107.7998,-96.8434,146.6055,1.1933,-14.2652,15.9149,-34.4931,-26.8094,21.6617,105.7842,110.0525,33.3018,
-8.9382,13.423,-115.4318,-105.1328,151.9092,15.2217,-17.9888,17.6111,-34.5926,-21.5859,28.3157,113.5371,117.5494,40.7032,
-22.5019,2.0123,-122.6059,-112.9248,156.8946,19.7313,-31.0095,2.4545,-46.6171,-34.3907,14.5652,120.8249,124.5964,37.2972,
-28.5029,3.0966,-129.3495,-120.2493,161.5809,30.3576,-43.2489,-2.634,-57.9201,-42.5709,17.3068,127.6754,131.2206,44.4593,
-25.3467,11.5877,-135.6886,-127.1343,165.9861,42.6361,-54.754,2.3445,-62.6398,-30.8578,30.3683,134.1149,137.4474,55.8918,
-22.6208,24.9924,-141.6473,-133.6063,170.1269,54.178,-65.5688,6.7836,-60.0865,-22.9801,42.6462,140.168,143.3005,66.6383,
-30.6636,31.0854,-138.5717,-139.6899,174.0193,36.8273,-47.5346,11.92,-47.0813,-34.3762,39.8465,145.8579,148.8025,55.1682,
-37.5006,15.2408,-116.1574,-117.2085,149.4781,20.5176,-30.5826,6.8664,-38.954,-46.4137,23.3557,123.0064,125.7744,37.7581,
-21.1506,13.3622,-95.0879,-96.076,126.4094,5.1866,-14.6476,12.721,-25.5295,-40.6158,7.8544,101.5261,104.1279,21.3926,
-10.8428,2.9195,-75.2826,-76.2114,104.7249,-9.2246,0.33125,9.0656,-35.085,-45.8917,-6.7169,81.3345,83.7802,6.009,
-6.5772,14.0726,-56.6657,-57.5388,84.3414,-22.7711,14.4114,22.6217,-28.8825,-41.4509,-17.7626,62.3544,64.6534,-8.4515,
-2.326,15.6386,-39.1657,-39.9864,65.1809,-35.5049,27.6467,28.6157,-21.3648,-33.1791,-16.697,44.5132,46.6742,-22.0444,
-4.1149,6.0229,-22.7158,-50.1204,58.4982,-47.4746,39.244,12.7988,-26.832,-37.4555,-17.1412,27.7424,29.7738,-30.0013,
-5.073,8.3131,-7.2529,-52.1746,65.3524,-58.7261,47.2537,13.3564,-26.4267,-35.9309,-18.7641,11.9778,13.8873,-25.5499,
-4.0455,13.3577,7.2823,-38.6805,56.8516,-69.3025,57.1925,22.4367,-22.1902,-28.2316,-18.3614,-2.8408,-1.0459,-18.9554,
3.1871,14.2437,11.1839,-37.5645,60.4306,-79.2444,47.2535,22.778,-23.9918,-26.2968,-15.5725,-9.2988,-10.9856,-18.0591,
2.5137,8.0864,4.2462,-43.0232,62.1074,-88.5897,43.9363,17.5549,-27.3728,-32.4315,-18.0123,-3.9204,-22.3778,-20.3497,
-4.868,4.227,6.402,-37.5493,51.1501,-97.3743,46.6028,15.5378,-25.7304,-33.3781,-17.4135,-1.2746,-32.1221,-20.575,
-3.8528,5.1782,3.8485,-33.6098,53.6245,-105.6319,47.4218,17.7385,-20.0895,-30.1704,-10.8253,-1.4393,-16.4567,-20.0636,
0.47599,3.6627,3.3764,-34.726,51.1304,-113.394,45.2996,19.3255,-15.2685,-30.5291,-10.8989,-0.62982,-20.0486,-20.5468,
-2.2041,2.7198,6.3073,-31.4376,41.5546,-114.0621,39.9303,17.925,-14.1114,-28.9388,-10.9679,1.0952,-32.584,-20.5193,
-2.7948,4.7258,5.6879,-28.346,50.3897,-113.7259,42.114,21.429,-10.6132,-23.1046,-4.7662,-0.65774,-18.8188,-16.6371,
0.74737,5.4063,2.9365,-27.1272,53.1509,-108.3486,39.5872,24.9638,-10.9407,-25.0928,-2.0701,-3.5108,-11.4229,-13.2282,
1.9076,7.2513,0.10895,-29.1152,47.7927,-104.9809,26.8481,23.7072,-14.3814,-30.0949,-8.4536,3.208,-20.1376,-10.7476,
4.2033,11.6365,6.8509,-23.5119,53.6018,-105.9129,26.2011,29.9973,-5.3238,-19.6126,-12.7671,10.7279,-15.5551,-5.282,
9.0125,18.4101,16.8039,-8.0012,44.8421,-105.5839,30.1726,42.2974,6.3236,-6.6255,-13.2062,4.0589,-11.4885,-2.3142,
10.159,22.3672,17.4829,0.55308,32.2696,-100.9361,27.6391,49.7622,7.6314,-4.0588,-12.6548,4.0563,-16.3426,-0.0057336,
4.9699,19.3379,11.8544,-7.4341,44.4334,-100.4233,15.1345,42.197,3.5579,-5.9842,-15.5107,8.3924,-19.4596,1.1997,
11.1794,21.7929,18.6147,1.4479,55.8674,-100.9056,8.6828,47.137,6.9601,-0.56371,-12.893,5.2376,-15.1588,2.8147,
17.9803,25.0648,23.5236,12.6894,41.4282,-97.9848,3.5824,55.6367,13.5321,5.9774,-11.3963,4.2002,-20.757,2.4046,
16.4199,25.4892,21.1482,8.554,41.3529,-89.6952,-7.2375,52.7808,13.2024,6.1015,-17.4613,10.697,-22.4037,4.6708,
19.773,26.3702,28.074,15.2711,52.9718,-86.2417,0.90949,55.3985,15.7848,6.2173,-9.1828,2.8243,-12.3826,10.6571,
30.6379,33.9468,37.959,28.4548,55.4573,-84.9238,14.9549,66.1746,28.9377,16.9313,5.4682,-11.4452,-7.3011,18.2126,
33.3789,43.7204,40.7431,40.8475,44.6583,-71.3923,23.3371,73.4118,39.373,30.0154,6.2247,-11.843,-10.4782,27.0022,
26.0736,40.133,40.7087,35.0225,42.9427,-65.1808,8.9215,66.5968,37.4925,30.7453,0.066595,-5.3479,-15.6344,26.346,
21.3759,29.2892,32.7228,28.824,48.8023,-75.3699,3.3248,58.0217,25.3613,17.5726,-1.1425,-3.8219,-8.1886,17.7756,
20.0937,22.7112,24.4923,25.6482,47.32,-80.1271,-0.73123,50.6839,19.5007,13.1437,-3.0022,-1.6643,0.97971,14.2988,
19.1288,25.4461,28.5666,29.1707,38.4553,-63.5091,-0.92832,50.2942,26.2846,19.8267,-1.1349,-3.2517,-6.5509,14.6459,
20.8735,29.2219,28.2988,29.3486,42.8968,-59.6987,1.5376,48.2405,27.118,14.2986,-0.58472,-3.5386,-13.8707,10.3926,
28.0571,30.6019,31.1805,26.8646,52.6151,-61.6603,8.9173,47.9975,26.2137,10.7895,1.1375,-5.0134,-0.74607,13.3848,
32.6403,32.1402,38.4688,30.5555,57.1713,-54.1042,12.7207,52.8305,27.5335,15.9268,7.818,-11.4614,13.3987,17.4021,
22.4868,27.8015,28.9295,25.3479,54.705,-53.7503,6.6549,46.7683,20.579,10.1506,6.8669,-10.2917,15.3666,8.1629,
12.7019,22.518,14.9016,13.945,50.2177,-60.8894,0.712,36.0085,9.9443,-1.3047,-0.052838,-3.1665,8.901,2.6119,
12.9039,21.1669,14.4897,14.5544,51.061,-55.3078,1.1512,37.2222,6.9372,-3.1544,-3.9061,0.87992,16.0797,8.7219,
9.9603,16.2815,12.8972,12.958,51.1306,-46.9279,4.6976,35.712,10.1362,-1.2781,-3.4307,0.58615,16.32,9.4037,
7.1933,16.0275,2.7231,3.7446,54.0883,-40.0149,4.6567,26.0972,6.8767,-6.7448,-4.9121,2.2382,21.8485,4.2595,
8.2079,20.3687,2.5597,2.0737,54.2175,-38.5779,6.7876,26.942,1.6439,-14.5348,-2.6892,0.17573,34.6376,4.0044,
11.0902,21.0748,9.1548,8.6984,51.9285,-37.7092,18.4317,35.9305,1.0631,-11.7348,0.84662,-3.2093,34.8492,10.0309,
12.5938,21.4974,5.4724,11.3094,54.3563,-31.3494,23.8334,34.4977,-2.6158,-7.4154,-0.40936,-1.8115,29.6249,11.1161,
8.7046,21.4125,4.903,9.4259,54.7102,-34.0481,29.8751,27.3663,-0.7722,-5.2833,0.82038,-2.908,30.9805,6.8336,
4.5669,18.9227,4.8498,5.7268,53.5968,-42.3693,35.5544,24.0371,0.96136,-10.51,0.53019,-2.4926,28.3986,6.6646,
2.1237,15.6182,-4.3593,-2.5705,52.5504,-41.0322,36.5546,21.8717,-7.0501,-17.3512,-5.0452,3.2006,27.8999,6.0237,
-0.41363,13.2351,-10.3645,-7.2368,47.4691,-42.9086,44.9664,21.5237,-10.4832,-19.2024,-7.1529,5.4189,30.0823,0.84182,
-4.2454,11.9588,-12.153,-6.8028,44.621,-52.8676,50.9453,21.1962,-11.7826,-20.4606,-5.7596,4.1297,26.8311,-1.1371,
-9.5343,10.0362,-14.5568,-12.4202,39.7746,-58.6134,57.7707,17.7555,-16.1369,-24.7761,-9.0295,7.4973,19.6779,1.1007,
-8.9623,14.2545,-8.3808,-11.675,34.0136,-62.8093,68.4045,20.0644,-12.7586,-27.1459,-7.5234,6.0832,18.015,-1.3759,
-6.9783,17.2556,-4.5035,-6.1537,38.2396,-73.1408,74.7848,25.1273,-7.1728,-20.2145,-0.80544,-0.54835,23.2009,-3.7035,
-6.3184,15.9793,-7.3665,-6.5077,41.971,-78.5138,82.1081,25.3069,-8.4294,-15.3865,-0.033985,-1.2386,22.05,-1.3119,
-5.4573,16.4666,-7.4069,-7.5635,46.2014,-70.9107,87.7866,23.3063,-11.78,-18.3197,-3.8883,2.6921,19.7627,0.69503,
-0.79134,13.5504,-3.5878,-10.4839,51.624,-67.1382,88.7862,24.8002,-10.5911,-18.1846,-2.6909,1.5665,21.4695,3.0632,
2.8711,11.0502,-4.0959,-12.0245,47.3213,-71.0639,87.5561,24.0351,-10.679,-14.9244,-2.2885,1.2315,20.9042,3.6028,
1.7347,12.7973,-9.153,-7.4464,34.841,-71.1386,87.6054,22.111,-9.5561,-13.5472,-5.0435,4.0499,16.2755,1.9401,
2.354,12.2709,-11.2545,-4.348,33.4739,-68.557,86.9288,24.882,-2.4748,-12.9749,-4.4999,3.566,14.0941,1.1008,
0.76651,8.6423,-16.3642,-13.7281,39.6604,-68.3002,71.59,20.0146,-7.6289,-18.9453,-6.64,5.7621,16.1408,-2.3392,
-10.6074,2.5802,-22.372,-25.6791,23.1808,-69.7456,53.5563,7.9677,-19.4635,-23.8339,-10.8212,9.9959,9.1465,-7.7427,
-14.0686,0.2562,-22.7167,-24.3791,7.69,-67.2481,52.512,6.7665,-19.9827,-24.0913,-10.895,10.6017,1.6081,-7.0369,
-8.6452,3.8558,-20.1489,-20.7477,21.3286,-62.9725,59.243,11.422,-15.6507,-30.6,-8.0722,7.314,8.0191,-8.7843,
-8.1262,3.1427,-12.6732,-18.0563,33.4257,-62.5683,64.8477,13.147,-9.4092,-26.8356,-2.7673,2.0547,13.3228,-8.739,
-10.531,1.9898,-9.9848,-13.1168,25.6354,-58.8142,61.9207,15.2502,-6.9163,-13.6561,-1.6372,0.96734,11.0771,-2.9122,
-11.3451,1.8707,-14.6877,-18.1141,26.0257,-56.2495,52.903,14.8176,-12.2861,-17.1753,-4.4313,3.8016,9.4484,-4.1835,
-13.7977,-0.89288,-16.4578,-18.7143,29.0436,-59.8642,53.8265,12.7235,-12.2716,-22.1701,-3.4423,2.8504,7.1945,-8.0301,
-14.6573,-3.4909,-14.7476,-11.0842,23.6854,-60.8521,56.14,11.2365,-6.9562,-18.6709,-0.5844,0.028019,1.7009,-3.9331,
-16.4292,-4.9682,-18.4418,-15.4801,18.6491,-59.852,52.0489,5.9832,-11.6003,-20.202,-1.7544,3.642,-0.57006,-2.9735,
-16.6485,-0.57273,-19.5047,-20.0951,22.1096,-57.466,46.7568,8.2756,-14.5195,-16.8205,-0.44407,10.4131,7.4181,-4.0006,
-13.9623,3.0768,-14.2371,-15.274,25.8445,-54.7411,48.0488,16.6969,-10.5153,-13.1602,-2.1047,3.7628,9.1422,-4.0016,
-5.6528,6.0255,-11.6956,-12.6703,29.8375,-48.3234,51.1914,19.7924,-9.161,-14.0578,-4.6295,3.2956,8.8344,-3.5205,
-5.796,4.2177,-16.2965,-17.6952,28.5289,-52.6548,44.7452,16.1943,-14.3964,-19.4813,-7.7262,6.4723,8.3041,-6.2018,
-8.3403,3.0005,-13.3905,-13.7409,28.2634,-58.6546,49.7735,20.5253,-9.1938,-16.3838,-1.478,0.29939,7.3239,-0.52704,
-5.4298,4.2668,-11.6232,-8.5782,27.0498,-57.0633,50.6437,20.2581,-8.1603,-12.0263,1.9851,-3.093,3.0283,4.3253,
-3.8987,2.3238,-16.9514,-15.0529,21.3294,-58.7012,41.0974,12.5349,-14.1781,-16.8483,-4.1595,3.1181,-3.6611,-2.9241,
-4.1469,2.6665,-15.9341,-18.0063,27.7627,-60.9634,42.006,13.2293,-13.3277,-19.2116,-3.9102,7.2696,-1.9949,-11.9075,
-4.1391,4.6754,-15.219,-19.0951,36.9427,-59.475,41.1726,13.1584,-16.1434,-20.7105,-0.54209,-0.63842,2.7041,-14.3265,
-1.4804,7.2874,-12.3779,-16.021,32.316,-57.8347,45.451,14.7793,-11.3182,-15.1293,0.93647,-2.0461,-1.3148,-6.2358,
-2.1147,8.0552,-10.4302,-11.4445,21.9412,-60.3904,44.8931,18.4716,-6.542,-14.4628,-3.6992,2.6561,-7.2615,-5.139,
0.90448,10.464,-12.6966,-11.722,23.0348,-56.767,41.7173,20.2556,-10.0056,-16.4873,-2.9951,3.4609,1.3689,-8.2049,
5.6707,10.3183,-9.0426,-11.9827,27.9195,-49.9865,46.9273,20.0043,-7.9593,-14.5339,1.5231,-2.5316,8.9998,-5.3022,
0.26901,8.0122,-11.6333,-11.9869,27.9315,-49.6386,42.4247,14.707,-7.7224,-15.3489,-0.25571,-0.69224,8.2186,-4.7429,
-5.05,5.1209,-17.202,-14.6424,22.8812,-52.4451,34.5763,13.3424,-10.1518,-14.9101,-1.6864,2.2411,3.8689,-4.941,
1.0378,6.2599,-7.493,-8.9429,25.8469,-51.2266,42.1429,18.3262,-4.2399,-11.6052,3.2353,-4.1596,9.4216,0.17644,
5.3139,8.2947,-2.7047,-3.1037,34.9011,-47.1887,47.3271,19.1553,1.7991,-7.0525,7.3795,-8.2484,19.4616,-0.31608,
0.41573,5.6276,-7.6041,-3.6408,34.0121,-46.5268,38.9439,17.2826,-3.8524,-7.8346,4.2856,-5.1024,11.7859,-4.8769,
-3.7066,1.675,-11.7271,-6.5554,25.4639,-48.7964,30.0998,13.5945,-11.0931,-13.3901,-1.5151,0.74738,6.0175,-3.379,
-5.4124,0.12799,-8.1314,-10.9828,20.0795,-50.6893,31.668,7.9582,-7.5355,-13.0686,-0.94229,4.5589,8.0666,-5.1044,
-6.2929,2.2895,-4.0281,-10.5648,19.1157,-51.2634,31.9371,9.6498,-7.8062,-10.5977,-1.1267,0.18804,4.9311,-9.8598,
-1.3356,8.1779,-5.4737,-4.8692,24.4767,-38.3054,30.744,17.9889,-9.0251,-6.8284,-0.81815,-0.064212,3.9123,-0.83211,
0.67251,8.1691,-10.93,-7.4698,23.49,-31.1868,31.3095,16.4274,-7.0376,-6.4184,1.6413,-2.4707,8.4981,3.5559,
2.8011,11.2944,-8.1048,-7.7447,25.2138,-30.0387,31.6001,16.6468,-7.8204,-4.3463,0.33775,-1.1174,14.4959,-0.75503,
1.6694,9.6527,-4.7263,-9.69,28.0396,-27.2721,28.258,15.1663,-11.6897,-4.5677,-4.0211,4.2521,10.7338,-1.6734,
0.36393,8.3506,-5.1656,-14.6522,26.1165,-25.8765,29.696,11.6052,-10.7469,-4.5342,1.7638,2.7921,15.1515,-0.36767,
3.4753,11.9469,-5.0969,-14.4962,30.0926,-27.4576,29.6013,10.6673,-9.3794,-7.3958,2.863,-3.8831,24.1241,-2.9974,
7.1234,12.6766,-5.2727,-12.6623,41.3027,-22.9177,26.3792,10.5099,-6.8882,-5.0237,1.2452,-1.2398,28.4619,-0.40719,
4.0447,10.7105,-8.0901,-14.5539,37.6193,-18.8915,19.2528,6.2636,-6.7161,-2.5533,3.8218,8.2344,26.513,-0.14156,
5.489,13.2011,-4.471,-14.4038,33.6751,-14.1426,22.6771,8.0572,-6.5539,-3.1232,4.3157,18.5863,25.6454,-0.8562,
7.3288,11.2037,-2.5159,-8.4779,32.3775,-16.4275,25.8958,9.2605,-8.3303,-6.0693,-1.005,14.8201,24.8295,-1.0463,
1.1048,7.1575,-4.7749,-2.1844,16.3349,-28.939,21.45,4.8487,-8.3122,-8.1151,-0.4625,-0.16915,15.6268,-3.3934,
0.074153,10.5845,-0.15008,-0.12514,2.4601,-25.7566,25.9476,6.9679,-1.0645,-4.7356,5.3498,-9.1975,10.3508,-5.118,
6.8184,13.3238,-1.1052,-3.4923,5.2045,-10.1112,24.8727,8.4783,-4.3753,-6.3799,-3.1661,-0.45076,11.1758,-4.8111,
6.8914,12.0422,-7.3056,-2.3187,8.2669,-0.94817,21.4523,7.9694,-7.969,-5.033,-3.9402,5.843,6.1672,1.2624,
-4.3681,6.2583,-11.4468,-4.3485,0.78103,-9.8091,14.1394,4.8399,-4.3576,-7.8643,0.39377,-3.9078,-8.3029,-1.4647,
-0.4908,11.4261,-5.2161,-3.3649,4.8315,-7.5336,12.086,7.2008,-2.8911,-8.1156,0.12895,-0.057665,-21.9047,-1.1356,
7.4924,12.4278,2.0863,-0.51146,6.2289,-4.9124,21.7247,7.4921,-5.8511,-7.3877,-0.11975,5.9713,-6.4904,2.0655,
5.838,9.513,6.5408,2.6523,7.5424,-8.715,26.447,4.391,-1.4027,-9.1136,2.0566,-2.3407,7.999,-2.1557,
5.488,14.727,10.0045,8.7599,9.9821,-9.6381,23.4141,9.9124,3.5024,-3.2644,3.3792,-7.0207,6.0726,-3.9544,
5.8814,18.4224,15.912,16.6702,-1.4631,-10.2651,30.9271,15.8254,2.0868,6.8137,1.4895,-4.9125,-3.2098,-0.10191,
7.6979,17.5583,17.6086,18.8032,-1.1343,-6.0338,38.4713,13.1884,2.6847,6.1637,0.67698,-3.8946,2.5264,-0.81893,
10.8516,17.2279,13.4188,11.1678,13.0337,-2.0561,32.5478,10.7101,4.2111,0.25045,2.8057,-5.8303,9.3649,-3.4207,
7.79,18.1224,8.2754,11.9435,14.7828,-4.8253,26.7386,11.0318,1.0659,1.6817,5.5295,-8.3726,4.4642,-0.80529,
4.9122,18.9631,11.635,19.4218,9.0751,-4.0538,31.8829,13.2617,3.4123,5.4369,9.5362,-12.2088,5.6424,5.9917,
8.7151,17.5845,16.4807,20.4259,10.2178,-0.67712,37.4417,20.9024,12.1254,7.762,10.1691,-12.6813,12.7759,9.2474,
10.3613,19.1806,12.3584,16.0669,19.0047,2.0148,33.0261,23.7456,10.1926,7.0554,7.3898,-9.7513,12.2503,8.9335,
2.75,16.8247,7.0374,9.0775,18.5876,2.6171,26.9472,15.8131,6.4478,5.427,7.6696,-9.8893,9.3464,5.2642,
-3.923,7.3791,0.1072,1.5426,9.0362,0.77259,18.3402,9.8027,3.4098,-2.8528,3.594,-5.6805,9.5085,-2.5234,
-1.2772,7.9009,-4.7197,2.4146,12.3506,-1.2017,16.2759,10.6605,-1.6153,-12.3224,0.48604,6.2297,10.384,-4.3,
-5.7799,5.2577,-2.7488,5.4032,15.7072,-8.6014,20.843,8.3341,-3.6875,-13.2703,2.1441,5.6149,8.5561,-7.1755,
-10.0126,-1.0838,1.5132,5.3197,13.5595,-12.6649,20.3153,8.0748,-2.2612,-11.7509,1.2923,-4.1222,6.8372,-8.4324,
-5.7964,0.66867,-0.26481,5.7239,15.8794,-4.9151,23.194,14.0983,1.008,-10.8049,0.97383,-1.2233,5.2222,-4.793,
-5.2077,7.1363,-2.4181,8.5135,19.024,3.3335,26.3819,16.3854,3.5986,-12.3258,3.0846,1.0193,3.7035,-1.8538,
-3.9309,8.1541,-2.7549,12.8234,20.7748,5.0617,28.6553,14.9204,5.3109,-11.5862,4.8277,-5.7908,0.58904,0.66753,
-4.6591,1.3984,-5,10.608,16.636,-0.062458,28.3823,12.0972,4.9924,-10.4089,3.5739,-5.9255,-10.5333,-1.7829,
-6.5492,4.9296,-5.4229,8.7662,19.2533,1.6285,24.028,12.5762,3.9695,-9.5434,1.6723,3.83,-10.1425,-3.3631,
-8.3254,7.285,-5.8209,7.9988,24.6056,9.0024,21.863,13.0264,3.4904,-10.658,3.2591,5.2874,0.34798,2.3823,
-8.3078,1.0635,-5.9536,8.0013,20.2372,8.4625,21.0336,11.7634,2.799,-9.5366,5.4737,-5.1527,-3.0471,6.5781,
-6.1219,0.75874,-1.4988,9.2086,20.228,8.6779,21.4588,10.8164,-0.9841,-3.9025,3.9402,-7.4949,-3.1053,1.6039,
0.27074,8.1848,6.5447,12.7532,32.2705,17.0748,27.1607,13.3007,-0.20238,-2.4637,4.427,-7.7683,8.409,0.78408,
5.7981,12.2732,7.3573,14.1572,36.8422,23.0402,24.8081,15.1537,0.050726,-3.5208,4.8842,-8.0251,14.4124,1.4604,
0.62974,3.8241,-0.31476,3.6666,29.329,21.6578,14.6426,9.9064,-6.701,-5.7199,-0.71123,-2.2412,8.7272,-4.894,
3.7254,1.9074,-2.465,1.7598,36.0052,22.5275,15.9334,6.1785,-8.4681,-6.0996,-0.42759,1.5087,4.5881,-0.98491,
12.1786,9.9879,0.57493,10.8128,47.9449,27.9247,16.4234,7.736,-4.5856,-4.7697,3.4544,-6.2946,5.7591,4.3768,
24.4635,22.404,11.6279,19.3233,59.1682,38.3006,21.2228,17.395,6.7766,3.2295,5.6575,-13.1475,8.7878,5.5607,
37.0957,34.075,15.7502,20.5738,69.7181,50.1025,24.7697,21.1718,9.2623,4.9636,0.4976,-15.2514,7.2962,-0.07581,
48.9699,44.323,12.1541,15.7244,79.635,61.1964,17.7401,15.8041,-0.69347,-3.2879,-5.5578,-22.2901,4.6893,-6.5792,
60.1317,55.7636,10.461,10.9246,88.9569,71.6246,9.9271,11.4814,-6.9184,-10.8034,-7.6345,-30.1115,8.7465,-12.9329,
70.6238,66.5178,18.7512,14.8486,97.7195,81.4271,13.4288,13.4438,-2.8881,-9.914,-6.4537,-21.3149,7.9809,-12.3981,
80.4864,76.6267,22.9285,16.3676,105.9563,90.6415,20.3361,12.155,-1.2683,-12.6939,-11.3689,-24.3748,-6.5979,-9.7258,
89.7572,81.3089,22.2762,21.4115,113.6989,96.4107,24.6595,12.631,-2.8794,-14.5833,-12.8559,-37.0123,-14.0355,-10.3476,
98.4718,85.8299,25.5189,27.1163,120.977,94.7234,30.1696,15.4886,-2.4657,-10.5748,-7.9872,-36.5993,-6.6857,-13.3421,
106.6635,82.1266,29.2906,25.9719,127.8184,83.7376,39.9288,16.0053,-2.3175,-6.5661,-6.5434,-28.6185,-8.6947,-13.9876,
114.3637,66.8347,21.9891,23.2078,134.2493,65.9387,40.6661,15.286,-6.2763,-9.3056,-13.6231,-37.7477,-13.7168,-13.3893,
113.6479,58.2451,22.3572,25.431,140.2943,55.4749,43.77,15.0919,-2.766,-5.6136,-11.1185,-41.5084,-10.7244,-13.3091,
98.875,55.4735,26.5592,26.0741,145.9767,51.9052,45.7231,11.5351,1.4971,-1.6616,-3.4615,-27.6899,-7.4299,-14.198,
78.8425,42.0222,15.8066,20.1713,151.3181,43.4884,37.677,9.3967,-0.038998,-5.9007,-0.36175,-18.3155,1.6928,-7.5611,
60.012,25.4008,1.3609,7.8738,148.9879,28.8278,25.7754,6.4228,-0.036658,-9.403,-2.2682,-21.0729,7.3758,-4.6973,
42.3113,10.4997,-0.16706,1.6168,125.9486,19.8673,25.193,3.1449,0.92987,-7.8745,-3.096,-17.8804,2.1128,-2.4873,
25.6726,4.0851,-4.013,-2.8185,104.2917,12.4088,28.02,-0.89971,-2.9823,-6.9201,-4.3565,-14.3972,-3.3164,2.4827,
10.0322,0.4658,-4.2543,3.1349,83.9342,13.5922,30.1952,6.8668,3.4629,3.1363,2.1716,-5.3387,6.5235,13.4207,
-4.6697,-6.3111,-0.1427,7.7676,64.7981,9.4024,25.4912,8.383,9.5221,4.8763,5.8977,3.1766,9.0244,12.1335,
-18.4895,-13.8859,4.9273,7.5427,46.8103,-5.2617,25.6489,4.7468,11.1202,4.343,10.6053,8.5296,4.8678,8.7542,
-31.4801,-17.1506,1.9806,4.921,29.9016,-16.3947,23.3869,2.2928,7.8014,5.7692,15.9945,13.5615,18.6757,11.3624,
-43.6913,-25.7623,-11.1539,-7.4256,14.0075,-19.2674,13.7887,-8.4498,2.9948,-0.36131,12.1426,14.1938,28.2805,4.4139,
-55.1699,-27.8319,-12.1719,-8.1854,-0.93291,-17.3882,13.6845,-10.112,4.9847,0.38327,13.1012,16.9576,20.0762,7.2821,
-65.9597,-31.7059,-15.0568,-9.3812,-14.9769,-27.1912,7.3198,-9.7465,-2.3045,-2.773,7.7356,19.0734,11.8819,3.712,
-76.1021,-32.4546,-12.9481,-11.4699,-28.1783,-30.6212,10.9782,-9.4027,-1.9248,-2.8476,5.5843,22.9907,14.7844,-2.0544,
-76.3564,-30.2666,-12.4124,-10.5405,-40.5876,-25.1687,15.381,-9.5616,2.7698,0.45654,8.8649,21.37,17.0306,2.1665,
-74.4264,-30.6195,-15.7652,-8.703,-52.2524,-25.8277,13.2531,-6.8185,5.2549,3.0805,10.5024,23.2215,14.3218,9.0261,
-71.4068,-34.085,-13.8552,-6.2524,-63.2172,-30.5446,14.868,-7.8559,4.9398,4.3417,6.9795,24.2381,14.9085,8.4848,
-72.4248,-34.9322,-16.8801,-10.6978,-73.5242,-27.2657,9.1557,-11.7227,-1.6233,1.1889,5.5971,20.8559,19.3164,3.1552,
-72.1769,-34.0413,-18.0366,-13.1896,-83.2127,-25.3887,3.5447,-8.3684,-1.7671,0.39442,11.7685,23.2197,18.8806,0.79651,
-67.8463,-35.3733,-14.5443,-7.5775,-92.32,-30.6143,1.4038,-8.3483,4.1235,2.2989,11.0624,26.6473,15.8195,-0.69754,
-69.0782,-38.0714,-16.0818,-6.6409,-100.8808,-33.1158,2.2836,-13.6319,3.3942,3.1253,8.9528,17.8176,13.906,2.2368,
-73.1284,-36.7512,-19.9374,-11.5449,-108.9279,-31.1291,4.0746,-15.7063,-1.63,4.3838,10.3436,12.8919,11.6257,4.0306,
-69.2224,-32.1358,-18.259,-7.9599,-110.8282,-29.2611,7.2046,-11.8716,-1.05,3.6387,7.7951,20.7953,11.4103,4.2709,
-58.0797,-30.931,-10.6559,-2.4211,-100.0813,-28.7107,16.1723,-6.0977,5.0385,5.5895,5.1577,17.3784,8.5565,8.112,
-50.4971,-26.4236,-6.4012,-3.4807,-87.5685,-24.3365,15.9253,-5.9728,4.4953,7.4237,5.5716,6.9357,12.1405,5.9381,
-53.7342,-26.2844,-9.3915,-10.0207,-81.8325,-23.8407,8.7028,-14.7734,-4.4516,-2.1807,2.8267,7.0015,14.3041,-1.6491,
-48.5822,-22.2972,-6.8996,-6.5272,-74.9943,-19.036,14.9293,-13.8873,-1.2922,-2.532,6.0318,13.8125,13.928,0.37831,
-43.0155,-18.3081,-9.6189,-6.3763,-62.5407,-9.4577,14.7567,-11.3666,-5.3118,-3.1032,4.9468,8.4042,13.8155,1.0787,
-38.2659,-15.5226,-7.8369,-8.6453,-48.4244,-4.311,17.0046,-10.4441,-4.7526,-2.1941,2.9628,0.91007,12.7456,3.6651,
-30.4261,-10.0113,1.0696,0.79173,-42.3852,-4.293,27.7949,-5.7194,5.8972,3.9633,5.4363,3.5068,9.3295,7.0609,
-29.3236,-9.6518,-1.1644,5.3233,-43.9397,-3.3126,27.332,-5.6176,3.3739,4.4486,8.7253,8.3578,4.1902,2.5396,
-28.7695,-11.7242,-3.2637,0.4246,-39.1344,-4.3191,22.0767,-6.4857,-0.92585,-1.3619,10.8529,4.2409,9.4824,0.21762,
-23.4275,-11.2615,-2.3445,-4.6626,-33.6528,-4.3007,18.5829,-6.8194,2.2632,-3.9313,6.5868,0.37107,19.7597,0.44599,
-21.7813,-15.1656,-12.0862,-11.8546,-33.803,0.53664,16.2629,-10.0257,-2.9343,-4.9007,-0.79832,1.5541,13.5125,-3.6786,
-20.9559,-10.8809,-17.6276,-14.5173,-18.2771,12.556,12.877,-9.9061,-9.9891,-6.5349,3.106,14.9587,12.7017,0.88091,
-24.0376,-10.7103,-19.4622,-21.3593,-10.432,4.5716,2.4632,-18.471,-13.2463,-8.5531,0.50925,20.8094,14.35,-2.5466,
-19.2204,-10.5496,-15.8839,-20.5597,-14.6263,-1.4871,9.0643,-19.2909,-9.0771,-5.1474,-3.3777,15.2225,14.9352,-6.2498,
-16.139,-6.5421,-16.859,-15.9516,-14.2309,11.1354,14.305,-12.8308,-12.3889,-6.7668,-1.2468,9.9708,14.0391,-3.4646,
-18.0634,-3.2578,-14.8839,-14.9948,-4.7002,18.662,9.1081,-8.2048,-9.7171,-5.3967,4.6128,12.7468,9.8221,5.4201,
-22.7642,-5.9544,-16.401,-18.4334,-3.4541,9.3476,5.6694,-10.1226,-6.724,-5.0729,1.9259,13.9102,9.2328,6.5412,
-20.6749,-3.428,-18.5504,-19.0146,-4.9341,8.0636,9.4266,-7.828,-6.0796,-3.0813,1.087,11.3883,19.5251,1.087,
-17.5063,-7.0787,-18.4012,-18.8376,-9.4583,10.9542,6.4508,-5.9121,-5.2324,-1.9325,7.7707,4.9205,17.8716,0.057923,
-17.1792,-10.7515,-17.5381,-16.0206,-11.5423,8.6095,-0.92608,-7.2446,-4.1955,-1.5756,7.5454,1.0098,14.6302,4.1518,
-17.5943,-8.178,-15.522,-16.0232,-9.4035,5.2009,4.4321,-8.2562,-2.9799,-2.4449,-1.102,-3.3891,18.0907,0.52824,
-17.5032,-7.6876,-10.2521,-17.4722,-9.3215,4.4067,8.9867,-7.7606,-4.7291,-4.7086,-2.9643,-1.2578,10.2566,-7.6984,
-12.8376,-4.5748,-7.9498,-11.8446,-5.6289,5.8293,2.4217,-7.5364,-8.5432,-4.1851,0.82894,0.5049,4.0976,-5.5493,
-12.0671,-2.3723,-9.4012,-4.3852,1.9396,6.4438,4.6868,-5.6377,-4.6559,0.88648,-1.1492,-6.756,7.2259,-1.3597,
-16.8867,-3.4348,-10.042,-1.9525,2.5466,2.9239,10.4313,-4.0941,-1.2431,0.59232,-4.2133,-6.1097,5.5875,-2.001,
-14.9096,-1.3005,-6.0654,0.092403,2.8755,3.2304,10.2874,-3.849,-0.20461,-3.7815,2.306,4.3798,2.8417,0.046787,
-4.3738,5.0443,-3.2912,6.3536,16.2006,8.8212,11.5983,-1.2077,2.218,-3.0729,5.5419,-0.22107,2.1895,0.52614,
8.663,12.6953,-3.3347,11.0341,29.3286,14.7996,19.3383,7.7829,5.2184,-5.5397,4.0045,-8.6439,3.263,-3.1208,
9.8303,10.7286,0.48107,6.7568,29.3765,14.6348,23.7217,9.0029,5.628,-18.4639,2.0768,-8.3665,0.89825,-8.477,
11.1689,15.3873,12.5035,18.4027,24.2397,20.0234,24.2265,11.8374,8.1831,-18.3197,6.7731,-5.4542,-1.566,-0.25582,
17.0062,22.9002,18.2608,31.0369,32.1853,27.7399,27.8346,19.5628,11.7894,-8.3029,9.9822,-1.5115,-5.0875,10.1239,
15.2632,18.8748,11.6218,21.2207,26.1566,24.3883,25.9234,19.5941,9.877,-11.4199,2.3931,2.6768,-8.8798,3.4907,
12.178,12.1985,11.6471,15.368,16.1513,20.2736,20.2704,15.2852,7.5969,-12.9041,1.0445,4.2032,-10.034,1.5938,
11.929,10.5025,17.215,22.1589,19.5206,20.9854,23.8746,13.8859,8.5871,-6.8275,9.6587,2.9869,-8.4679,13.0675,
8.8031,8.908,7.505,15.0443,14.9749,16.834,20.514,7.7501,1.323,-14.1306,3.2946,2.3257,-7.4779,8.909,
9.9624,12.9535,1.5118,7.1525,10.9434,16.5473,18.0783,8.0087,-1.4072,-18.3442,-3.4108,11.104,-6.3061,3.3135,
11.2924,12.6578,6.2414,12.5074,16.0711,16.5183,22.296,11.3841,2.5336,-13.3872,0.1683,10.9197,-9.3022,1.668,
7.964,7.3192,0.80543,11.5163,21.6148,15.7682,14.4505,5.6396,-1.2341,-16.6815,-1.0469,3.2749,-7.539,-1.5654,
2.9066,4.2288,-5.7506,1.4255,20.5591,16.5096,10.9324,1.2041,-4.2928,-18.8134,-2.1891,1.8733,-2.5071,0.216,
2.2501,4.4572,-2.0313,0.85782,19.8075,16.0009,17.9892,4.0242,-0.17911,-13.3465,-1.0937,3.6894,-1.8745,0.6852,
4.7664,3.9486,6.044,3.9391,25.6085,18.1739,21.007,7.8798,3.4468,-8.4486,2.1048,5.6369,-4.4134,0.40244,
6.8905,7.0861,10.0202,5.1495,25.0363,22.3863,21.675,10.2996,7.0964,-1.1928,8.2454,3.3705,-6.5587,10.0197,
9.6108,14.6149,12.5527,10.8663,26.1856,25.1407,24.4721,11.3691,5.466,-0.39763,7.9919,-1.8932,-3.0319,15.4443,
13.3725,14.22,12.7634,12.1425,29.9169,24.5962,29.7524,10.2045,-0.16459,-6.1588,3.656,0.14862,-4.7782,5.8406,
16.6675,9.7513,10.7923,8.28,30.2908,23.8433,26.2798,9.3513,0.085793,-6.5122,3.1952,3.7551,-11.4814,-0.053496,
18.5595,13.5046,11.1091,8.7476,32.33,26.7513,22.7751,10.7184,0.081104,-1.7831,5.896,1.1197,-5.0079,7.1806,
13.3488,15.3456,5.863,6.0538,31.1131,27.7975,24.0597,6.942,-6.9139,-2.8812,2.8909,-1.1169,-2.538,7.4729,
10.6195,14.4251,0.20837,0.38767,34.067,34.3246,21.1701,5.5614,-7.4631,-5.6006,-1.6211,11.9653,-5.76,9.4348,
8.7775,10.4261,-0.045101,-5.6611,31.782,35.8805,16.7666,7.3969,-0.025469,-5.0236,-0.31851,14.8633,-9.0298,11.5198,
4.8761,5.462,-1.0065,-8.2138,22.1623,27.4612,15.7606,6.4709,0.45822,-2.3118,0.18277,2.884,-22.588,3.598,
6.0296,10.9191,-5.2847,-4.8286,29.9914,25.3314,17.7073,3.1904,-3.4259,-2.1734,0.17157,6.5676,-35.3327,3.8639,
7.1141,11.2278,-4.9676,-8.3953,35.9047,26.7038,15.1986,-2.3037,-6.5948,-7.8275,-0.80259,12.922,-47.3128,6.5245,
8.8566,8.8672,1.8382,-7.1685,26.7608,28.7167,14.0457,-0.47802,-6.9222,-6.1528,0.93256,16.7262,-58.574,4.928,
8.3255,8.3349,1.7281,-5.7743,22.7448,27.4759,16.5774,2.9249,-6.0247,-0.48078,0.87684,18.133,-69.1596,3.6682,
4.4517,8.317,-5.6062,-10.2483,28.6112,22.9353,14.6187,-0.62483,-8.5551,-5.7544,0.34206,14.1527,-79.11,2.0021,
1.2919,8.3001,-10.0903,-11.0794,28.8224,20.5948,13.7415,-3.4796,-8.5239,-7.8194,1.7676,11.8575,-88.4634,3.328,
0.0092777,9.0072,-2.0133,-4.8713,23.4779,21.5285,20.3889,2.273,-2.4691,-0.36064,6.2415,9.4591,-97.2556,7.2259,
-1.1966,9.672,2.2049,-3.8561,28.5767,21.4417,16.5142,0.93086,-5.4545,-5.4007,7.0718,9.132,-105.5203,3.1769,
-0.88358,8.8505,-1.5426,-6.2756,36.7445,22.8067,15.2824,-2.2578,-6.3323,-9.6557,5.9244,15.5742,-113.289,-0.62887,
0.3745,7.1144,-2.6551,-6.6222,34.2986,22.1614,18.945,1.0109,-4.7473,-3.051,5.3277,11.0241,-120.5917,5.4342,
-0.13014,7.1697,-2.978,-13.4559,32.2405,20.8315,9.6133,-3.8707,-12.175,-5.7603,-0.29434,-0.72433,-127.4562,1.7339,
-0.1221,6.7393,-2.3171,-16.0228,32.2345,22.9561,9.0365,-7.9765,-9.5165,-11.1995,-0.75885,-0.6811,-133.9088,-6.5651,
-1.0789,7.299,-1.6964,-6.8665,28.372,22.0606,14.7608,-2.6774,-4.125,-8.1171,4.5891,0.32386,-139.9743,-2.315,
-2.4604,8.3074,0.33357,-4.5263,25.2234,18.3267,14.8393,-0.58906,-8.6982,-3.7737,2.3856,-3.552,-145.6758,2.1622,
-2.0718,7.568,2.4827,-3.5318,24.4334,17.4682,17.5644,-0.79469,-8.8992,-1.8601,-3.7831,-2.1335,-151.0353,-2.0649,
-0.74221,5.9086,4.021,3.67,28.511,19.0715,23.9823,3.8327,-1.8574,-1.9894,-0.42265,0.16363,-156.0732,-0.25375,
0.26642,4.59,6.672,6.342,26.8001,15.5168,27.3638,3.6025,1.6283,-1.8703,5.8695,-4.1847,-160.8088,6.0282,
1.4557,6.0018,5.5488,4.2748,18.6846,9.5246,23.5531,0.25337,-1.1205,-0.55233,-1.4721,-8.031,-165.2603,0.60531,
2.0913,6.847,2.5643,1.8487,15.8763,6.3016,18.0421,1.9254,-2.7405,-4.1351,-4.5177,-8.7544,-169.4446,-8.3491,
5.5812,5.7128,6.5083,1.4968,19.503,6.6466,21.5391,5.9072,2.0032,-4.6099,4.6714,-7.5058,-173.378,-5.679,
5.2464,3.4418,1.779,-1.0036,18.8148,4.8016,21.2108,2.6603,-1.4914,-1.4412,0.53472,-5.1273,-160.4447,-4.8563,
6.3778,4.6816,-4.5943,0.020919,19.6145,7.4057,18.9743,0.090526,-2.3658,2.984,-5.2819,4.8213,-145.5153,-2.6367,
8.1641,7.052,-4.0774,-3.1136,21.5709,8.6489,12.7742,-1.6019,-4.3932,-3.7027,-7.6164,9.5935,-127.8664,-0.79107,
2.3716,5.6646,-4.7971,-8.2294,16.9022,5.2374,13.454,-0.54192,-8.468,-5.4087,-6.195,5.1615,-109.1074,0.22026,
-0.42179,0.74541,-1.3758,-2.192,12.2727,-2.0665,20.6007,1.1778,-0.97001,3.3515,0.68414,-3.1019,-94.1248,-0.033922,
1.7727,-0.98654,1.8398,3.4831,14.6693,0.22644,18.6411,0.38379,4.1494,4.8376,2.3303,-2.6748,-74.3773,1.6549,
-0.020906,0.27794,0.52457,0.14062,11.6205,9.6131,18.246,0.60219,-0.19691,2.8601,-0.4606,-3.2373,-55.8147,2.7609,
6.7295,5.5637,2.9035,3.0249,13.8155,11.9286,24.3821,4.4227,0.779,2.6887,2.4593,-8.8278,-38.3658,-1.2609,
1.7462,4.0248,2.97,0.67405,15.6379,7.1155,16.8936,-0.90459,-2.401,-3.9803,-3.714,-7.0931,-21.9638,-6.2467,
1.159,3.3014,8.5764,1.1155,18.0736,12.9553,20.2183,2.0422,1.1175,-0.36703,-4.4555,2.0096,-6.546,6.1792,
15.1895,2.139,2.2772,1.5305,17.4712,16.0342,20.9334,3.8479,-0.87772,-0.34546,-3.2238,-2.9317,7.9467,9.1829,
28.3781,2.7338,-0.99269,-1.2122,15.2183,16.2774,17.0263,2.4119,-3.4764,-3.4575,-3.7535,-3.9609,21.5699,2.1242,
40.7754,5.7032,1.718,-3.309,15.0281,17.4699,14.7994,-0.86628,-3.9912,-3.4915,-6.6618,1.3385,34.3757,1.7558,
52.4289,4.8789,-0.79501,-2.1464,17.9826,13.5294,16.8037,-3.7066,-4.2334,-0.87166,-3.3698,-8.383,46.4132,4.5427,
63.3832,5.0681,4.0729,6.6595,23.1706,16.5741,25.9187,4.2286,5.6616,7.8577,7.9196,-8.362,57.7284,9.0904,
68.1366,0.42566,-3.4018,-0.97093,20.3341,15.5796,13.7585,-0.84539,-4.3191,0.15543,-2.1965,0.33444,61.0134,1.3146,
60.4327,3.5334,-6.8134,-10.3129,25.1394,14.8858,8.3532,-5.3746,-11.05,-3.4695,-5.198,2.9657,67.7162,0.030205,
49.3354,1.6342,-5.1997,-11.3814,20.9799,14.2336,12.4315,-5.7751,-7.2536,-0.61028,-1.2707,-5.166,74.9817,0.75175,
44.2059,0.81297,-1.2721,-6.119,17.0698,18.4413,12.8909,-1.331,-2.2388,2.0781,1.4569,-4.1329,76.9905,4.3218,
44.2049,2.9336,-3.8471,-6.475,21.107,19.9861,13.8045,-0.52799,-0.89943,3.1585,1.1283,-6.0543,74.5402,5.2676,
38.9015,4.9267,-5.7854,-7.7732,20.082,19.9923,13.2174,-2.6655,-2.0503,6.1025,-3.0368,-7.8602,68.863,2.3004,
32.7108,2.2208,-0.13587,-4.4145,13.0923,18.3103,11.4603,0.38675,0.48262,8.6282,-4.3006,-1.1219,71.9618,1.6803,
29.7843,-0.3226,-3.0198,-5.5959,19.0557,13.3556,9.3266,0.84548,1.8999,3.2902,-1.6325,-1.0545,81.6236,-0.83069,
28.9611,4.0351,-11.9976,-13.4549,26.589,16.4106,3.4644,-5.4718,-3.9987,-2.6918,-5.8728,-5.812,80.5826,-4.6372,
33.008,7.1674,-10.3134,-15.5401,24.0298,22.6566,4.7025,-8.036,-2.7944,0.36179,-8.8949,-4.4989,77.6758,-0.98455,
28.1352,5.7733,-11.1407,-16.5357,20.1776,15.0307,1.0462,-7.0717,-6.4834,-1.5879,-7.3971,-8.5676,82.6565,-4.2997,
19.2167,9.2833,-9.9903,-13.1334,20.8952,14.611,-1.4267,-8.0936,-7.0582,-1.9745,-6.9533,-11.9099,79.1431,-7.4162,
15.171,8.2441,-6.0167,-9.4531,17.7135,24.3392,-1.3414,-10.9822,-2.7786,1.5182,-9.9103,-8.303,69.0919,-5.0432,
13.0554,5.0984,-10.2354,-8.163,19.3018,35.1711,-5.3585,3.7767,-4.781,1.668,-6.6646,0.63085,79.0464,-2.0895,
2.1494,-0.028016,-18.2981,-12.9757,16.2152,34.0249,-11.7856,17.6501,-13.653,-6.627,-7.7108,-6.6376,84.065,-8.2305,
0.5742,3.8301,-8.5236,-4.4843,15.7243,43.5526,-10.5966,30.6911,-6.0853,0.037146,-4.838,-12.9883,76.1286,-9.1829,
-4.2805,2.154,-3.6734,0.60543,9.9606,54.9192,-12.8528,41.2626,1.993,4.8556,-3.1014,-17.0292,75.4177,-8.15,
-3.7827,0.81992,-2.2477,6.1127,6.7118,65.3624,-7.02,24.6869,4.5245,-0.014995,-2.6744,-17.2123,81.257,-5.4914,
1.0235,5.35,-1.3895,10.3252,13.7809,75.5406,-7.3219,9.1057,1.602,-4.5934,-6.1293,-19.313,86.2635,-8.2954,
-0.0019662,4.5468,-1.7883,8.2597,20.6666,85.1082,-14.1134,-5.5407,0.059354,0.020311,-5.2794,-21.0466,85.9082,-8.2798,
0.23912,2.1049,4.8265,14.2716,16.2936,94.1017,-11.5794,-19.3082,6.0813,7.009,-2.7935,-13.7582,83.4048,5.9558,
2.1532,1.0145,12.7318,22.0926,10.0136,102.5556,-7.028,-32.2497,12.4656,10.927,-1.6618,-11.9686,80.8109,9.4546,
-0.62755,-1.2155,15.1009,21.0076,5.3149,110.5023,-9.7401,-44.4148,10.03,11.9581,-0.35679,-19.2042,74.275,1.8974,
0.133,1.0265,16.8464,23.3625,5.237,117.9721,-14.2173,-46.5708,9.1872,5.2151,-1.5407,-16.8472,72.9515,4.4347,
3.4997,0.48279,20.1742,23.4073,6.3693,124.9938,-6.6154,-48.1149,14.9027,0.5641,-2.4123,-13.426,72.431,4.6508,
4.0126,1.1772,23.0611,27.0641,5.7457,131.5942,1.7355,-43.0588,12.3213,10.8941,-1.5447,-14.3076,66.3979,1.2387,
3.7719,2.5528,21.1955,34.1173,3.473,137.7985,2.1135,-39.029,6.7618,14.0969,-3.8621,-11.521,60.4859,0.68243,
3.3048,2.1584,18.2363,36.1679,-2.279,140.4971,5.6019,-40.3027,12.8638,9.1535,-2.4253,-9.1425,60.9543,1.3642,
-0.50935,2.2699,15.4549,35.2026,-9.1324,128.9338,9.8451,-39.572,12.8149,9.3272,-2.5208,-13.1737,57.538,0.55894,
-2.8885,2.6156,16.9382,35.5011,-12.4406,119.752,16.9674,-32.377,8.1896,13.1063,-4.2977,-10.9368,50.7113,1.4897,
-5.6079,-0.43358,19.2961,34.3351,-16.5146,111.1208,17.3956,-30.4344,8.6623,10.8739,-2.5938,-2.5678,45.2585,0.43625,
-11.297,-6.9153,10.6666,22.875,-14.8006,93.6073,6.9519,-35.116,6.4553,1.7853,-4.6074,-4.1007,50.9789,-0.79476,
-18.0907,-15.9004,-1.7838,7.4025,-10.2972,73.8909,1.9552,-36.1423,-2.8498,-6.7577,-11.3206,-15.1831,54.9098,-4.8447,
-17.0055,-11.0897,1.6975,10.2121,-7.2692,65.4803,8.5866,-28.1892,-6.053,-2.9775,-9.6772,-13.308,50.6511,-5.5181,
-15.5033,-12.3525,2.5599,9.117,-5.387,50.9467,10.9637,-24.5696,-5.6903,-1.835,-9.0966,-9.1351,47.612,-4.2231,
-17.2242,-21.4938,-8.4399,-1.7939,-0.96645,33.7899,4.2801,-26.7109,-7.5181,-9.1967,-16.0226,-15.5769,53.191,-8.549,
-15.2266,-19.722,-8.8976,-2.1685,0.055632,21.5186,-0.79719,-24.6261,-9.9593,-10.5734,-11.687,-14.1601,59.6407,-11.4103,
-19.8566,-19.7435,-7.1585,-5.6538,-7.4191,8.8993,-4.8467,-26.2818,-13.4591,-11.1438,-8.3343,-6.3206,52.9292,-13.3772,
-21.3163,-16.3897,-9.3801,-9.8938,-6.7329,-2.9628,-1.4224,-23.0176,-13.3744,-10.7161,-10.4858,-1.844,50.4764,-8.9592,
-20.2785,-13.2374,-12.9148,-11.9515,-11.3909,-12.6672,3.7244,-18.5035,-12.8132,-9.35,-10.0978,-0.52832,44.7965,-4.324,
-21.4722,-16.7817,-13.5864,-13.6448,-9.2609,-24.4404,1.0906,-16.4292,-14.4547,-8.7893,-8.5278,1.9137,40.1803,-8.4032,
-20.907,-17.4618,-14.9402,-15.9594,5.3947,-37.074,-2.5901,-15.6842,-16.7207,-9.9489,-13.5596,4.9322,48.6159,-13.4424,
-12.6627,-6.5322,-1.2693,-3.6736,17.4836,-43.8877,11.6653,-1.0048,-1.9791,1.0119,-1.4178,7.7693,57.5091,0.62058,
-12.3849,-4.694,4.591,1.849,10.1681,-54.7522,18.3165,8.2143,4.4061,3.3613,9.7545,0.55467,54.5405,7.8137,
-16.2213,-6.5817,-2.1922,-1.8771,12.6912,-62.7951,12.1561,6.9985,-0.4373,1.9546,6.5179,3.1727,54.4013,5.6579,
-18.3813,-5.9456,-4.2296,-1.5233,14.5811,-68.4271,16.9703,7.3017,-1.1342,4.4891,1.0654,8.0438,54.7529,3.6314,
-12.9401,-0.76818,3.737,4.8346,12.7423,-73.4808,20.2904,16.0224,3.2722,4.7017,3.4116,5.151,56.7704,-1.4072,
-12.8868,-1.4452,5.1997,3.3395,9.326,-80.4003,18.3499,20.1225,5.2452,2.2502,7.3045,0.7444,54.0868,-6.8661,
-18.1391,-8.8303,-4.0299,-4.8146,4.1872,-85.9402,9.7773,11.9258,-2.0593,0.90988,3.2508,4.3152,43.3703,-4.7669,
-16.5686,-10.7104,-10.5367,-10.792,1.0441,-83.1939,1.96,6.3897,-10.6122,-1.5546,-3.6929,10.8049,35.4656,-0.6243,
-9.7899,-0.42726,-3.638,-5.3243,2.9092,-70.0076,10.5191,16.6112,-3.227,2.877,-2.5075,9.1928,39.6042,4.2334,
-13.2999,1.7675,-1.7325,-0.42553,-2.809,-67.4943,19.7701,21.1581,4.4384,4.8735,2.2227,4.0614,40.361,5.6666,
-17.3224,-6.533,-3.5565,-1.846,-13.2453,-75.4958,22.9224,16.0325,4.1719,6.5095,5.4636,0.44354,34.0832,4.3625,
-11.4625,-4.695,0.031084,4.0495,-8.5942,-72.8942,23.4753,15.0705,5.85,12.3857,2.2435,3.3092,28.1816,3.6186,
-12.9442,-3.6902,0.27041,5.4936,3.2499,-67.7974,18.4514,16.3355,5.2578,8.0269,-1.0244,6.2439,26.2499,1.7145,
-17.4702,-8.2895,-0.71014,-1.103,-1.2839,-69.5144,18.3081,17.7655,3.0141,3.6889,3.3754,1.531,22.2643,-1.7628,
-10.8784,-3.2123,-0.42656,0.16846,-2.8941,-65.1023,21.3072,20.3149,3.5566,6.6011,6.7883,-2.1763,8.1545,0.030184,
-5.1644,0.11342,-2.0882,1.8456,6.6796,-59.0273,21.2336,19.337,3.1018,4.5173,4.2118,0.12342,-3.6634,4.6077,
-12.5671,-2.3037,-3.8913,-5.4958,5.3147,-58.3779,13.2112,12.8744,-5.2792,-2.02,1.0668,3.0083,5.7156,-0.48928,
-16.6336,-0.71948,-6.5501,-9.5046,1.1392,-55.8393,10.0081,8.7272,-9.301,-1.899,0.038715,3.7919,19.4727,-3.3522,
-12.0201,1.0114,-3.0236,-3.3907,9.0251,-54.176,20.2541,6.9988,-2.235,-0.5798,1.7236,1.8772,27.1019,2.8749,
-7.9242,4.3249,1.9783,4.0434,15.2322,-49.9613,23.8594,10.9174,4.6478,0.90102,2.5843,0.80044,30.2963,4.6304,
-4.557,5.9934,1.3774,3.3186,10.9441,-42.6253,18.5712,12.1903,2.9229,5.6674,0.98321,2.1984,33.299,-0.46792,
3.1887,7.321,5.8745,3.3609,10.5284,-38.3806,23.4827,10.2538,3.4704,7.0146,2.1291,0.8617,27.6856,-0.19887,
6.6126,10.9793,8.6553,4.3643,14.9581,-38.2469,30.9916,8.9157,5.9135,2.9786,2.7244,-4.2515,20.4807,4.3926,
2.3595,12.7307,3.3153,0.24607,12.6144,-37.3983,27.2039,9.8268,5.0767,5.21,3.5253,-4.4788,18.7699,2.2008,
2.6996,11.9671,-3.6323,-3.1434,9.9291,-33.2263,16.8946,4.8989,-1.9765,3.4513,3.3136,-0.35341,25.3562,-3.716,
6.1533,11.4898,-2.2089,-6.088,11.5028,-29.0633,17.5681,0.50735,-2.5811,-2.7815,2.874,-2.5016,27.4505,-5.1801,
5.5429,11.0416,-0.38934,-7.4097,10.5719,-27.5607,17.7193,2.1644,-0.25682,1.001,2.4604,-0.18211,19.7777,-3.6642,
-2.7434,2.9073,-9.766,-12.5088,1.0195,-33.3789,5.328,-2.5452,-8.1956,-2.1925,-3.2309,5.8544,7.7452,-7.5417,
-5.7121,-0.40039,-7.0111,-9.1069,-5.0675,-33.5453,10.5517,-1.1875,-5.0525,-5.1942,0.57817,1.8879,8.9675,-5.8841,
-5.6103,3.239,-1.5287,-3.0169,-2.1119,-28.3993,17.8725,3.4635,-1.134,-1.2672,3.677,-1.3589,20.2396,-1.9157,
-7.4431,1.8396,-5.0522,-9.3436,-4.6365,-24.044,8.8462,1.5683,-8.0556,3.3879,-0.64123,2.8203,18.7845,-3.9701,
-5.55,-1.163,-9.0876,-14.5678,-7.7325,-24.0474,6.8694,-2.382,-10.4645,-0.18957,-2.5307,4.579,9.4625,-5.1779,
-7.3866,-1.3342,-12.6397,-12.4884,-2.2073,-26.7019,8.6266,-5.8545,-9.5957,-6.2037,-2.1379,4.0633,15.8846,-6.0726,
-10.5586,0.43284,-12.6045,-11.4979,0.57642,-23.4126,4.9758,-2.8519,-8.2968,-2.2159,1.1236,0.68625,24.3313,-5.9489,
-7.0328,2.8172,-7.5097,-9.362,-0.9042,-17.1876,6.6052,2.1397,-8.7631,2.2552,2.0203,-0.31902,20.4611,-2.2178,
-11.1904,-3.3776,-10.1923,-13.8617,-7.3577,-20.7356,10.7884,-3.5325,-5.586,-1.4953,-1.2342,2.8334,15.1363,-6.6642,
-14.6161,-6.7901,-13.1964,-18.5739,-8.1213,-22.1428,6.0437,-8.864,-2.1176,-6.4671,-5.7396,7.2429,14.9512,-7.4694,
-10.1242,0.12477,-11.1994,-18.6647,1.766,-9.9682,-0.82659,-6.6449,-12.3544,-8.2487,-5.6362,7.0493,14.7771,5.2708,
-11.9268,-0.84659,-10.0455,-18.9907,3.5882,-3.5853,5.4898,-3.8361,-14.9876,-5.3431,-2.8879,6.6263,14.8543,10.7396,
-16.5136,-5.6163,-10.4068,-15.9233,-3.8581,-10.601,9.9808,-4.57,-5.4115,-4.5404,-4.1607,5.2646,11.5531,-0.51032,
-8.5332,3.6385,-6.6492,-7.9782,4.8093,-8.278,12.5153,2.6938,-1.4716,-1.1347,-0.77779,1.8155,14.9571,-3.131,
-5.852,7.5176,-6.0093,-6.2942,8.1361,-2.2377,13.4516,7.5939,-4.5163,2.5488,2.8843,-1.9088,17.6751,1.6366,
-9.5985,2.9689,-2.9974,-6.6397,1.1403,-5.2367,10.4751,2.0768,-4.4865,2.1547,1.9881,-1.0712,15.4095,-4.4874,
-9.9869,2.3089,1.5208,-5.7594,3.482,-8.2969,12.2567,2.9161,-2.2891,-1.3491,1.3869,-0.52497,6.2898,-7.1107,
-5.7718,8.1959,1.671,-3.2442,5.9246,-7.0757,14.655,7.8028,0.49975,1.3834,3.4728,-2.6626,2.7794,-0.65802,
-7.113,6.4991,-0.11675,-6.1833,-1.4205,-7.8565,8.2319,3.237,-2.6639,4.4337,2.0594,-1.2978,14.9049,1.5504,
-14.399,0.80648,-3.4842,-11.1149,-10.0124,-6.9032,7.2558,0.15029,-7.3248,-0.65305,-3.8487,4.5646,17.867,-1.9171,
-12.3297,5.8198,-4.48,-9.7247,-5.3143,1.9472,6.5797,4.2391,-3.2695,-3.7469,-4.8231,5.4961,9.8051,-3.4888,
-10.3849,5.7113,-3.488,-10.8286,-2.826,5.4455,2.0873,0.36909,0.5419,-2.317,-0.43614,1.0687,7.5298,-6.4132,
-17.7158,-0.17474,-7.3763,-13.3117,-10.1281,0.5395,1.7211,-4.2321,-4.5521,-2.9011,0.31316,3.6559,10.2113,-7.233,
-17.3757,3.4512,-3.8003,-5.5236,-11.2076,3.1585,8.6077,6.3857,-1.1455,-0.5579,1.0173,14.7647,9.8395,1.6366,
-15.1281,2.521,1.4892,-2.0589,-10.2944,0.31739,7.8501,8.6539,2.5385,-0.76562,-0.24883,7.3711,3.7058,-1.5948,
-16.1486,3.816,-1.9742,-2.4169,-5.8199,-1.1475,3.0408,4.2782,-3.3984,-1.2016,1.6943,4.0368,8.7861,-2.463,
-18.3132,7.2024,-4.5073,-0.10316,-5.7121,1.0903,7.9198,7.637,-3.4355,0.5577,3.7618,11.7484,12.3563,7.5663,
-15.045,8.4573,5.6449,7.857,-1.7542,1.2659,18.2906,15.6147,7.6167,6.0676,8.5975,2.6075,12.82,10.7279,
-9.0806,10.119,13.2604,16.3036,7.2691,6.7335,21.7727,19.739,12.2214,13.1754,11.6971,-2.1287,15.1843,14.1816,
-10.9464,4.6916,8.126,12.4329,0.084517,3.9194,20.4663,16.1445,7.6317,13.3492,4.7288,-0.55467,3.186,11.8845,
-8.1202,8.9892,9.3254,13.8559,0.80212,3.443,22.8535,18.791,9.3427,11.8251,1.7937,-4.619,-0.62084,6.1099,
-11.0072,12.3064,8.2842,12.5428,5.0925,5.6468,21.9645,14.7713,6.8542,9.6696,0.722,-15.4288,-0.58336,2.3691,
-13.4803,7.9526,5.618,10.103,4.546,6.5131,25.2261,10.2701,5.7196,12.7048,0.43771,-14.7441,-0.30739,7.2882,
-11.7071,4.5834,6.7272,10.4612,2.3451,3.7122,25.641,14.9565,9.7152,14.8346,1.8577,-10.003,0.67538,7.3333,
-11.4869,4.3082,7.7696,10.3152,-1.6518,2.5251,24.1023,16.469,11.5422,13.9447,3.1923,-6.0286,-6.1143,2.0728,
-9.8335,5.4962,4.893,10.1784,0.37528,6.2302,20.728,10.6604,7.9573,11.6616,0.59038,-2.2922,-12.0142,5.8046,
-6.3512,2.756,2.6715,6.6754,6.1376,3.4463,17.0742,6.1646,3.6238,9.5158,-1.8549,-5.047,-6.9543,4.4922,
-6.4521,3.0726,6.8495,7.2392,5.2869,1.7932,16.5316,7.2405,3.8883,9.4268,-0.29784,-0.40585,-2.6811,-2.5258,
-9.9218,2.8883,3.0641,6.3225,-3.7069,2.6495,14.0937,5.3598,0.76245,6.4511,-2.6901,3.9568,-9.7511,-0.44648,
-5.4699,4.6429,1.4342,6.4253,-1.5566,1.5264,18.5505,11.305,4.0914,8.4744,1.3275,-1.1011,-12.0583,9.2215,
-4.9005,3.1593,2.0713,5.3167,-0.74003,-3.1447,18.6425,13.278,0.71264,7.7247,1.9709,-0.79381,-9.1654,1.6786,
-7.258,0.80057,5.5624,3.7928,-5.2749,-2.2329,17.2833,6.4558,-3.9099,6.0564,-1.7627,2.3868,-13.1948,-4.9296,
-2.725,5.3321,8.8439,7.6624,1.5493,2.9628,22.2718,8.7198,0.42231,9.7901,-3.344,-6.1923,-17.4646,3.8021,
-2.8024,6.6994,-2.5326,5.5159,3.6255,3.0262,16.8381,9.4019,-2.2541,5.5878,-6.7587,-11.3639,-20.0321,-1.4877,
0.258,4.8514,-3.3452,2.2922,-0.44865,4.7726,16.792,7.3913,1.7373,3.806,-2.0147,2.3331,-13.0458,-5.737,
-1.4447,1.9092,3.3635,0.46788,-1.1446,4.7275,15.5435,3.3328,1.874,1.4085,-2.1348,2.916,-3.345,-4.6694,
-1.1171,5.4096,9.6692,6.9473,7.8421,9.5053,16.78,8.676,2.9669,3.9751,-2.2476,0.57193,0.95305,-0.29193,
-1.7729,0.98767,2.5815,4.8432,6.6482,5.8017,18.4245,9.3607,3.0298,3.4956,-0.42555,-0.18529,-7.0579,-2.4436,
-3.1128,-1.9636,-5.2861,-0.75002,6.7317,2.5613,13.9446,3.9788,0.4379,1.3577,5.3846,4.1641,0.59644,-3.2613,
-4.1313,-0.1586,-4.728,0.01834,10.4252,5.5409,14.313,2.5348,1.6165,3.4454,6.7487,3.1914,2.7298,-2.3427,
-4.1242,0.091649,-1.3111,5.0787,5.7021,3.5212,19.48,4.0697,4.1708,7.3362,-0.64631,-3.0259,-11.534,-1.479,
-4.1179,1.2912,1.4189,8.3892,1.2624,-3.198,20.9623,6.4769,5.6075,9.5474,-0.36634,-0.19299,-15.5419,1.2611,
-7.0044,-0.95542,0.61043,1.8603,-0.98253,-4.2112,17.0532,4.883,-2.6826,3.4309,-0.10339,1.9878,-15.3328,-1.9481,
-1.7631,5.8506,-1.3542,1.2665,4.8612,10.1415,16.5122,7.9647,-4.9316,3.2253,-4.4357,2.3507,-15.8588,-1.3491,
-3.5858,5.9817,-7.5397,-0.25554,-5.0716,23.633,14.5571,7.0046,-1.2615,3.0316,-8.9901,1.7274,-17.3177,-1.2683,
-9.6374,2.7305,-8.0514,-1.2043,-18.8673,28.2406,12.7196,6.1022,1.2241,3.8138,-6.0403,6.9262,-15.7964,1.7001,
-7.6129,4.0129,-6.122,-2.5783,-24.3635,35.7052,8.5822,8.6286,-2.7053,2.1387,-3.2678,12.7776,-16.2949,7.3831,
-5.4689,4.0131,-1.6574,-0.25444,-33.7477,41.517,9.2726,11.2443,-1.82,1.7694,-1.8664,13.2158,-19.8965,11.0375,
-11.8897,1.8442,-2.5218,4.0996,-41.846,36.1335,9.1982,11.5336,2.1455,3.1095,-3.2007,11.9409,-21.5952,7.4831,
-14.5505,2.2157,-10.5654,1.4433,-33.5506,28.6631,10.5745,8.9136,-1.8393,2.9227,-5.9009,16.0449,-22.7094,5.5877,
-6.9288,3.5288,-11.8599,-1.0537,-22.3786,27.4255,11.8682,7.8966,-5.5856,1.3013,-4.5828,23.2772,-23.2753,12.0011,
-2.1747,3.317,-4.8818,-0.50853,-21.0359,30.1182,9.2279,11.7611,-4.2866,0.74128,-0.45143,17.5418,-18.5043,13.2092,
-8.5517,3.8409,-1.4554,-0.71898,-24.8354,25.6596,7.4692,11.7784,-1.3778,0.45584,-2.1116,3.7153,-20.0456,1.5704,
-10.69,4.3336,-4.0194,3.4217,-21.1759,19.0586,8.7082,8.9027,-3.9465,-0.29464,-6.5644,10.9639,-26.7964,-3.5853,
-7.1563,0.21741,-4.7423,3.6986,-15.0848,19.3615,15.4164,12.2247,-4.6738,2.1334,-5.2064,24.4061,-23.2606,5.3067,
-7.691,-2.6879,-5.9038,-3.272,-17.072,21.5741,12.0812,9.5633,-5.8394,3.9334,-3.9299,35.3545,-17.5264,4.5066,
-7.4703,3.4987,-4.8265,-4.2807,-13.3964,20.0384,4.3667,2.9637,-8.6223,0.082161,-4.4168,19.1332,-20.572,-1.7896,
-5.817,3.5299,-2.3675,-3.3008,0.66378,16.1853,8.2023,2.0632,-4.4898,-0.16396,-2.9467,8.465,-20.0608,-2.8873,
-3.781,2.1131,-2.4666,-1.8981,4.2391,15.9368,11.8073,4.5903,-1.5691,1.0509,-2.5292,21.6956,-18.1345,0.41924,
-1.385,7.048,-1.5953,2.3136,-0.11233,19.5604,11.3401,5.5202,-0.75156,0.26498,-3.1004,24.9732,-26.9283,5.9377,
-4.1939,5.1788,-2.9458,0.24658,-3.48,15.9762,10.6594,4.2246,3.1495,2.6592,-0.98614,9.3748,-31.0972,5.0995,
-6.1117,-1.1577,-5.9023,-3.8658,-1.1021,10.4385,7.3688,1.3203,2.2378,3.2228,0.27809,5.7998,-22.7237,-1.2322,
-4.7809,-0.12411,-2.6564,-2.6698,4.2665,8.3657,9.8189,1.7228,-0.3068,2.5473,1.2255,17.5026,-22.3244,-1.6405,
-10.5196,2.0525,-8.0406,-6.6069,2.8056,2.8021,6.0963,-1.0317,-3.4219,-0.25667,1.3929,4.6424,-34.7232,-3.2293,
-10.853,4.3397,-10.4504,-8.6209,3.119,5.5263,5.2484,0.95817,-3.2168,-1.2054,2.2735,-4.7954,-36.0145,-1.1071,
-4.6577,6.2485,1.0228,-1.1137,4.6191,15.0771,14.3337,7.8906,1.074,0.55418,0.44983,7.7848,-35.0585,5.4668,
-2.691,7.5608,1.6848,2.0861,6.5116,14.8954,14.6787,9.5863,4.625,0.7619,-0.30006,7.0767,-41.873,3.452,
-4.9401,5.6609,-6.1295,-0.93112,6.1204,7.2527,12.3517,8.0468,2.9012,-1.212,2.1281,-4.917,-43.217,-3.0221,
-2.2331,6.2856,-1.4229,1.0529,7.6818,5.8537,13.5391,10.4565,-3.0574,-4.0314,-0.40974,-6.0678,-39.1777,-5.2509,
2.9625,10.0058,4.688,5.0871,12.7645,13.4567,15.8602,9.5881,-1.6687,-0.65644,-0.14419,1.7681,-35.6218,-5.6587,
-1.3128,5.3079,0.79151,0.68431,8.865,9.5156,13.2211,2.9871,-1.3278,1.0699,0.10565,0.45647,-34.69,-8.9348,
-2.1984,6.9176,-1.1846,-1.2849,9.7793,4.6063,11.4638,5.7004,-0.76621,2.452,-1.8293,5.2493,-29.7161,-2.6142,
-3.7537,7.2259,-7.1386,-4.8228,11.3617,1.6788,10.535,6.0812,-1.9251,1.582,-0.99622,10.9604,-32.0305,-1.252,
-8.5899,2.6947,-10.326,-4.7746,5.6186,-1.5556,10.1439,2.5831,-7.3534,2.2102,0.26862,10.544,-33.2419,-5.7564,
-9.7615,-0.11826,-8.019,-1.8368,-0.74387,-1.2211,8.8123,5.0794,-8.5992,2.3188,-3.3627,8.2243,-24.2577,-2.2778,
-5.8018,-0.11117,-6.574,-3.6553,4.603,1.2623,11.6576,4.7747,-1.8167,1.6973,-3.1614,4.8379,-14.6076,2.6791,
-3.7667,3.0288,-10.2771,-5.6049,16.6191,4.3198,11.1993,1.3549,-0.50267,1.3542,2.0902,11.5373,-7.7058,2.7596,
-9.0841,2.1239,-8.9373,-7.438,16.827,0.44545,9.8045,1.9968,-4.5696,-0.41402,2.6879,10.6043,-8.9305,1.8709,
-8.5391,1.0326,-0.2064,-4.0992,10.9971,-0.54537,16.4468,4.769,-1.8853,-0.87112,1.5623,-4.132,-11.2867,-1.6154,
-0.79588,1.4526,-2.1222,0.0031521,14.1937,5.7541,18.3523,1.5908,-1.2903,0.14502,1.4686,-17.9841,-0.0046486,-4.411,
-3.1583,0.88349,-7.7795,-3.8534,22.0187,6.8546,13.3948,-1.8791,-1.2129,-1.3099,1.3805,-2.805,6.2626,-0.28991,
-9.4765,2.5175,-8.0358,-9.1661,25.7595,3.792,8.9757,-0.079332,-1.3813,-6.7747,1.0569,3.5093,-3.5134,-2.4419,
-8.6669,4.0537,-8.2766,-11.2672,23.0086,7.1799,10.6063,0.16639,-3.9495,-7.0916,2.1983,-6.1012,-6.4361,-12.1773,
-4.2907,5.7384,-6.8159,-8.1808,20.664,17.3542,10.4521,0.15664,-5.1586,-2.3276,1.1023,-5.7349,3.1094,-6.1443,
-3.5509,8.2866,-5.4426,-2.3873,19.4242,19.2055,8.3789,5.9318,-4.849,-0.25925,-3.7841,2.8043,0.99461,8.2041,
-5.0253,6.5844,-6.3216,-2.0033,13.6792,9.6172,11.9735,8.2272,-3.353,0.96137,-2.352,-1.4615,-7.501,6.5068,
-3.0366,7.8765,-7.1471,-4.5342,16.9558,10.2455,10.05,3.1543,-3.3928,1.1447,3.8147,0.3134,-1.9892,-0.39153,
-3.8187,8.3678,-6.2363,-6.1908,19.7948,14.451,8.0006,3.4465,-2.7073,-0.85268,1.6576,9.9351,-1.3884,2.0421,
-7.2048,7.625,-6.1034,2.1351,15.4739,9.4868,14.0285,10.7118,0.10644,0.404,-2.057,8.1344,-8.2943,2.6432,
-10.3877,6.9263,-7.4242,2.2477,14.7867,0.96366,12.9458,8.3821,-2.5513,0.13857,-2.6567,1.6206,-5.6272,-3.0593,
-10.0056,5.3057,-4.8093,-6.3231,12.6944,0.18271,10.4818,6.1921,-1.1931,0.85338,0.63593,0.31826,-7.9409,-1.6707,
-10.1284,4.2642,-4.762,-1.8461,6.8708,-2.9615,9.6117,10.3997,-2.8085,1.5253,-3.0179,-2.8346,-15.9008,-3.2579,
-12.4125,4.0086,-5.4403,5.9777,5.0125,-9.0506,9.5174,9.294,-6.9786,2.3979,-6.211,-9.4127,-11.5721,-10.7749,
-9.7398,0.87576,-2.7036,4.1725,-0.1087,-12.3639,12.8027,7.7723,-2.2213,2.2542,-4.8743,-17.5253,-15.2163,-13.9846,
-10.6019,-5.9259,-1.5777,2.4761,-9.7434,-13.5505,12.5163,5.8594,0.32186,0.19057,-6.5102,-15.9916,-28.4033,-14.1101,
-14.5449,-6.7752,0.68658,5.461,-5.061,-11.5319,10.5605,4.303,-2.8305,0.4201,-5.8782,-6.114,-32.6042,-13.0221,
-14.1543,0.86215,-0.80088,2.7233,6.8119,-8.4299,6.0705,5.973,-5.5527,-2.0152,-5.5255,-1.4089,-24.8634,-7.42,
-9.2079,3.9437,-1.9579,0.87241,8.5721,-6.2371,7.8752,9.2299,-3.5325,-0.68926,-3.507,-1.5655,-23.6128,-2.3958,
-6.727,-4.0059,-2.8045,1.7842,6.6117,-7.3091,9.813,7.23,-0.4283,0.3162,0.5596,-1.9538,-23.1601,-4.6624,
-6.3232,-3.2834,-4.0823,3.6055,12.9637,-2.0499,8.7423,4.8683,-2.813,-1.1488,0.044321,-3.2821,-17.4319,0.43831,
-7.1491,1.0109,-4.0783,3.1478,10.0167,-0.23967,12.3151,5.2991,-2.8852,1.5712,-4.0557,-13.4495,-24.8219,1.6168,
-7.2023,-1.942,-0.94131,8.2618,0.25691,-3.5997,19.7711,8.8373,6.9292,8.7076,-2.3663,-14.571,-27.6712,-4.7469,
-6.288,-6.646,-1.367,13.5504,0.24127,-6.276,22.4413,9.2711,9.8876,4.8109,2.1142,-10.3225,-19.7442,-4.9443,
-1.5722,-2.8728,-1.285,11.2916,7.9396,-4.4532,21.5769,8.7149,6.4019,0.1839,2.4693,-15.4872,-19.0414,-1.7551,
3.1014,1.3967,-3.3773,6.5165,11.0788,-1.5349,16.6667,7.9508,3.8483,0.896,-2.7403,-26.8508,-21.0324,-6.2293,
0.98716,-2.5432,-0.76428,5.6434,8.0038,-3.3708,20.0052,6.5101,5.0639,1.8063,-1.6118,-27.1677,-20.2524,-7.3016,
-1.9644,-3.8369,3.138,5.3048,7.0416,-7.5071,21.6972,1.2988,2.8319,3.1438,-0.069293,-18.3068,-17.5912,-3.9714,
0.081925,-4.0888,-1.8708,0.166,12.4034,-8.5029,13.1645,-2.1534,-3.6047,-0.90103,-6.3314,-19.6187,-12.6794,-8.0717,
1.2818,-1.6744,-1.5176,3.2891,7.08,-4.8595,16.472,4.0014,2.1551,-0.606,-7.6388,-15.7905,-16.0162,-7.3464,
-6.7488,-2.2968,0.74263,-0.041307,-7.4448,-12.0397,10.9044,2.0741,2.2668,0.63566,-7.4214,-5.925,-29.1552,-7.6285,
-5.6207,-5.2922,-0.98892,-8.9567,-3.5032,-18.7889,6.635,-3.1118,-0.52007,2.7669,-4.8067,-0.50761,-20.5363,-7.8935,
7.9729,-2.8055,-2.6168,-4.3219,10.807,-15.4924,15.1547,-2.6841,-0.73029,1.8775,-1.8672,-5.5388,-5.2041,-6.697,
12.0738,5.7989,2.6019,0.034756,24.2586,-17.2142,17.8608,-0.83587,-2.3737,-3.7787,-0.5499,-10.2682,-0.67404,-7.5004,
10.3853,8.3428,8.2301,-1.4134,36.903,-28.2327,20.1634,-1.2679,0.17908,-3.0698,2.8573,-12.5444,-8.3466,-7.0507,
18.6802,7.1193,7.4953,4.2146,48.7889,-36.9028,23.5329,-6.7354,0.89124,-0.7165,4.855,-23.6023,0.10794,-8.7968,
21.898,3.318,7.0459,3.9624,59.9615,-38.5448,22.1214,-10.1875,-0.12588,0.77298,1.1895,-26.0419,6.3684,-12.1251,
16.0048,2.8779,8.3099,-2.7833,70.4638,-35.5092,22.4811,-7.889,2.0508,2.4134,1.3591,-10.3794,7.1914,-6.8183,
12.1522,1.7411,1.545,-2.1341,80.336,-27.1119,22.5783,-8.8621,-2.4108,-1.1057,4.6518,-1.4414,12.0623,-2.0707,
9.2537,1.8774,-1.199,2.573,84.5542,-24.7623,20.9826,-3.269,-2.9892,-1.2805,4.6139,-15.4549,9.6516,-4.5978,
6.2879,2.2472,2.7293,1.9367,72.732,-31.4713,17.3133,-1.6266,-1.3636,-0.23935,-1.4475,-22.8433,0.87756,-5.2858,
10.4901,3.3174,7.1451,2.0617,69.5736,-24.5216,20.3721,-5.1442,-0.55914,0.49814,2.7364,-7.3727,5.4044,5.3955,
11.0658,4.3234,-5.094,-4.0878,62.7474,-13.1683,15.5341,9.2645,-2.6945,0.22705,1.8491,-5.6048,12.552,-2.8822,
7.9917,2.1358,-6.2346,-5.7707,56.0905,-14.7884,14.6023,22.8086,-1.0866,1.6597,-1.6358,-3.8222,6.4962,-1.263,
5.8254,1.7667,-2.2451,-6.1474,57.7868,-12.2136,10.1109,35.5401,-4.6368,-4.9474,-1.7786,3.397,1.0452,0.98192,
1.8603,1.4195,-3.3155,-9.8761,52.6321,-15.5786,5.8884,47.5077,-11.3487,-6.8204,-4.3237,4.3982,-2.1512,-5.5847,
2.7127,2.7808,0.25767,-8.3195,44.1718,-15.1258,13.7303,58.7572,-8.2574,-1.5902,-5.5103,-1.1681,3.2807,-7.66,
5.9242,8.3983,2.1706,-2.5179,44.8957,-8.9158,13.3884,69.3318,-4.8697,-5.3514,-1.8055,-3.0264,7.9039,-2.8618,
2.9177,7.1715,0.35317,-5.4998,40.9971,-11.0318,6.0776,66.8591,-6.2643,-4.7889,0.95441,-5.4959,1.8865,-1.4848,
0.57344,3.1258,-3.2834,-9.7496,33.4756,-15.4318,4.9898,55.8577,-8.058,0.55965,-4.1645,-9.7459,-1.3602,-8.3856,
6.0824,6.5535,-3.8096,-3.6208,36.0466,-9.4442,10.716,48.8906,-1.5488,1.2492,-1.7453,-4.5816,5.7111,-7.1593,
2.1023,2.0631,-2.3759,-5.5729,29.7862,-11.5288,10.7961,48.6085,-2.179,-1.4771,4.3852,-9.8501,6.0916,-1.1864,
-3.8084,-0.95319,-2.2334,-12.9513,20.7682,-16.6217,4.8457,44.7281,-7.8328,0.057809,3.1578,-14.5618,8.6181,-2.5615,
2.2044,4.8888,-3.0635,-8.8,23.8606,-9.8398,7.4475,40.116,-3.5062,1.0184,1.0404,-4.5293,18.2246,-4.3358,
6.6514,7.2466,-1.6744,-3.6927,25.5625,-3.706,10.1337,37.4681,-3.0554,-0.24796,1.2184,-0.16015,13.0333,-0.46019,
1.4321,3.4373,-1.092,-5.8813,20.1724,-4.4478,5.6693,36.6662,-8.1742,-0.23308,2.1097,-5.9351,5.0205,-0.91497,
2.0693,2.508,-0.78526,-4.3233,20.1671,-4.4219,6.0523,35.1894,-5.5148,-0.94223,1.2599,-6.7841,14.1195,-1.5827,
8.9353,6.9375,-1.4613,0.51603,22.5727,0.42318,12.6792,33.8012,-1.0859,-0.16257,-0.50265,3.5051,23.1545,4.538,
4.3013,3.8697,-3.0608,-7.9511,13.2641,0.15659,10.7132,27.1933,-2.7084,1.5344,-1.1954,6.4283,10.919,1.6142,
0.91022,1.9503,-2.1543,-9.1612,10.7811,-3.9502,6.9371,21.9468,-2.7869,0.71945,2.9737,-0.46533,4.2383,-4.9902,
1.8197,1.8335,-1.0609,-3.3087,16.4009,-7.5695,9.8951,17.7377,-1.1732,-0.77021,3.2774,-11.0425,6.8763,-5.1729,
1.9513,-2.3741,-0.75607,-5.7619,14.6938,-9.2847,14.8448,14.986,-0.86207,-0.4828,1.3933,-11.585,0.91985,-3.6575,
6.1725,-0.30348,-1.1926,-7.8263,15.7403,-3.425,11.0618,14.5687,-2.7385,0.028103,3.2379,-0.28505,4.2391,-3.438,
6.7662,-3.1776,-2.0852,-8.3209,13.3499,-1.2913,7.0239,10.8023,-4.5026,-0.45575,4.0077,-1.714,9.7696,-3.232,
-0.38818,-7.3257,-2.9244,-4.9291,3.3899,-6.5163,10.941,8.7079,-0.85804,0.053991,3.7673,-8.842,4.3627,-2.0737,
-3.0164,-5.1989,-4.4362,-1.4999,-1.8748,-6.8484,13.4178,9.3908,0.88067,0.29172,3.3003,-6.6242,2.4137,-4.1185,
2.9494,-1.0304,-2.7235,-1.4101,4.504,-2.099,15.0231,10.2733,2.7563,0.75638,4.0664,-2.8521,8.0537,-5.7998,
5.1825,-1.4505,-4.4887,-3.7356,6.162,-0.045059,11.7113,6.7649,-0.78357,-0.25333,3.3404,-0.27085,10.4625,-1.5954,
4.1484,1.2874,-4.4602,-1.8245,3.6229,4.055,12.6957,5.6359,-0.49582,0.485,2.4169,3.3606,17.7887,4.0442,
2.6945,2.8976,-2.5055,-0.02802,4.611,4.5348,12.6571,4.0926,-1.6711,1.179,1.0668,1.9539,19.3727,-0.29608,
3.4969,1.2777,0.53708,-3.4006,10.1187,3.2989,7.0771,2.401,-6.3914,-0.33774,1.485,7.1395,14.3538,-2.2063,
3.0461,-0.004221,-0.21805,-8.7397,10.2349,3.8241,6.8937,1.0517,-4.8026,-2.4866,2.1188,7.9165,13.734,3.9516,
1.899,3.8524,-0.68736,-4.8413,1.9076,5.0404,9.3722,2.9168,1.7521,0.55462,1.9916,4.5485,15.802,6.1247,
-4.2402,-0.95778,-3.7789,-1.8995,-11.463,-6.5897,11.4614,2.501,1.4062,1.7264,0.66708,1.1428,4.9722,-3.1606,
-1.8164,-4.9984,-4.2753,0.86579,-11.4984,-9.81,14.3889,2.1098,1.5626,2.346,2.3141,0.83302,1.0582,-6.1043,
2.3897,-2.0467,-2.8137,-0.39122,-2.8545,-0.7855,9.4282,0.77813,-0.70009,-0.44613,2.4164,1.0242,12.3231,0.28777,
-5.2253,-5.5395,-2.8861,-4.9473,-8.2266,-3.8716,7.1755,-4.33,-1.8632,0.30377,1.5483,-3.6167,14.2351,-0.45262,
-3.2248,-4.0021,-1.9898,-1.5172,-10.3843,-3.3981,13.7346,-2.3832,2.8282,6.7933,0.73226,-5.5691,8.8014,-4.523,
3.7176,1.5407,-2.8347,-1.9085,-0.1203,2.1079,12.4284,0.16991,1.6941,3.0112,-1.2399,-1.3786,8.2729,-2.3235,
2.2893,1.2073,-1.9413,-3.9627,1.5741,2.2227,9.0316,-6.3478,-0.57667,0.17944,1.0037,4.2477,10.4281,0.94942,
-0.49917,-0.070454,-2.5477,-3.484,-0.68947,3.7765,6.3203,-1.8695,-1.7474,-0.55469,1.6668,3.27,11.9715,2.0973,
-2.3974,0.41571,-4.8054,-4.7212,0.31577,7.4063,6.9052,4.0272,-1.6425,0.44292,0.60249,-1.265,10.2889,1.9715,
-3.2177,5.6936,-3.553,-2.51,-1.1492,7.4439,5.5268,-10.3144,-0.57987,2.8262,-0.39776,-5.5277,5.8154,-3.4493,
1.0727,12.3414,3.1681,5.5948,-0.83929,12.5409,7.8465,-23.7956,2.1065,4.3439,2.7596,-6.4008,5.7075,-6.3758,
1.2496,8.9501,4.665,5.4999,-0.065801,13.9578,10.027,-36.4678,0.77502,0.46807,1.8709,-8.1862,9.9445,-6.234,
0.69244,7.9309,3.421,2.2776,3.3124,9.7459,7.015,-48.3798,0.24636,1.886,-1.1337,-11.0692,12.7221,-6.3421,
1.374,12.0346,3.9389,3.346,6.7293,10.8484,10.6917,-59.577,6.7393,9.2449,3.5139,-4.8617,6.4154,-6.2028,
-1.8421,10.1074,1.0512,2.4221,9.4588,12.8488,12.2194,-61.6664,5.1299,8.9314,4.0262,9.53,8.6818,-4.1431,
-5.588,2.2702,-3.8326,-4.4717,9.3732,8.7034,3.7734,-58.4489,-4.8194,3.5748,-3.4462,11.9712,12.4992,-4.8589,
-2.3602,4.0621,1.7,-1.3108,5.9183,8.6634,4.029,-51.0851,-0.67335,3.3603,-2.7575,3.0582,12.2316,-3.603,
-3.4239,6.4695,2.8033,6.2391,-3.8368,9.3484,5.9564,-45.3689,2.982,1.9534,-3.3154,0.22319,11.2563,-4.5921,
-1.2902,6.0813,0.225,6.8291,-6.9806,9.2696,8.4915,-42.6467,3.7674,3.7644,-5.0442,3.1023,11.5453,-1.9065,
-2.4179,4.9933,1.4166,4.25,-4.8748,5.58,10.6331,-39.8472,3.7821,0.8872,-3.0546,-2.6277,6.755,-2.9972,
-3.9601,6.8633,3.0188,8.0923,-3.8594,5.4864,15.0568,-33.8405,7.653,1.0754,0.74411,-2.229,6.1087,-4.0222,
-7.8198,0.90793,0.66851,4.4738,-9.1714,3.9521,11.0199,-32.0515,5.0242,2.6976,-3.8803,0.55626,7.4294,-2.0941,
-9.5195,-0.83354,-1.541,1.554,-10.3081,3.9562,2.4052,-29.4048,-1.3026,-0.59702,-3.4058,-0.20025,10.5993,0.20097,
-9.1896,1.8673,-0.24347,5.076,-10.8947,2.5135,7.8043,-26.4355,-1.4656,-1.7667,-1.5145,-5.2497,8.2759,-1.0162,
-9.1204,-2.1009,2.6634,7.6637,-16.0258,-1.9756,14.5669,-26.2958,-3.3056,1.714,-7.6903,-12.6477,1.5126,0.0089149,
-7.85,-6.5543,3.2268,4.553,-13.3768,1.7581,7.6671,-27.8513,-8.6511,-2.4865,-8.9164,-17.4325,4.0731,1.2134,
-4.9686,-5.1974,3.5153,2.8333,-2.9335,6.9551,8.1712,-24.2523,-5.2398,-4.2657,-3.5609,-12.5301,12.5056,-0.30539,
-4.9117,-3.6801,1.6169,0.97635,1.822,3.4045,8.8862,-24.9661,-6.6124,-3.2866,-7.4444,-11.0552,5.2476,0.43606,
3.8191,3.5306,9.4741,5.979,7.7383,13.5646,12.4504,-17.4426,-2.1183,4.3824,-0.97217,-8.7046,-6.3955,13.6663,
2.3847,-0.2971,8.1823,5.3793,-0.67978,9.6172,12.4262,-18.5652,-0.30397,2.4322,-1.1548,-7.4595,-20.1117,7.3027,
2.0004,1.4082,9.8608,6.2616,3.9405,4.9428,16.7423,-18.6563,0.43739,4.9376,-4.2188,7.0881,-27.4614,3.7313,
4.291,3.7338,10.233,1.5476,6.1142,11.8771,15.2559,-17.055,0.41115,3.6775,-2.5198,3.8912,-12.3162,7.3638,
12.7101,9.2944,3.8344,0.97279,0.92711,22.7334,10.002,-12.6573,-1.0598,-1.8458,-3.3325,-7.9114,-11.0953,4.0294,
13.8757,10.6649,1.6762,0.43249,2.7997,26.1903,8.4378,-12.3798,-6.2988,-3.6633,-8.9172,-3.0984,-16.6961,-2.4788,
11.8381,8.338,6.637,0.16534,7.2112,26.3059,12.5108,-12.3606,-5.6797,-0.31021,-3.3207,0.22077,-12.561,3.2133,
9.1996,3.9813,5.7569,0.15542,1.9578,20.8712,12.7245,-13.0647,-3.4107,0.19034,1.2173,-4.1308,-5.5409,5.4311,
6.7195,1.3319,5.4115,2.0743,-1.0517,13.8341,13.8892,-9.8707,-2.7242,2.589,2.1082,1.9016,-4.2441,2.6946,
8.4855,2.9392,2.4357,3.6371,3.1088,11.799,10.4045,-10.0014,-3.2836,3.1571,2.7046,2.9924,2.0361,3.2558,
8.6995,2.0397,-2.29,0.28558,-1.6573,8.9216,8.093,-14.4632,1.0105,0.31632,1.3372,-4.1768,2.6371,1.8554,
6.7315,2.3995,2.6679,1.2325,-9.7528,7.4225,12.9101,-10.7027,1.914,-0.18483,-1.1533,0.41234,-4.2698,1.2624,
6.0864,4.4249,1.3028,-1.0108,-3.6238,10.5926,7.556,-6.9272,-4.2262,-1.3788,-3.7355,12.6799,6.3505,2.3917,
4.7573,0.78542,-6.9701,-8.1805,3.8245,12.8495,2.2823,-10.368,-3.4907,-3.2243,-4.4752,13.3654,18.021,8.0328,
5.9177,0.73784,-3.6598,-3.3518,4.5589,16.4164,8.8936,-8.3001,-0.87109,-2.0669,0.13162,9.6709,7.2983,14.2993,
7.2499,2.8627,-2.2349,2.3929,-1.7402,14.7085,12.9397,-4.6686,-2.0237,2.1549,3.2572,10.7779,-0.12947,8.862,
1.9944,-1.1652,-4.9931,-0.64298,-11.277,5.1491,5.8966,-7.7627,0.99005,3.4716,0.16949,5.3107,8.5552,-0.8285,
-2.2226,-0.85432,-3.4887,-1.3273,-10.3594,2.1889,2.8915,-8.9842,4.0637,0.12984,-2.9742,3.3049,6.837,-1.0202,
0.32085,4.4996,-0.38687,0.1986,-4.9171,7.3602,11.3951,-4.5888,5.748,2.0502,1.0607,8.4092,-0.3221,3.8617,
-0.42153,0.13203,-2.5331,-1.0184,-12.0941,4.7494,10.9524,-4.5546,1.306,4.5786,2.2021,2.8432,5.723,1.943,
-4.9753,-6.8655,-5.9963,-2.1623,-18.3581,-0.597,4.7516,-7.8965,-2.388,1.6525,-0.098963,-1.425,16.2257,-0.82489,
-3.2307,-5.4895,-4.6724,-2.5148,-10.0256,1.367,5.4306,-7.9049,0.16566,-1.3389,-2.9853,3.481,17.1805,-0.29324,
1.7838,1.5888,-3.9101,-1.8819,2.6271,8.9978,5.5869,-3.5742,-0.80814,-1.7405,-4.2525,5.6827,20.0061,3.5807,
0.71268,1.4932,-3.1933,-1.2869,-1.8691,8.9398,6.2158,-2.8776,-2.6881,-2.1183,-1.105,-0.92497,20.7337,4.8119,
-2.4636,-4.14,-1.7969,0.47757,-14.0495,0.4497,8.012,-6.3204,-1.3215,-3.196,-4.1722,-13.6439,10.5716,-2.4667,
-0.38756,-0.99907,-3.6173,-0.51541,-8.8677,2.8328,7.5313,-6.4231,0.20359,-1.076,-8.2602,-11.861,15.7223,-2.8006,
-0.12357,3.158,-5.0872,-3.6177,-0.38216,7.2422,7.3202,-3.8688,0.43257,0.67552,-6.5595,0.6606,23.6964,3.8752,
-2.2853,4.6557,-3.0948,-2.6778,-2.5284,4.1565,6.64,-1.467,-2.2449,-1.0522,-3.9968,6.6465,16.2491,3.8836,
-0.94267,3.1713,-1.704,-2.2759,-8.402,1.2561,7.4471,-3.066,-4.2792,-0.74791,-2.0695,-2.6697,11.6594,0.035404,
3.6932,1.7758,-4.7353,-2.8623,-6.2107,2.8677,6.2769,-3.6054,0.55687,0.98419,0.70574,-1.7866,22.7695,0.75618,
2.5075,0.22319,-6.8611,-7.0291,-4.8739,1.7318,-2.2944,-5.7994,1.488,-2.9315,-3.1928,10.8539,24.2961,2.6392,
0.18788,-0.9955,-1.3882,-5.8844,-7.715,-0.54154,0.97653,-5.6924,-0.28896,-2.5146,-4.6884,9.9617,8.7383,4.65,
-1.7518,-0.93554,-0.82272,1.2178,-10.6263,0.45528,6.2206,-1.9762,-3.6454,-1.8816,-3.443,1.651,7.1292,2.4426,
0.52222,1.2895,-1.9784,3.7956,-6.8555,1.1506,7.0522,0.3113,-1.2577,-0.56362,-1.5494,2.757,19.4757,-1.3196,
-0.71394,0.48925,-3.065,-3.4216,-1.8648,1.3228,7.3524,-3.3228,0.50496,0.67549,-2.1794,1.3867,18.0662,-0.034666,
-5.9738,-1.4683,-2.8811,-2.7343,-3.6812,7.9921,7.3934,-1.6772,-1.4535,3.527,-1.5667,5.1599,14.5721,6.7159,
-14.5334,-8.852,-6.3237,-3.2936,-11.414,4.3791,5.7445,-1.8175,-2.5716,0.18191,-1.2317,7.0195,12.0105,4.6257,
-7.3946,-4.4643,-2.57,-3.0958,3.3708,3.1522,8.7741,-0.26243,2.4032,0.17123,2.6983,5.6342,22.8588,3.866,
-0.44326,-2.0275,-0.24643,-1.705,17.2686,3.6862,10.899,1.4403,-2.3205,-1.526,1.3314,-1.2116,23.1747,1.4646,
-0.89883,-1.4237,2.1787,6.1099,15.7503,3.9472,15.0655,5.2105,-5.5555,-0.95278,3.1799,-1.621,12.625,3.7871,
-2.5319,3.2413,-1.0853,5.9845,17.4566,6.8437,12.9565,3.2109,0.32119,-0.65441,5.1585,-0.3187,19.8215,5.7293,
-2.6212,3.7699,-1.7433,-2.3286,20.0244,7.1562,13.3842,1.3308,4.8814,0.10798,3.6435,-1.5046,28.9963,6.1086,
-4.6326,-3.9281,0.53048,-3.3937,12.3154,-0.26285,12.8223,-1.8821,-3.3652,-2.0677,-0.19008,-4.5474,19.3028,4.5373,
0.4656,-4.1748,0.016716,2.1121,13.0228,0.71679,10.6067,-1.7696,-3.1633,2.3947,4.6416,1.9915,19.5908,8.6029,
-1.2496,-3.6829,-7.4561,-4.5221,9.5903,-0.53105,4.4269,-4.7965,0.16,0.56381,-1.1805,5.4879,18.1744,4.4718,
0.51264,2.0817,-1.4651,-2.0816,9.2559,-0.25822,8.7406,-3.3039,2.3196,-0.67485,-1.8326,6.3635,11.5404,2.9982,
5.3024,0.028385,1.0331,-2.4384,10.6285,-0.72489,10.1444,-4.0697,-2.6401,-2.0808,2.6159,-2.2133,6.9913,3.7824,
10.0459,1.232,-6.5006,-7.3538,15.5344,3.4162,4.4743,-2.1379,-1.7583,-2.197,2.6999,2.4993,15.4899,2.3506,
2.2121,3.568,-10.4492,-8.841,9.7818,2.2471,2.2774,-4.4204,-0.20726,-3.5112,1.0914,9.098,13.114,-1.647,
1.1153,3.3541,-2.1097,-2.5257,2.9282,-1.7443,9.3716,-3.1911,4.6257,-0.89015,5.3645,1.8034,6.0609,3.7542,
3.6999,3.3938,-1.7421,-0.68695,3.9578,-2.8447,7.6042,0.13387,6.9997,1.3324,2.8735,-1.4383,7.8664,4.7342,
0.10345,1.262,-0.67326,-3.0559,-0.61846,-3.156,9.5583,1.0902,5.6154,1.2525,-0.191,1.5405,4.5019,0.11186,
-3.2772,-1.7058,2.7416,0.019554,-11.1862,-7.3052,12.8412,-1.8678,0.45819,-2.1971,2.2306,-1.9263,-2.0347,-5.6794,
-3.3215,0.56573,2.3361,1.7056,-8.3459,-6.1437,7.9732,-3.9249,-4.149,-1.8243,1.8558,-2.5341,0.25651,-2.2056,
0.2522,4.3882,2.6779,1.6033,0.83154,1.9374,7.9767,-2.2436,-4.864,0.69525,-0.18422,-3.3459,6.99,3.2293,
4.0935,7.0174,5.4097,2.9533,4.1566,6.16,12.3188,0.30164,-5.0541,-1.7566,4.6475,-6.0372,11.8733,1.5893,
-0.49093,2.7395,2.6746,-0.59832,0.050318,1.4518,8.6874,0.28354,-2.8226,-8.3996,5.333,-6.1574,3.93,-2.3624,
-1.4253,1.1293,2.0322,-0.56242,1.0116,2.3288,6.238,1.2309,2.167,-3.5573,5.495,-1.9316,1.2841,4.5282,
0.10644,1.0616,1.9102,-0.046282,-0.97727,6.0459,4.4176,2.1213,-4.2296,-0.93331,-0.13691,-5.1897,6.0278,6.6667,
5.6434,6.5413,6.3751,3.0893,5.1071,13.6367,12.1063,8.5013,-6.1452,-0.63658,1.5583,3.5576,15.0659,5.0616,
4.5819,9.7642,5.2697,-1.1934,11.7901,14.0238,10.1749,5.8221,-6.0174,-4.2138,1.7058,11.2979,10.5465,2.5887,
5.0304,7.4916,2.302,-6.183,9.8779,11.4951,7.8772,2.8216,-3.9692,-0.34556,-0.083804,5.0764,6.7802,9.4233,
4.2462,2.2209,-0.24626,-3.8843,3.9826,10.323,6.4402,3.1343,-1.8028,3.5316,2.3314,2.8436,11.6761,13.1958,
-1.0703,-0.56342,-4.3293,-3.4103,1.574,5.6063,2.4384,1.7409,-0.97174,-0.29575,2.4324,6.7704,8.3239,6.3785,
-4.8625,1.881,-3.1052,-4.6515,0.99808,0.93159,7.5949,1.6365,1.9791,-0.278,3.7328,-1.3486,1.0761,0.69357,
-0.71433,4.1782,-2.9189,-4.3724,3.3483,2.8039,8.1033,2.0207,-0.067855,0.22061,3.0269,-8.4986,2.4578,0.65196,
4.1492,3.9275,-5.1539,-5.0744,7.4857,7.9383,1.8323,1.417,-0.063784,-1.7208,4.7734,0.68846,7.1305,-0.83342,
-7.9098,-1.3698,-7.0138,-6.9391,0.52912,5.2928,-0.9287,1.573,0.66294,-3.7867,6.6562,0.40619,2.6054,-7.7733,
-12.015,0.39962,-8.2802,-2.4249,-2.6361,5.2162,1.2962,6.5403,-1.0636,0.055892,2.6414,-2.2697,-2.1302,-4.1734,
-5.7502,3.5089,-4.1682,-1.0744,3.0654,5.144,4.8338,6.3891,-2.2053,3.6677,0.31352,3.8922,-3.208,0.65652,
-6.1286,3.0574,2.5898,-2.2152,3.1229,4.1125,3.8207,4.3185,-2.314,3.2067,0.53614,4.864,0.11801,-2.5164,
-11.3045,-0.74146,3.6393,0.56882,-4.5367,-0.71403,3.3502,6.7105,-4.8262,-1.565,-3.1119,-5.7922,0.83383,-5.9808,
-13.0363,-5.9996,1.4927,5.3554,-9.0848,-8.3837,9.416,10.1642,-1.1622,-2.4354,-8.2274,-15.0858,-7.8928,-8.514,
-11.0491,-4.9167,1.1622,8.1671,-9.745,-12.4605,8.1279,7.3852,3.9688,-3.0122,-7.9752,-21.1703,-15.3735,-11.6186,
-9.663,-1.9702,3.2616,9.3643,-18.5603,-9.5434,5.471,4.773,2.5258,-4.5187,-3.3988,-26.4078,-13.7277,-12.1268,
-7.6372,-0.40571,2.584,13.1412,-22.7493,-4.1504,8.0351,12.6813,-3.4108,-0.87311,-4.6412,-17.5925,-7.6014,-7.0608,
-9.3479,-1.5864,-0.22238,13.0759,-15.8405,-2.696,12.1327,15.5361,-1.5187,-1.5439,-6.0497,-10.9934,-8.3504,-3.0215,
-13.3666,-5.5886,-2.3782,9.6402,-15.131,-7.1138,10.6816,8.0964,3.1522,-5.0666,-6.892,-24.4338,-14.3568,-6.4557,
-7.5031,-4.5306,0.41582,9.3026,-8.6798,-5.4819,6.9072,5.4408,-2.5808,-0.18313,-4.3091,-30.0781,-7.952,-9.2016,
-5.8479,-7.392,0.14967,4.6468,-0.20503,-3.4658,7.6981,6.8018,-5.5592,1.9972,-0.9173,-14.1734,2.4072,-6.4806,
-11.5225,-8.1533,-4.4386,5.0914,-6.2183,-5.4272,7.4772,7.1166,1.2818,-3.6662,-2.5495,-4.7666,2.5038,-1.03,
-10.1081,-4.5309,-2.0029,7.4372,-8.4965,-3.4141,6.3054,5.4845,3.3743,-4.1694,-5.5298,-5.6857,-0.77971,1.6831,
-8.0558,-4.7412,0.045249,-0.24009,-0.27417,1.611,3.9987,0.33497,-1.6486,0.90129,-4.7163,4.7784,-1.6975,-0.34633,
-6.6081,-4.4567,1.0069,-1.1895,5.5273,6.817,2.7949,2.2431,-3.4779,3.7397,-0.57646,15.5793,-6.4159,2.567,
-8.3808,-8.7686,1.1874,1.5329,-4.6867,2.7925,2.8682,5.7239,-3.5102,1.3457,-3.6754,7.6547,-20.1309,3.6182,
-4.5037,-6.3145,0.63401,1.9231,-10.6723,1.6609,4.1421,4.4164,-0.40729,-1.6273,-7.3115,-0.9995,-22.8999,-0.9374,
-0.85903,2.7412,-1.3325,1.3256,-3.7652,7.8277,4.3757,5.1155,1.0632,-2.9757,-5.4267,1.4704,-7.4259,-1.3633,
-1.0485,4.264,1.399,0.040729,1.5224,9.0453,4.8361,7.9416,-0.68784,-2.5562,-0.039452,3.0694,0.85287,3.2978,
-0.74481,1.8387,2.0382,0.76142,3.1181,5.3693,3.823,5.2962,-1.3697,-4.0903,-0.76021,-1.6943,5.8631,1.8948,
0.02324,0.52358,0.22871,-0.0071701,4.1363,5.7701,7.2088,3.2912,0.39971,-2.1576,3.8647,-2.7975,12.5012,-2.3162,
-1.1832,-2.1592,1.4201,-2.6581,-1.6557,-0.60168,6.0534,1.8886,-0.82934,-1.305,4.8383,-0.46071,0.42273,-6.2748,
-2.5585,-0.58335,2.7811,-1.5347,-6.8586,-4.9039,-0.094381,3.2216,-2.2258,-3.1549,0.20925,3.9057,-8.2793,-6.3803,
-2.8871,-0.54835,-0.27828,1.4499,-4.5189,-1.2352,2.8036,4.9565,-0.16409,-0.55505,0.67909,8.0097,-3.9261,-1.1767,
-5.1243,-3.8901,-3.1539,0.3988,-0.87352,-2.6074,5.0455,3.2126,-1.6003,0.92428,1.12,7.5289,-7.5472,2.2681,
-7.7089,-3.6563,-2.0003,-0.58899,-7.0876,-7.2712,3.297,2.5384,-1.5043,0.86882,-1.8392,1.775,-19.1454,2.6144,
-6.2822,-1.9911,-2.3627,-0.071721,-11.4831,-2.4966,3.0989,2.868,1.4785,2.7449,-4.6209,4.5605,-23.2994,5.3496,
-7.5923,-5.0049,-8.2462,-5.6108,-4.7683,4.1612,-1.6663,-1.4017,-4.636,-0.071129,-4.5849,18.3869,-13.9474,8.1619,
-5.2086,-4.7046,-1.9669,-4.7922,-1.1078,3.4291,2.2901,0.61062,-3.8759,-2.477,0.99287,19.8147,-5.8797,9.1184,
-2.2452,-5.6276,4.6586,1.0385,-7.5492,-0.87424,5.7678,3.707,-2.438,-4.9799,-0.27199,4.5259,-15.8913,3.9916,
-0.66422,-7.2179,6.3075,2.4226,-6.1322,-1.7856,8.7962,4.9311,-0.84572,1.1037,-0.73784,-9.8457,-24.579,5.1986,
-3.2755,-7.9899,0.86761,-0.85597,-6.005,-7.2221,7.0634,1.0196,1.3744,2.7245,-1.8986,-9.4961,-28.6476,4.1635,
2.2235,-3.6541,1.7794,4.0156,-5.1628,-1.0042,5.6753,5.7791,6.1122,1.5971,1.1078,-5.07,-25.9649,1.5031,
-1.2842,-11.1479,2.1548,0.88242,-10.6378,1.9483,7.7451,3.022,4.7814,1.0191,-0.88708,-12.9605,-32.1196,-2.4432,
-7.956,-10.9609,0.57927,-0.13485,-13.8559,-1.0611,10.6548,-1.0157,4.0126,4.8144,-3.7264,-14.1113,-36.9413,0.59544,
-5.5502,-0.66231,-1.3837,1.8019,-12.0602,-0.03287,7.1233,0.4915,3.7718,4.0436,-6.3944,-1.6952,-38.581,0.56017,
4.1826,4.4391,0.38657,2.8986,-4.8291,10.333,6.4547,5.0413,0.8944,2.1137,-0.46758,4.432,-36.9893,0.76753,
5.86,6.1007,1.3275,3.2069,0.76302,15.9797,9.4416,7.1492,-1.0877,2.4691,4.381,3.202,-28.9855,7.4702,
0.68771,3.3243,-0.6806,1.0865,-4.1032,6.3439,10.8035,5.7561,1.8699,2.8031,1.7077,3.974,-28.2103,6.5398,
3.7797,-0.0083932,-0.39857,-0.18423,-6.5084,2.3478,7.504,4.2057,3.4447,2.3937,0.88215,8.797,-28.2049,-0.84225,
8.8556,0.47427,0.10751,-1.1373,-1.7793,8.4737,6.5716,2.5073,-0.13624,1.7679,3.7215,10.6795,-17.3538,-0.79195,
6.396,-0.036116,0.10106,-1.551,-0.70824,7.9653,10.0342,1.875,0.83627,1.6618,3.9806,7.1467,-11.9738,2.63,
4.0841,-1.4802,0.094995,-2.4218,-0.18381,2.6669,8.4678,3.2083,1.268,1.5621,-2.5247,2.8615,-17.5221,1.9903,
6.2492,-0.42753,0.57123,-4.2051,4.6475,2.9888,7.9597,2.5338,0.70955,0.98648,-4.7838,-3.0952,-17.9173,-1.986,
12.1412,4.9008,1.9832,0.8679,8.2255,7.6302,8.9284,3.8281,3.0776,-0.51897,-0.15803,-0.49891,-12.0215,-0.4201,
17.6795,6.0532,2.8283,5.1544,9.6604,7.1724,10.3211,6.0087,4.8213,-1.4519,1.7794,4.3515,-7.4436,2.0155,
19.752,1.1105,-1.439,-0.21634,11.7316,6.0189,7.5325,2.5149,-0.047465,-2.0879,-5.317,-8.2019,-9.6483,-6.0594,
30.1358,14.0591,-3.2806,-0.20359,25.1277,19.7577,5.1521,3.8101,-3.4193,-0.034244,-5.9621,-7.2276,-4.2489,-7.1424,
38.9329,24.7847,-6.9401,-8.3861,37.72,32.6723,4.361,1.6533,-9.9626,-8.7093,-11.8709,3.8109,-5.4403,-4.7856,
50.6969,32.6978,-2.9085,-13.9082,49.5568,41.3172,5.3044,-0.6153,-17.3188,-16.6222,-20.0764,1.8952,-3.4264,-3.293,
61.7551,43.9923,-3.4569,-13.7971,60.6834,52.9382,0.88881,-4.1938,-24.7158,-18.2764,-20.0776,-7.1365,5.6968,-10.0853,
72.1498,55.4528,2.5351,-9.5948,71.1424,63.8619,8.0663,0.39614,-23.2329,-17.1798,-15.9804,-7.1903,7.2832,-15.2647,
81.9208,66.2256,5.275,-9.9835,80.9739,74.1302,15.2951,3.2649,-27.6235,-20.4878,-21.7701,-14.4716,-0.86658,-17.2414,
91.1056,74.5444,2.0662,-7.456,90.2155,83.7824,17.2697,3.0688,-23.0738,-18.2944,-21.4284,-21.3163,1.1134,-11.3864,
99.7392,73.4459,0.014293,-7.0089,98.9025,79.4783,18.1615,1.9205,-18.3147,-22.0173,-20.6244,-22.9297,-0.88138,-12.1492,
107.8549,62.7727,-0.95089,-16.7113,107.0684,66.5149,19,-3.0149,-26.8567,-28.409,-26.6178,-29.2666,-8.5413,-23.4714,
101.2629,55.8731,2.2394,-15.9498,114.7443,61.3185,23.4038,-5.9673,-24.5227,-20.1967,-23.3337,-30.6441,-7.7876,-25.1968,
95.669,51.0744,3.0694,-6.7981,121.9596,48.9628,22.4815,-6.5736,-19.1949,-15.6105,-18.0773,-21.5749,-4.4283,-19.3467,
87.76,41.9842,2.644,-9.5235,128.742,33.7327,21.3734,-5.938,-18.7664,-18.7714,-17.7158,-13.7727,-1.5113,-17.4628,
77.6739,33.1988,2.9675,-11.8439,135.1175,25.442,23.9476,-6.0639,-10.8912,-15.2348,-12.3138,-13.428,3.8823,-19.7888,
59.2749,23.7349,1.1025,-6.5542,141.1105,14.9976,17.4493,-8.8333,-2.7662,-8.7773,-8.4422,-10.9353,8.2284,-19.325,
41.6184,10.0187,0.31299,-5.4376,123.2438,2.2877,15.1975,-8.5443,-1.8769,-5.5991,-7.6943,-6.1814,8.4581,-11.1756,
25.0213,2.4275,-4.7672,-6.3164,101.7492,-4.3573,17.4189,-4.8983,-1.5231,-5.9863,-4.0993,-2.6773,7.7094,-7.3714,
9.42,2.0411,-4.7219,-4.2504,81.5443,-5.7833,14.6863,-3.3994,0.73726,-4.4221,-1.684,3.0268,6.0418,-6.6884,
-0.42423,-4.5891,-1.3054,-3.2723,62.5516,-7.6053,8.7437,-4.4005,-1.9583,-0.059166,-1.3422,9.3529,6.8843,-0.26129,
-14.4988,-16.8472,-7.494,-6.4504,44.6985,-11.0058,0.024353,-4.6184,-7.1434,-1.0199,-3.1899,11.2018,9.3638,3.1284,
-27.7289,-23.7903,-13.0697,-3.412,27.9166,-18.299,3.6381,-2.1724,-0.68906,1.2106,-2.2754,10.289,4.7044,4.1462,
-40.1651,-25.7369,-11.3216,-2.7249,12.1416,-26.36,5.348,-4.4521,3.6911,2.5843,2.6819,11.1179,8.2785,5.8256,
-43.4195,-26.6035,-4.8575,-5.4542,-2.6869,-24.7787,3.5811,-2.739,5.3976,4.8396,16.0181,15.2708,21.8818,8.8503,
-46.3582,-28.6225,-0.46897,-2.4756,-16.6257,-24.979,5.5351,2.0049,9.6532,10.0926,19.6365,16.042,20.6896,8.56,
-52.9765,-28.1102,-2.6098,1.7705,-29.7281,-31.4342,3.516,1.6438,9.7972,12.1383,13.3969,20.141,13.9044,9.7339,
-58.475,-32.6901,-6.3096,-2.1921,-42.0445,-36.2968,1.8588,-1.3473,6.7987,8.9999,10.1829,20.3788,10.66,12.5243,
-58.5815,-33.3803,-7.6182,1.0729,-53.6218,-28.5752,1.5063,-0.54311,6.6322,12.5573,12.2231,16.9869,8.3332,12.0138,
-58.2001,-31.136,-8.8483,3.1777,-64.5045,-20.3532,-1.7171,-1.2339,6.9572,15.4193,12.695,16.6906,7.5922,6.7137,
-58.3235,-35.2939,-9.0403,-3.0385,-74.7342,-23.7113,-0.89116,-1.4008,4.8526,9.4324,10.728,20.2689,9.7882,3.6593,
-54.3421,-35.1044,-10.9085,-4.7844,-84.3502,-23.7348,1.0905,-0.83483,3.5975,7.9026,9.6024,19.0528,6.7903,8.2605,
-53.7327,-32.7567,-11.9408,-3.2925,-93.3891,-20.1416,3.1942,-2.9539,8.4429,14.9003,14.5698,11.884,1.3217,14.2723,
-55.5706,-32.4788,-7.6096,-3.3361,-101.8858,-19.6562,2.2795,-5.428,13.9616,12.3188,15.8646,10.4474,6.7853,13.1748,
-53.2003,-31.9761,-8.1167,-2.1719,-109.8727,-22.333,2.1429,-2.692,16.9806,7.7235,12.9847,12.7129,14.0912,6.118,
-49.0444,-33.432,-9.5583,-2.5235,-117.3803,-26.7781,2.4963,0.36162,14.5155,10.1522,14.6158,10.0219,9.8713,1.4122,
-45.6193,-28.5338,-7.5383,-3.8181,-108.8912,-21.7967,-1.9921,-1.588,8.3421,11.4714,14.7029,10.3851,2.5308,1.8096,
-46.0154,-27.5446,-10.219,-9.6146,-102.1168,-14.9453,-0.1853,-4.6258,9.0469,9.0959,10.6877,14.8232,1.1736,3.8706,
-44.7008,-28.3023,-13.4625,-10.9661,-98.8821,-15.0127,2.7181,-1.9383,10.9144,9.5143,11.9744,22.6107,12.6726,8.4584,
-42.0189,-22.748,-7.8343,-8.3797,-93.4313,-13.1478,-2.2655,-0.37601,3.9928,10.3894,16.5584,26.0746,15.7684,9.8793,
-41.426,-19.9369,-1.5801,-6.9131,-89.2717,-11.877,-5.0221,-0.83538,-0.58553,6.8736,12.1904,11.4947,4.217,5.9121,
-36.0482,-18.2587,0.92529,-0.71372,-86.3255,-15.9851,0.58191,4.9993,3.7884,4.051,8.5669,7.4305,2.0358,6.0393,
-35.0903,-20.7786,-0.33552,-0.91186,-86.2077,-18.6414,1.7523,4.4584,4.284,2.6027,10.2221,14.9384,6.4934,8.3281,
-37.5644,-19.7729,-1.0383,-4.4726,-82.722,-15.3535,-2.4502,0.57547,3.304,5.0981,9.8497,10.9091,5.3809,5.6597,
