"AF3","AF4","F3","F4","F7","F8","FC5","FC6","O1","O2","P7","P8","T7","T8",
-0.96387,4.3383,6.7489,10.6053,-24.5846,-0.48193,0.48193,7.2308,5.3026,-4.3383,-5.3026,-2.4101,-11.0872,15.9079,
-0.18336,4.8012,12.8512,12.1379,-23.8326,-4.0687,0.21228,7.5201,3.7794,-2.873,-4.7433,-7.8094,-23.6784,16.6405,
-1.6184,3.0671,18.8293,13.3381,-25.7769,-8.1626,1.6456,6.1048,4.5168,-1.2545,-6.8691,-17.9456,-30.9343,11.7859,
-2.0035,1.437,16.7354,12.0556,-27.1226,-9.6013,2.029,3.8101,2.3173,-3.5896,-9.8311,-10.6024,-19.9195,7.2221,
0.044949,-0.57742,11.3925,10.3679,-28.3877,-7.579,3.3531,5.0278,2.6602,-0.48174,-7.7955,-2.2535,-16.7963,8.2346,
-0.68065,-1.2661,7.5755,9.9868,-25.9613,-6.4013,3.3928,4.4851,4.6698,1.2344,-10.4608,-8.6262,-28.0808,9.4277,
-0.63958,2.6665,5.6754,12.2804,-18.1369,-0.71437,-0.66688,6.1444,4.8722,0.67817,-10.3153,-6.1802,-19.6471,9.8266,
-3.0118,-2.3142,0.51415,12.0255,-31.0282,-1.6358,0.81939,7.7035,7.4719,3.5295,-3.9118,-2.9169,-14.1299,14.5392,
-1.3851,-3.6214,-3.8552,14.6782,-35.4333,-1.5379,3.1801,11.5798,11.3622,11.0308,1.6253,2.5606,-13.2821,17.0411,
-1.0608,-0.75281,-5.3114,15.0026,-19.2073,-3.1326,-0.62587,11.1263,6.1009,8.1995,1.2871,5.5402,-12.2442,7.1008,
-1.4793,-2.6361,-0.6537,12.6564,-10.2214,-7.2832,0.85771,7.5664,3.3245,0.95888,1.692,-2.5048,-9.5812,5.2287,
0.055744,0.41462,4.2058,10.4512,-6.2336,-2.9894,3.2168,4.7023,2.6431,-1.5088,2.5544,-4.7646,-1.2933,10.2176,
-0.1888,2.0767,3.7122,7.1723,-2.2444,0.32277,-1.0738,5.6247,-0.16681,-0.69512,-2.1784,0.58225,-8.2058,3.0969,
1.2688,0.023939,-4.2233,1.4393,-3.556,-2.1067,-7.2763,6.7335,-3.5313,-0.65341,-9.7605,-2.3447,-15.4265,-3.3559,
2.8801,0.2637,-6.1388,2.5585,-5.5116,-2.703,-1.2959,6.0888,1.7425,1.5552,-4.5953,-5.3373,-5.5826,7.21,
-2.1132,-2.1625,-0.46806,6.2612,-6.1452,-6.3974,2.6385,1.8668,5.4941,0.97971,0.018935,-7.4274,-5.7298,10.1516,
0.90591,-2.033,0.52412,5.4033,4.8288,-3.1213,-0.89451,2.7189,0.34401,0.9207,-3.3569,0.73076,-3.9397,3.2758,
0.12842,-6.9724,-0.71239,-1.9105,1.8877,-4.1391,-0.11771,0.38685,-3.2923,-1.7854,-7.7345,4.7845,-2.4983,-1.5003,
-1.8077,-0.76928,7.5253,4.4709,-5.9385,-4.3729,3.746,1.3277,4.6183,0.24968,-0.52178,2.5695,-0.41996,3.4102,
-5.3144,-1.4463,4.9044,7.8178,-7.2694,-4.3517,0.86989,2.4531,6.9925,0.95783,1.6785,0.24591,-4.4926,8.267,
-4.5136,-10.0366,5.574,8.3131,-9.2434,-6.9829,5.156,4.7161,8.0187,4.7567,-3.2425,-2.6614,-7.5972,11.1455,
-0.62739,-7.2648,6.4448,5.1632,-9.8939,-10.1791,4.1238,2.7459,1.9945,0.85592,-10.0378,-12.8656,-9.3106,1.5591,
0.61531,0.6427,0.9967,2.684,-4.239,-4.9893,1.225,3.3043,1.6336,-0.4005,1.4105,-10.4066,0.64783,0.26007,
-2.7958,-3.7344,-4.3655,2.5232,-4.9485,-6.1355,-2.7051,2.6238,3.9459,2.9978,8.5569,4.1973,3.5017,5.065,
-0.21795,-4.4742,-3.6217,1.8894,-5.1336,-10.1062,-5.9168,-1.39,-0.14721,2.336,-2.5618,7.3199,-6.3496,1.869,
5.5797,2.0608,-3.4044,1.2941,1.9229,-4.6796,-1.2235,-0.82464,-0.13883,-1.6606,-6.2645,0.13181,-5.4869,-1.6176,
5.7269,3.3834,-6.5745,2.1803,2.7719,2.3501,-1.1501,6.4557,1.7977,-4.9354,-3.9604,4.9446,4.9657,-0.074742,
4.178,0.52881,-2.0827,5.183,-9.687,0.52189,-3.7326,8.2375,3.3771,-1.0239,-5.8919,4.407,-3.2862,3.5452,
3.9275,0.97925,-2.4399,4.8722,-13.4441,0.0088766,-5.4366,4.851,1.2465,-0.48027,-6.5025,-5.0163,-14.6582,1.4045,
1.7639,7.1872,-3.7396,5.544,-5.8888,6.757,-3.1825,8.8984,0.20758,-1.4155,-0.80996,2.0334,-2.6915,3.2486,
-4.1265,1.4534,0.82314,7.1396,-13.7304,1.5309,-0.58092,13.1853,3.5696,1.5614,0.6849,2.8753,-2.53,6.4277,
-2.6741,-1.7669,3.9072,6.9522,-14.1116,3.1263,-0.78703,13.599,5.5246,6.5294,1.8491,4.8719,-2.1373,6.7654,
-4.6826,-0.4558,-0.90672,0.99164,-11.5777,1.7336,-3.3911,5.3115,1.5779,0.59429,0.53309,5.3027,1.1245,2.2619,
-4.6428,1.2585,5.6559,5.0293,-11.6059,-1.5037,0.42752,3.3058,3.6526,-1.6108,-2.1502,-2.969,-0.63022,6.2238,
-0.9898,0.7011,12.065,7.6196,-5.6074,1.9606,0.40187,3.5894,3.9149,0.41408,-2.9855,-10.0219,-3.9669,4.886,
0.99778,-0.78723,15.1974,6.1985,-8.6452,0.87906,0.37776,2.8916,7.0545,3.2813,2.4962,-12.795,-12.406,1.7008,
-0.50835,-2.1858,16.2138,7.7548,-22.2265,-4.9583,1.8014,2.7186,8.5599,4.0487,2.3465,-12.509,-18.41,4.9732,
1.2094,-2.2961,12.1075,7.0486,-19.5671,-6.8299,0.0060455,2.7964,5.8767,3.0829,-6.2302,-4.2869,-13.2081,5.8796,
1.6188,-3.1222,8.489,2.2873,-6.8239,-7.3845,-3.3688,1.1824,2.632,1.4517,-2.9641,5.6115,-4.7028,-2.1859,
-2.0936,-1.7298,3.882,0.46308,-10.5118,-5.7359,-4.3717,0.8707,-0.17724,2.0877,3.2395,8.89,-1.7691,-2.7774,
-0.76289,1.0253,4.8542,7.4249,-19.2811,-0.3305,-0.011822,4.4336,5.3768,5.0957,1.8401,5.7053,-5.2784,7.7529,
0.48795,2.1689,8.1786,5.292,-11.6165,0.41269,-4.5906,1.0344,1.439,0.21045,-2.8498,4.1579,-8.0949,2.7086,
1.1818,1.3156,6.9643,-2.9795,-2.9658,-0.81759,-6.4846,-1.1971,-5.1551,-3.8998,-1.9562,11.38,-3.0302,-5.4083,
-0.33514,-1.6556,1.7264,-2.3186,-9.0546,-3.1784,-4.1671,-3.0537,-3.3997,-0.77349,-4.7311,10.2155,-2.8481,-1.7091,
-0.07406,2.0591,-0.54635,2.4003,-8.2701,-1.3005,-8.4968,-3.1114,-3.4367,-2.8962,-6.134,5.9871,-0.025927,-0.40129,
-0.31081,4.5869,4.5479,2.9794,-1.7481,1.4289,-5.3357,-0.75535,-2.5074,-4.8914,-0.22258,4.4229,6.9653,-2.5466,
-2.9435,2.6242,7.4083,-2.2613,1.4898,-1.3087,-2.8461,-2.8794,-0.18801,-2.9109,1.9597,3.9163,12.5731,-4.5632,
0.6078,0.53883,7.9279,-3.5716,2.8466,-0.74798,-1.7113,-3.6708,-0.1765,-1.2902,5.2168,5.1273,12.7828,-4.2892,
5.1506,-1.6627,9.1394,-1.6701,4.8452,0.50219,2.0068,-1.2809,-1.3707,-1.9357,6.1091,2.6505,7.9185,0.54746,
0.50326,1.3292,3.2884,-5.9082,7.4466,-0.0098716,-3.8982,-4.0966,-6.1092,-4.7121,-2.4526,3.4558,9.8535,1.4789,
-5.7939,2.6957,-0.76528,-8.4462,3.1434,-0.0092793,-3.1823,-4.8151,-5.2607,-2.9831,-4.2337,9.0331,3.4777,-1.5023,
-3.0359,-0.8403,2.1729,-3.119,5.8471,4.3294,2.311,1.7406,-2.5347,-0.39376,-1.5693,11.8653,-6.3721,-2.3763,
1.2438,0.89712,2.7657,-3.655,14.4141,6.7209,-0.96091,1.3949,-4.552,-3.5039,-1.2344,6.0919,-1.8924,-1.0286,
3.5793,7.1103,6.4561,-4.3995,11.6215,3.4256,1.0249,-4.4729,-4.7608,-4.2575,2.2141,-4.3965,3.524,-2.8951,
4.0879,4.514,7.2741,-1.0025,7.7905,0.56852,0.72248,-7.338,-4.2342,-3.7611,-1.0517,-9.1944,0.66099,-8.265,
2.6374,-0.3361,2.2579,0.74484,7.0821,1.2578,0.9201,-2.8004,0.59911,0.080012,-2.6759,-4.0634,-6.3683,-2.2255,
0.068756,0.64816,-9.9289,-5.5666,1.8365,1.1821,-2.5098,-0.70438,-3.293,-1.8532,-1.0693,2.9291,-7.4325,-1.1279,
1.9926,3.9835,-12.7074,-4.2685,2.2084,2.0752,-1.877,0.78391,-5.5058,-2.2237,-0.52343,7.5738,0.72648,-1.5424,
-1.5007,-1.5579,-1.8218,2.7367,-5.6366,-7.2081,-0.31793,-0.70869,1.5737,1.2839,-0.0093979,2.7813,-8.9581,2.4068,
-1.8931,-0.98252,0.21566,1.1263,-10.1189,-7.7395,-3.6733,-3.0763,0.9969,0.72495,1.9194,2.1325,-13.723,2.7448,
-0.81562,0.52269,-7.0281,-2.3158,-5.1737,0.91916,-6.3454,-0.48205,-3.4017,-0.7648,-2.0526,6.8248,-7.1155,-3.2049,
-2.4535,-3.1241,-4.9192,-0.97151,-5.104,1.1054,-6.6876,0.75216,-2.4742,5.789,-5.0625,10.5126,-7.4112,-4.6994,
-1.3426,-1.9725,-5.1062,-3.3236,-4.3158,-4.2638,-5.8042,-2.6672,-3.2899,3.9952,-0.90261,15.6662,-0.70029,-0.079363,
-0.53892,-0.64913,-18.8998,-4.3297,-2.3699,-7.1412,2.4976,-2.2664,0.52271,0.62223,8.5518,13.5212,13.4417,4.0225,
-4.6039,-2.7793,-31.8659,-1.4184,-3.9147,-5.9894,3.553,-1.4071,0.73277,0.82586,7.7977,7.1668,14.4432,-1.28,
-0.95302,-0.68416,-27.7845,2.0414,-1.2694,0.63674,3.3401,1.5696,1.6529,4.151,7.3296,17.3418,6.8279,1.689,
5.3707,-0.16118,-12.6203,-0.97357,0.73493,4.9369,2.6573,-0.45273,1.5537,-0.43685,3.0334,21.1216,6.9002,8.8185,
6.2535,-0.87464,-18.8527,-3.5665,8.1626,10.1845,2.2571,-2.595,-4.0833,-5.4721,2.6107,11.4188,17.3326,6.6024,
1.5397,-4.6788,-21.0958,-3.8347,9.1189,8.1269,4.0496,-5.8135,-5.2844,-2.7334,4.382,3.9846,15.8101,0.42148,
4.8218,-2.4699,-10.1891,-0.23013,7.6077,3.301,1.8785,-3.0545,1.7816,0.80505,-0.21922,0.85343,12.9337,-0.56768,
7.6658,1.294,-4.5163,3.3989,7.3922,2.3798,2.007,4.6008,8.6643,5.3358,5.3373,-7.6337,14.8086,5.0098,
0.45713,-3.6041,-10.994,-1.6255,4.0564,-4.5117,2.3687,0.4681,2.3597,5.4978,7.9094,-14.4067,0.90486,5.1913,
2.1172,1.1916,-18.7703,-6.5895,11.285,0.33856,1.0215,-2.2113,-5.7359,0.1065,-3.4112,0.55768,-6.1393,-0.18205,
5.8463,4.0124,-19.0901,-5.7119,13.9821,6.1026,0.47806,0.33172,-3.9452,-4.7204,-11.8834,4.0194,-2.3965,-5.4735,
7.6647,3.5302,-11.9191,1.1383,9.5278,5.0135,4.5467,5.373,0.87077,-2.7499,-3.2167,-10.3218,6.6654,-2.494,
4.7949,3.3187,-10.2399,-1.8223,4.1356,3.2667,3.3098,0.23063,-2.5557,-1.6208,1.3149,-14.1617,1.445,-0.8979,
4.5072,0.70942,-9.6255,-5.087,12.5646,4.0346,0.21918,-3.6396,-4.3306,-1.0416,-3.5847,0.78797,-11.1752,-4.2185,
9.7804,-0.53844,-11.699,-7.9152,25.9107,6.926,-5.3376,-1.7344,-9.1324,-9.4148,-11.3234,5.1997,-9.2994,-9.9909,
16.6651,7.9298,-9.792,-11.5379,38.4561,10.608,-4.2942,-1.8711,-10.2715,-12.4651,-12.331,-4.512,-3.68,-8.6683,
29.7652,21.554,-4.6252,-11.5685,50.2487,19.3715,2.9529,-2.9641,-10.3785,-9.5481,-11.8321,-16.5338,-2.2539,-8.8716,
42.0793,34.3607,-0.49133,-8.4643,61.3338,32.3092,8.5603,2.9983,-15.5404,-11.8677,-13.5327,-17.47,-1.6367,-13.1596,
53.6546,46.3991,4.5998,-10.1256,71.7538,44.4707,5.8775,9.3263,-15.8128,-17.1812,-12.9617,-13.7702,-9.4923,-13.0929,
64.5353,57.7152,7.4571,-10.2412,81.5485,55.0586,2.3916,7.5617,-18.4797,-19.766,-15.3173,-15.1134,-10.6102,-10.1384,
74.7632,68.3522,8.2147,-13.2419,90.7556,51.9963,8.7558,0.11788,-27.735,-25.5696,-28.4983,-28.3066,-21.3016,-17.0021,
84.3774,78.3511,12.5426,-17.2681,99.4103,54.1787,17.389,2.5209,-27.9991,-26.928,-31.2476,-25.2829,-29.1827,-24.6586,
93.4147,83.2908,11.5488,-15.9908,107.5457,59.8463,13.6948,9.3598,-21.2577,-21.6967,-19.9725,-11.4736,-16.5855,-23.4203,
98.0535,78.0526,7.2407,-11.4162,115.1929,50.2297,7.3293,2.7724,-17.8128,-19.1898,-21.9074,-24.8852,-13.9029,-19.3638,
89.2777,68.0668,3.9137,-7.8387,122.3814,43.3595,7.8539,-5.1067,-17.7079,-19.0023,-27.3417,-37.4921,-12.5868,-15.3094,
81.029,55.7881,1.7507,-5.4402,129.1385,43.1681,16.0597,3.3944,-9.4151,-10.1494,-15.0961,-21.1426,1.1838,-7.16,
62.0673,38.3408,-1.9697,-4.8728,135.4902,28.2859,14.8547,8.2524,-3.3066,0.82347,-6.2366,-5.774,9.5485,-4.0793,
44.2432,21.9403,-3.2976,-3.6163,141.4608,12.4888,4.8046,1.491,-4.5542,2.7025,-3.4521,8.5522,12.3502,-3.3524,
27.4886,7.3673,-5.7508,-4.6047,135.1423,-2.3605,-2.4735,-6.0707,-2.5937,-3.4852,2.2987,-1.8429,8.9577,-1.464,
11.7393,-7.1747,-12.6369,-3.8462,112.9337,-16.3189,-9.0738,-7.6349,-1.474,-2.7944,-2.6597,8.8727,-0.25665,-0.41255,
-3.065,-20.8442,-8.0223,1.2048,92.0577,-29.4398,-8.5294,-3.8024,3.9171,6.5323,-1.0539,18.9457,-3.6157,2.5047,
-16.9811,-28.0295,-2.2383,4.507,72.4342,-31.2888,-6.5713,-2.6099,9.4666,9.9967,12.5067,16.8446,10.7012,4.765,
-30.0623,-32.373,-11.5037,2.0676,53.9882,-33.0271,-12.2028,-1.7302,9.1394,9.1562,17.7821,29.9339,24.1592,7.6124,
-42.3585,-40.0719,-11.2957,4.3535,36.6489,-28.6351,-7.1321,3.1941,10.5194,16.8013,15.7511,33.5608,23.1915,13.4224,
-53.917,-36.9446,-4.5924,8.1901,20.35,-22.8197,-4.0531,1.3152,10.1292,15.5523,12.6364,17.4471,22.0415,12.3756,
-64.782,-34.7277,-5.7629,10.1086,5.029,-24.3428,-7.1841,-1.174,11.9318,10.281,14.7705,17.7261,28.9135,11.6333,
-69.5722,-35.2956,-7.5863,11.6717,-9.3728,-21.195,-8.4403,2.9938,8.0824,9.9051,13.6433,19.796,28.8659,10.2119,
-68.7721,-27.8752,-6.1672,7.1145,-22.9104,-8.8361,-9.3802,7.6349,3.2592,8.3465,12.3428,12.3413,32.9185,6.7072,
-74.0457,-31.2642,-7.0023,5.4826,-35.6358,-17.7057,-4.7198,3.5616,9.5713,7.1226,13.7716,13.7702,23.4718,14.7406,
-64.3006,-35.1727,-10.4385,8.5283,-47.5976,-27.7308,-2.5082,-2.9189,11.8893,9.1056,10.5349,22.1032,14.3505,23.4974,
-52.7295,-32.0982,-7.4021,2.7137,-58.8418,-18.8359,-3.3218,-6.6003,6.8374,9.0414,9.4207,19.3306,15.8998,15.8208,
-50.0479,-31.6186,-1.1734,-0.82353,-69.4113,-12.4035,-0.23039,-3.7942,6.9091,5.6064,12.7118,13.8324,8.6793,5.2301,
-41.9836,-20.8036,-1.3442,3.8054,-79.3466,-7.5617,0.50656,3.4231,7.2177,4.065,12.1903,21.4384,12.7376,5.1575,
-40.1875,-18.8325,-4.3965,3.8185,-88.6858,-8.7953,0.2352,-0.39725,7.0256,5.5083,6.3972,16.0547,19.4456,7.0172,
-43.3201,-28.5486,-2.9277,2.8658,-97.4646,-14.7753,-3.3946,-6.3992,10.2193,7.8291,6.7365,0.99143,10.8069,5.3911,
-39.9975,-26.1123,-3.9569,-0.43918,-105.7168,-17.0218,-3.9138,-5.7743,7.4374,5.1902,8.9834,3.4626,7.0254,1.4523,
-38.0798,-19.2432,-10.4681,-5.7152,-113.4738,-15.5188,-1.2686,-4.4637,3.6165,4.8786,7.9627,17.3548,13.8345,0.88341,
-37.2413,-22.9093,-11.7687,-2.4803,-110.7629,-10.7312,-4.085,-2.7496,4.8458,6.0321,6.0387,25.3521,8.6657,3.7225,
-28.0167,-19.8473,1.7121,6.1049,-99.0555,-4.5435,-0.22426,4.4054,12.027,12.1779,10.7378,25.036,1.1565,8.561,
-28.2641,-15.7644,-3.6933,-6.3129,-94.0762,-10.0555,-5.0315,-2.6078,2.1464,4.6988,6.2372,21.1237,8.3175,0.33413,
-21.5068,-9.2749,-7.569,-8.5853,-80.4779,-1.9804,-1.5961,0.68171,-0.15156,3.2116,8.0321,29.2563,21.9185,7.7859,
-25.0369,-13.0567,-5.1867,-5.1781,-73.7211,-1.8615,-3.911,-0.32306,1.7853,2.0545,2.7294,21.2339,19.2778,6.3549,
-25.4629,-11.7914,-3.9116,-6.7956,-65.4414,-1.2679,-5.1221,-1.268,-1.2139,2.4137,0.63794,19.478,20.5313,-3.6674,
-18.3913,-10.8425,-5.8461,-8.557,-61.2737,1.9416,1.2108,1.4596,-1.382,4.9199,7.1071,22.4071,21.951,1.1319,
-19.6984,-12.1206,-4.531,-5.6335,-59.5257,-2.5136,-0.30813,0.40772,1.111,1.7322,6.1988,11.4213,13.885,7.8129,
-20.2035,-7.2958,-1.1259,-1.1979,-50.4103,-3.5674,-2.9405,-3.2319,1.7675,1.8695,5.1037,9.049,16.6675,7.5854,
-17.304,-8.5452,-5.1557,-4.7414,-50.5192,-3.1129,-3.4874,-8.0997,-1.954,2.4802,6.4847,20.3162,16.3904,1.1042,
-12.8914,-7.0682,-2.9181,-5.9032,-45.0779,1.4127,-3.7601,-5.6855,-2.8006,1.8495,6.0956,24.3998,18.299,3.4481,
-15.0104,-7.1265,4.0054,-2.1746,-41.8911,0.84553,-2.5706,-1.9699,-0.70439,0.29224,1.8735,8.8359,8.042,6.1337,
-16.0382,-8.1452,0.39062,1.3299,-45.1624,-2.0973,-1.4525,-4.2623,0.30174,3.1672,0.31485,-4.5895,0.81108,0.46306,
-14.1116,-3.7998,-5.4172,1.7323,-42.9346,-3.8998,1.5274,-5.9345,2.2121,3.9413,1.2601,-1.4213,10.4036,-3.9033,
-14.9521,-6.223,-2.441,2.3517,-46.3841,-7.7632,3.6049,-1.9631,4.7304,0.089389,-0.98471,-8.3259,-0.103,-2.4638,
-6.3422,-2.9575,2.0442,5.5851,-43.601,-0.54851,-0.4678,5.3856,4.4466,2.0122,1.0026,-4.4519,-5.8814,2.5043,
-7.4077,-3.7442,-3.3813,0.42901,-40.503,-2.444,-2.8501,-0.24044,2.7338,2.3736,1.9065,3.0458,2.1845,-0.056316,
-15.3991,-11.9552,-3.4194,0.6447,-45.5447,-14.1075,1.4183,-5.2872,3.2927,1.9903,-1.3414,2.1401,-1.562,0.18849,
-9.8957,-7.6225,2.3294,6.1496,-38.7144,-9.6456,1.5741,0.57361,4.3004,6.9321,0.42634,3.2166,-4.1194,7.1671,
-3.2766,-4.5142,-2.3899,1.2007,-28.92,-2.0773,-2.1355,0.298,1.391,5.793,-1.2867,-3.4841,-0.73941,3.6033,
-4.5261,-4.2432,-6.1027,-2.2456,-24.2922,1.904,-1.5252,-0.68398,-2.549,0.14302,-5.0656,-7.6132,1.7153,-3.3616,
-7.1468,-2.5425,1.4941,5.1202,-26.6913,1.7895,0.012336,4.1775,1.9425,0.13466,0.058773,-4.2646,-6.1002,0.69675,
-5.0307,-1.1847,6.4657,10.8385,-32.0795,-3.3795,-0.22937,4.1679,10.744,6.6341,8.9733,-5.2135,-9.832,7.6444,
-10.7544,-7.1392,-7.6601,-1.6219,-33.288,-7.756,-5.2773,-5.9641,0.69933,1.1748,2.4094,-14.3007,3.0505,-4.142,
-9.3863,-6.4701,-5.0316,-4.6583,-23.337,1.6272,-2.3093,-4.8832,-2.4759,-0.58314,-1.3508,-10.7913,10.3395,-4.1347,
-7.3768,-7.046,3.4652,-1.0041,-18.0804,2.0117,-8.9194,-2.6622,-2.8095,-1.5123,-3.6802,-6.2877,-2.3322,-0.99434,
-7.4162,-4.695,6.6318,2.4306,-15.0671,-1.9654,-6.4561,1.8363,0.73353,4.845,1.3614,2.2847,0.69979,3.886,
-13.7201,-5.8596,2.377,0.3561,-16.0915,-1.8475,-1.7304,-0.68447,-0.75674,4.0724,2.7259,5.0397,5.9604,5.5806,
-9.0405,-4.5439,0.30644,-3.0395,-6.4491,3.5658,-5.4827,-4.0176,-4.568,-0.51053,3.0446,3.7732,-0.66392,2.3535,
-4.8824,-3.0657,5.3495,-0.68773,-4.8569,1.1829,-5.395,-1.1252,0.76803,4.0996,4.0669,-1.9966,-5.6855,-1.4029,
-9.41,-2.8818,1.6545,2.728,-10.832,-2.2625,-3.1431,0.38853,3.614,6.7462,-1.9617,-1.3948,-1.488,-1.8007,
-9.3278,-6.0836,-8.5683,-1.2923,-8.2541,1.2475,-5.3648,-3.0095,-1.9052,0.07465,-4.7367,4.9556,-1.8809,-2.6572,
-4.4295,-10.5388,-4.6798,-2.661,-7.2767,3.1008,-1.6685,-2.3465,0.13726,-0.41176,3.2607,2.2481,-8.9989,-1.0515,
-3.1994,-7.9781,-1.0243,-0.091012,-14.0709,0.5044,-0.6043,1.6509,4.4676,0.095106,5.4754,-3.1896,-13.279,0.45808,
-3.7306,-1.4741,1.6885,4.012,-18.7703,-1.6948,-0.80878,3.7208,9.7429,4.6685,6.352,-0.82885,-6.4569,3.5638,
-2.3015,-2.1085,2.7925,1.1202,-14.5106,-3.7623,-3.8937,-1.0818,3.6152,5.5936,2.3554,-2.4663,-2.4541,-1.2293,
7.2364,1.6334,3.3478,1.7759,-0.38358,2.489,0.43724,0.18845,-0.21715,3.5708,1.4912,-4.0056,-3.9941,1.0136,
5.5971,-0.63398,-0.95064,-2.4282,-0.60176,-0.31165,-1.276,-1.0284,0.036613,-1.223,-0.28571,-8.8267,-1.1031,-1.6985,
2.61,3.0192,1.7577,-2.0413,-2.7348,-2.9443,-4.8151,-0.24355,-0.20678,1.5017,-0.027373,-4.1995,4.9889,-4.7298,
8.9613,7.4178,8.6421,4.5886,-3.7758,0.36587,0.053572,4.8327,1.0109,7.4372,2.6254,-3.2247,-9.4105,1.0976,
10.1109,7.2137,5.4721,3.5904,-1.862,1.0668,-0.19061,2.3736,-0.73696,4.3399,1.7449,-9.0567,-18.3661,2.2365,
2.9963,6.058,2.9746,-3.6149,4.7572,-0.20248,-6.2052,-2.8305,-3.8262,-1.9461,-1.4932,-8.2723,-3.1641,-4.8875,
1.1295,3.5251,7.8575,-2.1929,0.85657,-2.8417,-5.1097,-4.3476,-0.94533,0.822,-1.1625,-7.0529,0.27923,-4.835,
1.3027,2.5907,8.1095,1.5541,1.5283,-0.98393,-2.1516,-3.3639,-1.1296,1.0136,1.5584,-6.8707,0.021507,2.445,
-1.186,0.024703,5.6942,-1.4317,7.7031,-0.44296,-2.9868,-2.6801,-1.0618,-3.8679,2.9111,-12.7254,0.98408,0.36961,
8.2853,1.7107,10.4145,3.2342,9.4101,1.753,-0.63823,1.5783,4.0634,0.46177,4.9059,-18.4696,-2.6902,-1.3396,
8.2704,3.0541,9.3075,3.0399,7.3995,6.4688,-2.5279,0.51947,0.92772,4.7726,0.7549,-15.433,-1.5646,0.1873,
-0.17958,3.5942,8.508,-2.6861,10.5709,7.7674,-4.5458,-1.6809,-3.2258,0.38891,0.95057,-7.0352,-2.1937,-1.5112,
6.8206,8.4398,8.7205,-3.2478,16.4444,8.5067,-5.9603,-1.339,-3.7551,-4.6961,1.1345,-2.9977,-8.57,-5.0359,
11.2316,8.8972,7.2334,-4.0173,11.1192,6.0681,-4.1564,-3.6693,-3.5298,-3.4505,-2.79,-10.0487,-10.4659,-4.2518,
6.7018,7.3995,8.7276,-4.2582,9.9701,5.222,-2.4608,-0.5566,-4.2823,0.13101,-2.6226,-14.7484,-5.4996,-1.5866,
9.9149,8.6426,4.5883,-5.2078,19.2538,7.0777,-5.4464,2.6101,-6.6767,-0.59998,-2.224,-7.8377,-0.59014,-6.5528,
10.2841,4.2678,1.4207,-3.4493,16.1701,2.3144,-3.1917,-0.92078,-3.8658,-1.5281,-2.0908,-7.8496,-10.1959,-10.9802,
9.6673,4.9759,8.0841,0.13191,10.8616,2.1758,-2.518,-1.8296,-1.7054,-4.3287,-1.4832,-11.7172,-12.9584,-6.4652,
7.3998,7.3286,9.7684,-1.563,7.0767,1.3221,-5.5002,-3.8892,-5.2187,-5.274,-2.1173,-2.5782,-7.1194,-1.9797,
3.5813,1.5863,7.7361,-0.022966,1.3496,-4.0598,-0.34991,-4.6198,-1.5311,1.7913,-2.4722,3.8434,-9.5843,-0.89659,
5.5359,-0.67829,11.8514,5.0399,4.8841,-5.9852,1.3585,-0.24498,2.6583,2.407,0.32744,-8.6795,-7.8042,-1.084,
9.3011,2.9778,23.9148,6.4247,11.5807,-7.3133,-1.8565,0.010683,2.7398,-1.3529,1.995,-22.2587,-1.7923,0.18634,
7.7787,4.7274,25.372,7.485,11.8497,-8.8032,-0.7812,-2.4005,1.6111,-0.30783,-1.4991,-22.4902,0.24339,-1.7535,
4.902,2.9977,23.368,12.3388,5.3544,-4.9003,6.4967,3.5283,6.8173,2.121,1.4831,-18.7304,-5.556,-1.648,
1.4744,0.16673,24.617,12.8038,3.3459,-4.3653,4.9016,4.5219,7.1311,2.7166,4.0452,-20.7398,-16.0687,-1.3082,
5.2426,4.9772,21.212,10.1076,14.7145,-4.5851,0.75139,-1.0518,-0.045406,0.14374,0.42827,-13.2285,-10.2839,-0.74754,
11.1945,6.1248,19.4573,11.9112,13.8314,-8.1668,6.009,-1.4711,2.8498,-2.7574,-2.0075,-10.0246,-1.9541,3.1537,
10.0409,2.8648,21.6639,10.7142,10.5914,-9.1226,6.1303,-1.3829,5.5709,-2.11,0.041097,-16.654,-1.3549,1.0363,
7.992,2.6927,18.4356,3.8046,14.294,-4.7191,-0.50422,-4.1922,1.862,-0.055458,1.4847,-19.9933,-10.4328,-0.95432,
11.1281,0.84415,16.1249,4.2994,13.1956,-9.4974,0.24917,-6.592,3.9196,1.1534,1.6368,-19.0349,-18.2426,-1.1378,
12.8706,0.7935,16.1213,5.4877,18.1887,-8.9276,0.71615,-7.1608,3.6845,0.11986,2.0205,-6.8056,-6.5429,-3.962,
7.0369,0.50469,13.467,3.4715,19.7487,-2.8485,1.3963,-3.5974,2.7407,0.8358,1.1761,-0.8534,-2.0528,0.85519,
4.6867,3.3672,9.7667,5.1911,19.0455,-4.6056,0.83037,-1.4536,2.5761,1.2678,-4.1968,-3.2126,-11.0886,2.2504,
7.0566,6.2982,10.386,3.6748,21.5182,-7.9447,-0.90622,-3.5355,0.73426,-0.49548,-2.2578,-1.3326,-15.4848,-1.982,
6.151,0.61785,8.7983,2.0079,13.4784,-11.3246,1.558,-5.7338,2.6182,-0.94791,6.5545,-2.6991,-12.6277,1.5107,
3.854,-1.3476,4.8961,6.2259,2.5468,-12.5731,0.50047,-6.3538,4.3895,0.073516,3.269,1.3195,-7.5313,2.8665,
1.9358,0.9026,8.7,11.3962,-2.6677,-10.6136,4.0861,-3.8032,6.2955,3.6843,-2.4705,0.51716,-12.1409,0.043211,
1.5782,1.0894,9.8647,13.8455,0.62564,-7.3257,6.492,-0.442,7.605,3.7042,0.81071,-9.878,-13.5818,-0.68274,
-1.8907,-1.8682,5.8986,8.1943,0.10617,-9.2963,1.282,-2.3434,5.2203,-0.8566,4.1363,-7.3571,-7.4642,-1.1235,
-2.9826,-1.5152,10.1244,7.9436,-5.926,-10.9077,3.3743,-2.4438,6.5943,1.8459,4.6115,0.55614,-11.5959,2.0774,
-3.7675,0.98586,9.0346,7.467,-1.7138,-5.4327,4.1361,-3.7434,3.7885,2.6995,-1.9322,1.969,-8.972,0.024576,
-6.1928,0.20381,5.3595,4.8498,5.8608,-1.9733,4.6109,-3.7598,5.7304,3.7428,-1.5748,4.502,-3.3722,-0.21786,
-4.8571,-0.77252,5.5201,4.559,2.6169,-5.2294,2.8882,-2.5701,4.4224,-0.33839,-2.9264,4.2321,-8.9542,1.2412,
-3.1196,1.684,3.7426,4.7674,2.4596,-2.5052,-1.1415,-1.934,-3.5557,-4.6564,-6.1257,6.8702,-2.6326,-2.2077,
-3.8963,0.61905,-1.7846,4.9633,7.6147,-1.3911,0.85518,-3.7461,-1.4141,-0.52064,-2.3837,5.0122,-0.06406,-2.5572,
-1.2526,2.0279,-9.3905,5.1477,14.3887,-0.34349,0.80364,-2.5573,1.563,0.95663,-1.2766,0.37293,-1.5067,2.4168,
-3.8286,1.6653,-13.8883,-0.22287,9.9099,-0.081915,-0.44941,-2.1629,-2.1462,-3.6801,-4.333,0.59152,1.7172,-1.3437,
-3.8401,1.3242,-7.5116,-3.3428,1.8435,1.1281,-0.66364,-3.7201,-2.7406,-1.7723,-4.7962,4.1712,-0.073305,-7.2888,
0.48769,2.45,-6.82,-0.97303,5.83,2.7476,-5.6855,-1.3277,-6.6735,-1.425,-4.7498,9.4646,-8.0226,-2.2722,
-0.9876,0.85699,-5.4467,2.4596,1.6241,0.17285,-2.4521,2.1266,-5.309,-4.2317,-2.5364,6.9687,-15.2541,-1.1713,
0.035983,1.2875,-0.78109,0.8662,-1.3654,1.6087,1.5519,1.0347,-3.0622,-3.9778,-1.4199,2.6942,-10.4822,-9.7781,
4.6133,4.3435,-0.49348,-2.8014,7.6343,5.1274,-4.0851,-1.1968,-5.5298,-1.5698,-2.0583,6.1477,0.028434,-9.9146,
0.47992,2.1549,2.9108,-2.6331,9.5866,4.8195,-7.2142,-0.6428,-6.1621,-0.99343,-2.8984,13.4919,1.9552,-3.053,
-2.9231,1.5435,2.7359,-5.3679,5.6368,9.3508,-5.8177,2.77,-6.2746,-3.3442,-5.6173,18.4667,-0.57251,-4.3163,
-0.57855,0.24558,-3.4538,-7.215,4.5756,7.585,-4.2633,1.8809,-5.1747,-1.9387,-4.5569,11.3332,5.0055,-4.7802,
0.66123,-4.3487,-5.4159,-3.1664,8.8806,-0.34217,-4.2487,0.080582,-4.6235,-2.0631,0.77798,-2.121,18.8051,-0.39581,
2.0676,-1.6774,3.5859,0.3978,9.3119,1.1244,2.2729,5.3786,0.47438,-2.4215,2.1773,-4.4041,20.2077,3.0022,
-2.6358,-0.85385,3.6117,-5.1697,-1.1292,-0.14837,-0.99693,2.8863,-4.1334,-2.0352,-6.8714,-3.417,4.8952,-4.1678,
-1.9954,3.5359,-1.9074,-5.8236,9.5441,4.6815,-8.1673,-0.66065,-8.7059,-0.94902,-2.1201,3.0548,12.1938,-5.8457,
-0.67089,2.6009,-3.4802,-2.8226,16.4432,6.0878,-6.4724,-1.3444,-5.05,-5.9533,4.5146,-3.1541,19.8978,-3.3258,
1.2976,3.4087,-2.7895,-3.1357,10.154,3.312,-3.6739,-0.29985,-1.855,-6.5604,-0.095053,-4.893,14.3656,-5.0545,
0.25584,4.1685,-1.6578,-7.2858,7.6165,3.5956,-2.4892,-1.2457,-3.6718,-3.2743,-2.9814,6.0059,20.7345,-4.2688,
-5.0622,-1.3843,1.3342,-9.2588,8.1239,5.79,-1.8579,-1.171,-8.2718,-7.8985,-1.3563,7.0918,21.4187,-2.0845,
-5.9637,-2.5065,-1.3974,-11.8368,12.2157,9.058,-5.8438,-0.37782,-12.3552,-10.5581,-3.926,3.5328,12.1798,-7.0211,
-4.4008,-0.66865,-3.001,-9.9215,9.3134,6.3452,-5.7343,-0.11395,-5.5881,-2.935,-3.9316,2.5977,7.8334,-7.323,
-4.8597,-0.38757,-1.1337,-4.7465,2.2471,3.7953,-4.6669,1.5801,-2.1198,-0.58927,-2.0085,1.7185,7.6043,-1.34,
-3.3628,2.2868,-2.2705,-4.2207,4.7634,7.183,-3.1821,2.6901,-3.6799,-3.2055,-1.1651,0.41052,4.497,1.3915,
-0.027787,0.46258,-1.4116,-2.2805,2.3082,3.6188,2.5522,0.3598,0.15658,-0.36181,0.10988,-1.3016,1.5758,-2.3076,
2.143,1.6401,-2.5318,-2.3846,0.00099822,3.1607,-0.25153,-1.349,-1.54,-2.0269,-0.61961,4.3206,9.9174,-2.8916,
-1.119,4.6747,-2.6208,-8.2671,-0.72242,3.6939,-6.7444,-1.509,-6.9913,-7.9313,-1.7877,0.92788,8.599,-5.3697,
1.8404,8.7328,3.8032,-4.3968,1.7313,6.8465,-4.4117,3.402,-1.7513,-1.1886,1.6942,5.2103,4.7088,-5.5296,
2.2126,9.6553,0.20076,-4.6147,-0.78295,7.4003,-6.075,4.6439,-5.0204,-1.1171,2.0747,17.9133,3.9442,-4.7157,
-5.8744,4.0143,-4.391,-7.4713,-4.8333,3.8228,-9.3259,0.74984,-7.8527,-6.5937,1.7088,11.2949,3.9485,-1.7817,
-10.3421,0.88094,-5.5738,-7.505,-1.6513,2.1472,-9.7302,-0.25902,-8.3454,-6.6805,-2.2501,-1.4339,8.5323,-4.0849,
-7.7937,-0.13601,-7.1674,-6.573,-2.0344,7.3207,-7.2185,4.0946,-6.3987,-2.423,-4.0431,2.5083,7.5382,-7.214,
-4.6747,0.59528,-9.8706,-5.4555,-2.153,10.9791,-4.616,6.0183,-3.3634,-2.5188,-3.0778,9.3475,4.9165,-4.6123,
-8.974,-1.1277,-10.4836,-6.8154,-5.1573,3.8124,-5.5443,0.59555,-3.885,-7.9113,-5.5442,3.243,3.8986,-0.23816,
-6.5069,-2.9882,1.2326,2.2706,-10.1503,-0.27228,3.9474,1.5241,5.5076,1.7224,0.57301,-3.2181,-0.1917,7.4894,
-4.1885,-3.773,-0.76977,1.1699,-4.721,1.672,1.3002,-0.97766,2.7664,2.5832,1.0203,-4.9534,0.30151,2.701,
-10.4447,-3.3057,-6.7491,-6.8536,0.14197,2.777,-5.7677,-3.5701,-5.3534,-5.5256,-3.6202,-2.4866,2.935,-1.076,
-8.372,0.7493,-2.0056,-2.1043,-4.2051,1.6463,-1.0831,0.98266,1.7165,0.10838,0.45365,5.3751,-0.13342,6.2191,
-0.88,0.94508,-9.3569,-1.7369,-5.64,1.7882,-2.2232,-0.76376,0.89085,5.1633,1.1496,8.1863,2.044,2.2308,
2.7882,-1.2808,-12.8933,-5.73,-2.6503,3.3682,-2.8127,-1.4408,-3.2604,0.75617,-1.5705,3.1154,4.5724,-3.4467,
4.5491,3.6168,-8.2633,-3.458,-1.527,7.0225,-3.1263,6.3584,-3.0648,-3.6275,-0.030475,2.9285,3.3342,-1.7936,
4.5174,7.015,-8.9726,-3.0093,-3.1228,9.2524,-3.1795,9.1101,-0.71151,1.1696,2.1407,8.7786,3.8573,-3.3734,
7.6208,7.5584,-7.4699,-4.275,4.2954,11.5898,-1.0605,7.1177,0.77744,3.9915,4.4224,10.662,15.677,-6.545,
7.6452,7.5866,-7.5038,-6.4289,14.6428,14.2687,-4.3716,4.7622,-3.6078,-2.0323,6.5674,9.5401,24.3771,-3.2605,
0.4383,4.2396,-8.4996,-7.0072,4.6054,9.5564,-2.1808,1.1023,-5.3193,-3.8383,7.1375,7.0397,13.2737,1.2741,
1.6166,7.118,-7.7489,-5.3817,-2.661,10.1876,-0.36299,3.2051,-2.8312,0.0066934,5.5042,11.1964,11.7542,2.8847,
6.0991,9.3422,-10.4173,-4.3357,3.0425,14.1559,-3.4745,7.1104,-3.3844,0.24749,4.4508,12.2121,13.7002,0.059828,
3.0819,5.6484,-10.9973,-4.7987,3.583,12.1014,-4.953,4.5143,-4.8684,-1.9368,4.9069,10.7562,5.4062,-0.66643,
0.24562,8.4428,-9.6143,-5.7158,6.9833,16.9187,-5.3789,2.5565,-6.2637,-0.61548,5.8175,17.5824,15.9278,1.5425,
0.95447,6.2492,-11.2064,-4.1678,4.8773,16.1453,-5.2969,4.0906,-4.2004,0.14504,4.2634,15.8048,20.5165,-0.23706,
1.6199,1.2948,-9.3289,-0.7845,-0.95876,9.6327,-5.7023,7.9422,-3.2253,-2.0331,0.87435,11.2413,6.5108,0.50029,
-1.3694,6.0378,-2.5027,-2.6656,-2.3475,10.501,-7.2888,5.5375,-5.9243,-3.8393,0.82189,10.5664,7.084,3.3628,
-1.2877,7.1213,1.5039,-6.3621,-2.689,10.8348,-6.8515,-1.5436,-5.0869,-4.0913,1.7364,6.076,17.2643,-1.1778,
5.2975,6.9355,0.69027,-6.7032,8.801,13.8001,-3.7888,2.1644,-2.6121,0.25199,2.8375,12.7013,18.3976,-3.2762,
0.40016,4.3499,2.3363,-6.0603,7.5498,8.3926,-3.3207,2.7577,-3.6609,0.47761,1.9442,3.0214,3.1937,-2.3565,
-1.793,3.848,9.6679,-2.5632,0.58885,2.8278,-3.8444,-0.54128,-2.2359,-2.2021,2.5504,-11.2599,0.23052,-4.3843,
3.8582,5.3043,5.4724,-2.6504,7.0615,7.2375,-2.8908,1.1784,0.0674,-2.311,3.6027,-5.6433,14.3167,-7.2547,
4.3496,5.709,0.082415,-4.1786,11.2171,12.8288,2.3443,3.7593,-0.65954,0.9607,3.6275,8.7953,18.1577,-3.686,
5.5349,11.151,0.07747,-4.4098,11.5084,12.5414,3.168,1.6055,-4.4764,1.3855,0.51778,19.475,2.9682,-0.57229,
6.1669,11.928,0.55499,-4.6274,9.3714,8.4143,3.942,-0.41923,-4.208,0.33823,-0.95978,8.1839,-6.2484,2.8363,
1.9407,5.9099,0.039981,-5.7958,5.9173,6.9453,3.7057,-1.3577,-3.9553,-1.61,1.5082,4.8006,6.1778,-1.6725,
3.7525,2.6632,1.4834,-5.448,6.0442,8.9392,1.5547,0.16955,-5.1642,-3.924,4.7921,11.7429,16.8944,-4.9466,
2.3223,-2.558,3.0818,-5.8443,2.5482,0.93079,0.73875,-2.4919,-4.6132,-2.9654,1.8533,8.8694,3.5884,-1.9984,
-0.46864,-2.646,6.03,-3.8064,2.1539,-2.2585,-1.4752,-2.5834,-3.1316,0.34551,0.53679,0.86542,2.6498,-0.67324,
-2.8509,-3.9332,6.6323,-1.65,1.0606,-1.1589,-2.3508,1.9102,-1.9796,-0.63931,2.433,-3.0431,6.3474,-2.5613,
-1.4743,-2.9741,7.9218,-0.82791,1.2382,-0.36627,-2.9329,3.0006,-2.1015,-0.84169,1.5639,-1.1731,-4.3976,-2.1664,
1.9882,3.4709,10.8205,-2.7064,1.1639,3.0302,-2.275,-1.0358,-4.386,-0.79119,-0.94052,-2.5494,-6.0619,-0.10822,
-0.54126,-0.11139,10.6536,-1.5797,-6.6187,-7.7565,3.1646,-4.8301,-0.74841,-2.19,-1.848,-13.0013,1.0507,-1.0661,
-0.99072,-2.9972,6.158,1.4071,-5.7397,-14.04,2.0104,-4.0583,1.2247,-0.13039,-1.7371,-9.3287,4.8441,0.9261,
0.27378,-4.0225,1.209,-0.3643,-5.1541,-5.2436,-4.136,-6.4661,-1.9821,-1.3276,-1.3917,-1.2974,-3.4005,-0.81646,
3.1496,-2.3351,1.1363,-1.3065,-7.2552,6.6399,-3.8876,-2.7035,-1.8629,-2.2121,0.6198,-2.6656,-2.7144,-1.2496,
4.4065,5.0354,2.0319,-4.6026,-3.9278,16.8464,-7.5112,1.7966,-3.6798,-1.5974,-1.8275,-1.5418,4.197,2.1998,
3.6601,6.1795,3.8382,-8.1828,-9.4768,19.21,-7.5424,-1.6852,-4.9053,-3.9117,-1.7179,-0.96733,-6.1782,3.0317,
4.6461,5.0861,-3.3813,-6.9687,-9.6308,18.2986,-5.8844,-2.3072,-4.3693,-6.3283,1.0365,-1.15,-7.9765,-0.76542,
5.8133,6.227,-4.6249,-2.2121,-5.1968,11.8983,-2.6395,1.2054,-2.1792,-3.5383,1.9384,-3.4914,-5.0875,-0.23733,
5.7053,4.6483,4.5705,0.57199,-6.0901,7.0868,-0.31171,-2.4821,3.495,0.77162,-0.82919,-9.3072,-10.3261,3.3921,
7.2911,4.8513,1.4042,-2.3548,4.3982,14.3744,-3.6675,-4.7433,1.3571,-4.5773,0.18489,-2.0003,1.3807,-1.6317,
7.577,5.2836,-5.188,-7.7572,11.1242,16.6454,-7.5448,-3.2539,-0.41111,-10.8106,3.7892,7.5197,7.3239,-5.6311,
8.0865,7.3765,-1.5021,-9.7021,7.5645,11.3081,-7.0919,-3.0584,-1.8329,-8.7155,0.66957,11.889,0.61768,-2.8834,
7.3601,4.2826,-2.1355,-10.807,0.6029,6.0501,-4.0155,-2.6342,-7.2668,-6.0236,-2.0224,10.9345,2.7495,-2.4692,
7.1595,4.2666,-3.6942,-5.0973,-1.1205,5.9281,1.2871,0.65738,-3.2154,-3.4931,1.7144,3.7709,1.8617,-2.562,
6.7301,8.8311,-0.58022,2.4396,1.839,5.0902,1.2097,-0.34616,0.83417,-1.8374,1.1294,4.9907,-5.4811,-2.4085,
-1.3869,1.0704,2.3467,4.2214,-7.9128,-3.4099,-2.2374,-1.7716,-0.66214,-2.2091,-0.8666,1.7987,-11.9007,-0.81773,
-4.6779,-2.85,-3.0966,1.0758,-5.9915,-1.7588,-3.0668,2.1913,1.306,-3.5226,0.14995,-6.9856,-6.8481,3.5699,
2.5929,4.793,-5.5621,-1.64,8.468,10.1571,6.0355,5.6754,6.2891,-2.1057,3.2742,-4.3971,2.963,6.007,
1.9549,1.131,-3.3002,-0.57778,2.7778,6.6551,8.0831,-0.45012,1.5734,-3.4261,1.1496,-3.6518,3.2667,2.7541,
-4.6699,-6.4087,-3.3431,2.1084,-8.2347,-4.5904,-1.8019,-2.1103,-5.5108,-5.8716,-0.60664,-4.6375,0.90156,1.8659,
-8.9692,-8.6755,-3.3837,3.187,-9.91,-12.269,-0.0063336,0.18567,1.8094,-6.2425,2.0811,-10.867,-13.2525,0.54891,
-6.5031,-3.3345,-2.2166,6.8524,-6.9051,-9.6044,8.189,1.1386,5.0756,-4.4219,0.51019,-15.5174,-26.5574,-0.93051,
-2.9794,1.9273,-0.39639,9.0923,0.49865,0.37185,7.9386,1.7932,1.6375,1.387,-1.2076,-8.0789,-14.1177,6.1152,
-0.39006,0.36538,1.0737,8.5468,0.95113,-3.5068,2.1596,-2.1708,2.5036,2.7501,-1.1352,-7.1117,-10.86,8.1589,
3.2485,3.4767,0.76804,12.1316,-1.2753,-4.0196,2.2713,-3.2456,5.9686,-0.066253,-0.34395,-12.7108,-10.4496,5.9819,
-0.32106,1.8221,1.2041,13.3316,-6.5012,-3.2962,6.9555,0.80576,7.0565,-1.0264,-2.7337,-17.733,-5.0022,6.5871,
2.109,-0.2152,3.5422,9.6395,-8.5215,-6.9551,9.4304,6.0598,5.1871,2.4099,-1.6056,-11.8485,-10.4864,5.7097,
1.4999,3.1719,-0.044531,9.0613,-9.9384,-8.9481,8.8644,6.6603,6.8038,4.6752,-0.54512,-13.0656,-23.9572,2.9567,
-10.1591,-0.875,1.4042,11.8919,-19.9472,-12.7493,4.9583,-1.4518,10.7341,4.3949,-6.7792,-26.3816,-33.9687,5.6721,
-2.8011,1.1057,6.1402,15.5167,-15.3761,-7.6465,4.1784,2.4912,9.6082,4.6132,-4.4442,-16.9659,-17.8306,13.0441,
6.0443,2.9678,-4.8333,12.6577,-7.7049,-5.2593,8.7486,6.6803,5.6574,2.4079,2.5711,-5.8244,-3.3839,9.8515,
4.9583,2.0663,-12.0151,9.7286,-4.5913,-7.1129,10.8748,4.1103,7.4872,4.915,6.0323,-11.9829,-9.2068,6.127,
6.348,4.5935,-8.1607,10.8321,0.26373,-5.4813,5.1606,3.6227,5.3507,4.8611,3.5012,-16.8075,-6.4853,3.1078,
7.4134,4.8002,-3.3328,15.0029,2.658,-5.6343,7.7435,6.7798,4.5477,4.5694,-0.083352,-10.9783,-4.1675,2.9218,
3.8353,2.8252,-7.7118,11.4519,5.6323,-4.5727,11.3765,5.168,4.0337,5.0184,0.64478,-0.43747,1.144,4.4335,
-0.97452,0.004167,-9.9007,3.2925,7.9454,-4.0574,9.0067,0.27814,0.17623,0.13799,1.329,-3.5447,2.2807,5.3728,
5.1097,5.0658,-2.7989,6.7106,17.3509,0.76559,8.7075,1.9489,2.817,-1.5577,3.901,-17.0706,1.9026,6.7378,
7.6954,5.2436,-6.9695,4.3795,22.5761,2.6476,7.2205,1.8317,0.71954,-2.9108,-3.0822,-30.1463,-1.1038,1.9946,
8.6797,-0.37391,-3.6591,5.5628,14.9548,0.56034,12.5721,4.1322,4.533,3.0487,-2.8975,-30.6274,-7.7863,4.7672,
5.99,-2.5204,-0.78822,4.9883,9.4784,-5.4986,5.31,1.2329,3.0559,2.1426,-0.071832,-24.2103,-12.8629,1.3479,
4.9075,2.2103,-2.4279,3.4835,12.043,-7.3381,2.822,-0.52849,3.5957,1.7733,2.1014,-14.8037,-5.1015,0.54389,
6.0591,1.1136,-5.1745,7.6135,9.3925,-5.4513,7.9556,1.4316,7.7185,4.5592,0.52929,-12.469,-4.7952,6.778,
9.5519,2.0107,-12.0949,8.6025,14.1311,1.6242,5.0677,1.8277,3.881,2.3575,-1.4307,-12.2032,-6.9176,8.2995,
11.8711,4.7823,-6.0668,6.1584,15.2116,1.0446,6.692,2.2002,1.7197,-0.67626,1.0655,-10.025,-4.5746,5.8736,
6.3383,-1.289,5.8666,1.4503,3.6939,-8.6588,3.8801,-1.3061,-1.7577,-2.5641,-4.7832,-9.9052,-4.2999,-0.74558,
6.9219,-2.176,7.9247,2.3272,3.9542,-8.1397,-0.20905,-3.6383,-2.1342,-0.48206,-6.9063,-12.6854,-6.4525,-5.5216,
9.881,1.3291,1.1827,2.6699,11.9116,-6.687,2.696,-2.9376,-0.55989,-1.417,-5.5281,-23.0115,-8.4755,-5.1903,
9.0472,5.8291,-0.57545,0.8225,12.8842,-7.0087,2.2928,0.85409,-1.2497,-4.4655,-6.4012,-18.0153,-2.9052,-2.2273,
8.0222,4.9971,-1.0231,4.6293,6.3263,-8.9985,1.6736,2.2489,3.1639,0.62294,-2.6429,-5.3655,-3.695,1.7625,
7.7819,2.0458,-6.9873,5.0749,12.4547,-6.7714,-0.59648,-2.4658,1.2868,3.2371,-0.31521,-1.4281,0.14209,3.344,
1.7718,-3.6201,-8.2552,-6.5578,9.5382,-4.6779,-7.0682,-6.8971,-8.6723,-6.3571,-3.4293,-2.0654,8.5697,-3.8461,
-0.98607,-6.5364,2.122,-5.9233,-0.916,-6.0844,-1.5824,-2.386,-2.6084,-4.2885,0.87379,-2.6643,4.922,-5.7849,
0.51958,-6.144,0.54866,-0.74746,5.4057,-5.7191,-0.52336,-2.2426,-0.52345,-1.6208,-1.589,-2.9866,4.1445,-3.9913,
-1.1988,-6.4987,1.2386,-2.3898,8.2144,-5.6174,-3.6254,-5.2415,-3.1436,-5.6214,-4.6271,-4.0127,11.3677,-2.0646,
-0.16302,-5.6264,8.8776,-2.7284,2.4193,-9.6187,-2.9255,-3.9627,0.90141,-3.3554,-3.8671,-9.0742,5.383,-3.387,
3.7034,-0.95073,6.4165,-1.1187,7.5766,-7.1136,-2.2683,-4.2071,-3.0093,-1.2261,-5.5635,-0.81717,-3.1349,-2.2197,
2.5166,-4.2684,-0.71719,-6.8363,9.05,-3.7945,-8.3989,-9.2575,-9.5774,-7.9017,-9.5683,6.9444,3.3199,-5.9431,
4.0531,-4.253,2.941,-10.0414,11.6402,0.048815,-5.7256,-6.5327,-3.4594,-8.6327,-4.4146,7.7333,17.2207,-11.6123,
-0.52866,-4.48,6.1388,-12.3312,11.424,-0.43628,-2.4898,-6.1405,0.6048,-1.848,1.1527,9.6792,9.0773,-8.5052,
-1.943,-6.1391,1.9143,-12.0735,11.2207,-0.41033,-7.1609,-8.6644,-1.8418,-2.7012,0.60133,14.8832,2.266,-4.1383,
4.6813,-6.4939,-0.85187,-9.6621,16.5728,-0.14451,-6.4905,-7.4218,-4.3827,-8.0825,-2.0861,8.4464,12.4941,-6.5413,
4.1595,-5.8633,4.7429,-6.4308,10.5172,-5.1971,-2.4852,-6.7351,-6.7708,-3.9821,-1.7195,-3.3881,9.0934,-5.9079,
-0.91058,0.75522,2.5303,-3.6346,4.1013,-2.9573,-6.6746,-7.2951,-11.185,-3.7434,1.7579,-1.2569,2.7629,-0.25099,
2.2771,1.9152,-1.2369,-0.28301,3.6143,1.7999,-1.2129,-3.7244,-2.0778,0.57899,5.2679,1.4701,1.3919,5.7901,
2.6226,-3.9845,-2.1268,1.18,-1.423,-3.611,4.1627,-0.60861,6.2413,8.2568,2.0595,-1.0285,-5.9223,5.9244,
3.1886,0.83429,-0.79436,6.1704,-0.13237,-3.1533,1.7438,4.9715,3.6977,8.4847,3.6232,4.5768,-1.4696,8.7024,
1.792,-1.3849,2.8687,3.6315,-2.7755,-5.6152,-0.52998,2.5041,0.34282,-0.9424,3.6467,-2.6876,-4.9963,1.6728,
1.4433,-3.9532,3.9021,-4.0584,1.9701,-3.5913,3.117,-1.2614,-0.40088,-2.0909,0.7766,-3.2495,-6.384,-4.4534,
-2.4997,-3.716,-1.1527,-4.7793,3.7801,-0.001389,5.3401,-3.1139,-1.3412,1.409,2.1763,5.6226,-1.1803,3.0447,
-2.3495,-3.4932,3.2545,2.7386,-0.78529,0.48086,3.5737,-0.99908,-2.2248,3.2524,4.456,2.8749,1.3004,5.2719,
-1.2444,-5.694,5.952,-2.2462,-2.6661,-2.4403,-3.3894,-0.9389,-2.0911,1.6112,0.33207,-1.6362,0.25832,-4.2032,
-3.3391,-8.0037,7.2819,-0.42446,-4.6756,-4.4633,0.42913,-2.0876,5.506,3.2016,4.4097,-0.33249,0.0020835,3.0386,
-5.067,-8.4873,4.9168,4.9037,-9.6977,-6.6056,1.3677,-4.8549,5.1756,3.4914,6.5553,-3.2051,1.9302,11.0515,
-1.1475,-7.7371,8.2372,3.8865,-5.4999,-3.5577,1.0447,-3.8402,4.6241,5.4515,3.9928,-7.1101,3.0196,5.3267,
1.3314,-9.683,11.1174,1.7247,-0.34969,-2.3804,3.3921,-2.164,3.8647,3.6782,-1.067,-4.7553,-0.054062,1.1507,
1.2516,-5.2461,3.2195,0.65734,3.0457,-3.6838,3.1886,-3.9624,-4.0799,-2.8095,-3.4136,4.2066,1.8774,-0.84653,
2.8639,1.5768,6.1596,4.7155,4.0681,-3.704,9.0231,-2.5196,-0.21994,0.4928,4.2633,1.3029,-0.88659,-2.0008,
2.4509,-1.6515,6.9951,2.7451,2.6189,-4.6868,6.3123,-4.5373,4.3728,-0.74229,3.7663,-7.2112,-3.0028,-3.5682,
1.5809,-3.2392,-0.89641,-1.0346,4.6309,-4.6466,-1.5383,-5.9523,-0.46888,-4.7946,-0.075128,0.21139,0.7928,-1.1845,
2.9321,-0.153,2.5316,5.2938,2.4247,-4.8499,1.9283,-2.7029,1.9692,4.6518,7.16,2.1271,0.74546,5.6352,
-2.0645,-0.62575,2.8621,2.566,-0.61287,-4.0765,-0.11563,-3.0226,2.3334,6.3009,5.7665,-3.3031,3.1109,1.4407,
-6.038,-3.2393,-2.3713,-5.0597,5.9314,0.26541,-5.6523,-5.4928,-1.422,-1.067,0.84079,4.3668,7.0216,-4.1893,
-4.9524,-6.1784,-5.3625,-4.9971,8.709,-6.7404,-7.0004,-8.7787,-3.9883,-5.1003,2.96,13.5048,9.2514,-4.6613,
-5.3784,-7.9767,-3.3533,-4.9385,3.125,-16.7001,-3.929,-9.457,-4.954,-3.5893,5.9156,10.0432,14.2401,-7.033,
-1.4405,-2.4366,-0.018856,-5.8472,7.517,-3.4058,-1.5239,-4.792,-1.0411,0.72368,3.8737,3.4149,19.4115,-3.4773,
10.2153,11.8096,-4.3563,-6.4605,21.166,10.8986,-6.7349,-1.6122,-2.9071,-2.2125,-4.5541,1.282,14.8721,-2.7869,
23.7024,25.201,-9.3973,-5.5907,33.996,24.3447,-5.3667,4.2689,-2.2505,-4.4896,-6.2088,1.2048,3.8567,-6.9583,
36.3803,37.789,-10.7619,-3.3273,46.0563,36.984,-6.0093,14.6178,-4.5258,-4.2205,-6.8004,-2.7241,1.2149,-8.4687,
48.2975,49.6216,-4.3314,-4.5737,57.3929,48.8649,-9.9868,19.5255,-16.3056,-8.3058,-10.7309,-8.8274,3.5524,-6.5146,
59.4996,60.7443,0.2666,-3.3352,68.0493,60.033,-3.6032,21.2463,-14.8451,-11.6636,-11.5331,-5.8874,-10.1579,-7.0878,
70.0296,71.1997,-1.1952,-2.1707,78.0664,70.5311,1.4337,29.6125,-12.9905,-11.4457,-10.8411,3.143,-23.0458,-8.5907,
79.9279,81.0277,2.251,-3.4868,87.4824,80.3992,-2.9907,36.0309,-16.5494,-13.6515,-12.6008,-1.8663,-26.9657,-5.6652,
89.2322,90.266,1.8747,-4.965,68.1334,89.6752,-5.4626,37.9662,-17.7258,-17.8939,-16.9066,-0.54881,-28.9634,-3.6378,
97.9783,98.9501,-8.3609,-5.6312,49.9454,98.3947,-1.7606,42.9193,-17.6264,-14.8923,-19.2665,7.6791,-30.1179,-2.4554,
97.161,104.2205,-5.9308,0.49148,32.8487,106.591,2.6836,46.6104,-10.784,-7.2501,-17.1464,0.95157,-34.0952,-0.38013,
77.2314,90.4955,-1.4776,-1.7072,16.7778,114.2956,-7.3593,36.3424,-14.2343,-11.3943,-18.2868,3.5456,-38.5574,-2.0441,
61.1488,75.1841,-0.1839,-5.7023,1.6711,121.5378,-8.6048,31.9925,-13.621,-10.9514,-13.5739,17.4328,-29.2538,5.5501,
43.5001,66.3342,-4.0293,-1.5038,-12.5292,128.3456,-8.0889,32.965,-9.4297,-4.9921,-6.011,30.4869,-13.3986,8.5911,
27.6342,55.3648,-7.4029,2.2019,-25.8774,134.7448,-15.0754,32.6743,-7.6587,-2.0411,-1.0706,38.0579,-10.5462,3.9788,
16.0935,38.3039,-6.2356,1.3466,-38.4248,140.7602,-10.0733,30.9551,-3.102,1.6966,1.6445,38.4253,-24.0135,7.8372,
13.1999,35.0415,-6.8256,2.2299,-50.2193,146.4145,-5.6128,30.5438,-1.4699,4.0052,4.4381,47.6891,-9.678,16.0438,
9.7566,32.2164,-9.5493,1.373,-61.3061,137.6297,-8.4092,27.5061,-1.1405,0.14965,5.8593,54.71,3.6774,13.3942,
-0.22855,16.1834,-3.9149,0.085544,-71.7278,115.2719,-6.6992,18.8661,-2.759,-4.4388,2.8564,43.9558,-10.6432,7.0471,
-11.0609,1.1124,-1.0287,-2.5709,-81.5241,94.2556,-8.9485,12.6727,-7.655,-7.7882,-2.3764,27.2184,-21.4535,5.9012,
-15.4591,-6.6673,-3.1363,-0.24727,-90.7326,74.5002,-4.7964,12.1531,-1.6523,-6.1158,-1.9931,11.4853,-7.3921,9.1623,
-11.88,-5.062,-6.0812,2.9006,-99.3887,55.9302,2.9632,8.2908,3.5085,-6.4718,0.29609,4.0473,-12.0098,3.5509,
-9.4802,-9.3378,-3.0655,0.075696,-88.0025,38.4744,4.4724,-0.16058,-2.2458,-7.7709,2.4473,-6.5596,-18.7613,-4.6157,
-13.0088,-15.2855,-0.22997,-0.65221,-83.9274,22.066,3.9631,-5.2126,-1.3877,-4.6531,2.0595,-13.1559,-11.6096,0.72248,
-17.7719,-15.5732,-4.3135,1.5561,-74.7944,10.6191,6.8588,-7.069,0.86472,-1.2409,-4.0897,-4.4128,-9.7082,6.2227,
-15.2593,-16.567,-5.501,2.909,-64.5219,13.3564,9.3398,-5.6806,1.7772,0.76221,-3.8443,4.529,-18.7666,3.9216,
-7.3539,-16.7783,-4.9299,2.4935,-53.1788,9.9035,4.1996,-2.2062,2.3934,-0.48881,-0.48014,4.0163,-17.3997,0.55286,
-10.5285,-17.9407,-1.0187,-1.2716,-50.7114,-2.5009,4.1886,-7.6179,-2.3299,-0.70091,-3.5853,-3.2145,-13.7046,0.27826,
-19.7783,-23.8542,2.6578,-4.8107,-56.1044,-13.679,2.2501,-14.6322,-5.8051,-1.8637,-9.8772,-12.9036,-19.3898,-6.7278,
-13.7715,-21.9407,-1.3583,2.2266,-45.0254,-17.1968,1.151,-9.8981,-2.0826,-1.2697,-5.4284,-5.8626,-23.0469,-5.3601,
-10.7756,-20.8653,-6.338,7.1547,-42.5648,-24.6007,9.0356,-6.6531,2.6217,4.3501,0.92286,-4.306,-28.1718,4.8435,
-11.8168,-18.8905,-4.271,4.0739,-45.5548,-26.7405,13.5552,-9.3874,0.77716,9.1503,-0.81974,-8.627,-17.0817,8.6502,
-11.3487,-18.9619,-1.8451,-0.2679,-36.7957,-26.8229,7.1983,-10.9929,-1.4386,2.0938,-3.9036,-6.4221,-8.5845,3.0695,
-9.7035,-17.8241,2.122,9.8715,-23.5007,-27.6241,11.5871,-3.5849,7.3248,3.4144,8.3817,-10.8575,-14.8184,2.4034,
-6.7112,-10.9701,-6.2,11.6894,-17.7521,-22.1098,16.6764,-0.47726,5.921,10.9223,10.2889,-15.0263,-9.1088,4.1874,
-5.8263,-9.3478,-14.0229,0.86487,-22.9538,-17.8909,12.7836,-4.3052,-1.183,10.7492,-0.93345,-8.3404,-4.7059,3.9364,
-7.1637,-12.8845,-11.0126,-0.39208,-25.6739,-17.5406,7.919,-2.8419,1.5393,3.5965,-4.0107,-1.8142,-8.5207,6.3515,
-7.939,-14.7628,-12.5208,0.35457,-14.2513,-19.1395,6.7207,0.46237,6.0265,-1.1988,-1.6007,3.3561,-4.3942,7.1755,
-10.3552,-17.251,-14.1797,-1.113,-3.2733,-21.8475,7.7637,-3.4218,5.6649,3.2114,-1.5046,7.0116,6.4747,3.8529,
-10.9394,-12.1188,-5.8578,1.6051,-1.3899,-19.814,4.6466,-3.94,4.1195,6.634,2.2008,2.4929,14.0397,2.4162,
-9.8008,-9.9457,-0.20345,5.8474,-3.2347,-21.9994,8.7063,0.15297,9.1752,4.308,5.443,-6.8155,5.9668,5.6455,
-10.6584,-18.5077,-4.5293,6.4606,-4.4864,-27.4281,11.0762,-3.2304,9.5888,3.5678,-2.1142,-9.2989,-2.1038,3.8607,
-9.5369,-18.8435,-6.6682,5.5911,1.0852,-23.3718,7.5191,-4.4829,5.639,9.1378,-1.5054,-5.8484,6.6991,6.0392,
-7.7599,-12.6512,-7.4734,6.9424,2.2251,-23.1748,10.6834,-0.59847,6.024,10.7587,8.9493,-9.1129,5.5738,13.6306,
-3.9201,-7.0721,-9.9172,6.0437,6.9119,-21.7845,10.5246,1.8473,5.1804,7.7028,7.9301,-9.0483,1.3832,10.4024,
0.89466,-6.8885,-7.1528,6.8866,13.0049,-16.8623,9.17,3.9059,8.0028,8.9281,1.9105,-7.7823,10.218,3.7529,
-1.0872,-10.8135,-10.0981,6.9553,9.3325,-20.1888,10.066,0.77947,4.6306,5.9823,-2.0601,-8.7616,9.123,2.0815,
-7.7707,-13.057,-22.9898,-3.1032,4.434,-23.798,3.1953,-6.9803,-5.2884,-1.6077,-3.383,-1.9692,2.3089,-1.9,
-8.9914,-12.9967,-20.4049,-3.6397,-0.41154,-24.0571,2.7624,-6.8027,2.9829,3.0683,2.3639,2.7285,1.4472,-3.473,
-12.5497,-15.8324,-19.904,-2.6984,-1.5921,-26.7115,1.8738,-9.0456,-0.3296,2.1613,-2.8396,2.3234,1.6014,-6.8801,
-13.9657,-12.713,-24.2531,-4.7059,2.601,-21.9751,3.9307,-7.7797,-8.2638,-2.066,-4.3563,11.1023,9.4593,-4.2979,
-10.9586,-9.2991,-20.1468,-3.2182,3.6502,-18.9694,2.4896,-3.2156,-4.1525,-2.6649,1.9307,10.6771,14.9172,2.9499,
-7.4088,-6.3308,-14.5995,-0.61479,6.3235,-17.8314,-2.9622,1.3159,-1.493,0.38727,3.7428,0.87766,13.54,6.1471,
-8.4103,-6.9151,-12.277,2.3144,6.4262,-18.6895,1.0721,3.1653,1.4888,6.1488,5.9286,-3.5136,10.7997,6.2605,
-13.4493,-16.3821,-15.6382,-2.8862,5.3173,-26.0043,-4.0539,-4.4964,-1.2516,-1.21,0.029244,-1.6155,17.6235,0.34121,
-14.8115,-21.4252,-10.6026,-7.2923,2.8291,-25.1669,-8.3904,-7.3601,-3.3461,-7.6453,-3.106,1.6144,21.1454,-4.259,
-10.5486,-13.3905,-3.2177,-2.0343,3.1415,-15.9439,-0.65588,-0.1698,2.1575,1.0083,5.2753,4.8923,15.0562,-3.5213,
-15.2183,-10.6589,-12.1832,-1.9122,2.4709,-18.8437,-4.9553,-3.0517,-0.38205,2.876,4.9588,8.937,13.6709,-4.2739,
-19.1259,-19.6608,-11.9346,-1.3155,-4.4263,-27.8364,-6.1043,-9.6179,1.0867,0.29335,1.2868,8.8828,12.8506,0.8028,
-12.6755,-20.8911,-6.88,-3.647,-0.3041,-27.1303,-5.2558,-10.4869,4.3957,-1.6527,4.1019,2.5654,14.4899,-1.6557,
-9.9868,-13.8535,-10.806,-11.1409,11.7655,-22.6104,-8.3149,-11.3035,0.27557,-4.4456,6.2664,-3.3735,19.8871,-9.2692,
-10.1105,-10.3707,-8.9523,-6.857,11.7824,-20.0485,-2.7544,-9.9024,1.4643,-2.974,2.7569,-6.3041,16.5247,-5.0976,
-2.9966,-7.5795,-1.4256,1.9903,9.3885,-16.1943,3.4362,-4.7287,6.9199,1.302,0.90402,-6.649,12.3999,-2.1404,
0.075732,-5.678,1.5525,3.7991,10.7534,-18.1147,5.1587,-2.9987,9.8791,5.0803,6.6348,-7.2139,12.6198,-1.0477,
-7.1594,-10.6402,-2.3973,-2.2137,3.3595,-26.669,-3.3458,-8.6036,3.502,0.43692,1.8982,-7.7452,12.8267,-1.9489,
-9.6221,-13.3761,-0.32501,-1.1163,-6.483,-29.8893,-2.6629,-8.0872,0.39961,-1.9992,-1.5899,-3.4243,8.201,-2.3141,
-7.84,-11.3687,5.2381,5.4581,-11.6379,-31.2295,2.0762,-3.5046,4.9549,4.1463,1.6385,-2.0136,-1.2092,-0.48805,
-9.5385,-10.9273,-0.13763,2.9613,-8.2881,-30.5608,-6.0019,-4.9813,2.4887,1.7281,1.7814,-0.68771,1.9966,-3.592,
-12.3407,-17.9844,-4.9501,-4.9292,-5.8628,-30.6553,-9.0167,-9.9855,0.41072,-5.6064,1.1926,2.2456,10.5539,-8.1972,
-14.2515,-20.521,-1.5198,-5.8385,0.51473,-32.4312,-7.7525,-11.5553,2.0735,-6.4751,1.3617,0.42388,11.1258,-9.8748,
-13.1553,-13.7459,-0.7055,-2.8369,8.9197,-29.2802,-5.5999,-10.1389,-2.1485,-4.8815,0.074974,-2.7348,7.8069,-7.1129,
-7.0635,-6.6544,4.6397,0.70757,9.3487,-22.221,2.931,-4.2281,-2.0193,1.6781,1.0346,-4.0167,6.8563,-0.41938,
-4.2294,-6.2554,4.843,-3.191,13.1263,-18.9593,2.273,-0.59976,0.99412,3.0235,0.0084012,-3.294,7.409,1.0518,
-4.2166,-9.0131,4.3115,-1.7947,17.8823,-16.1345,-0.032566,2.0873,4.5499,1.6372,0.73126,1.4833,5.7597,2.6759,
-9.7484,-15.2214,5.4988,0.24136,8.6144,-18.5412,-1.959,-2.8584,-3.918,-2.7996,-3.1692,-1.016,3.4857,-0.85885,
-12.7789,-15.9954,4.9279,-2.4247,3.5178,-19.1159,-1.6005,-6.7847,-9.709,-2.8725,-4.1844,-6.4987,8.3382,-4.4227,
-0.44277,-6.8402,10.8995,6.3981,11.9841,-10.7379,7.6548,4.7098,4.9736,9.3511,6.6722,-5.1446,6.8738,5.0019,
0.54766,-8.3585,8.3168,7.4601,12.2289,-13.9505,3.3391,2.0171,7.4472,8.3077,3.8613,-3.3897,-4.6258,6.6295,
-6.2334,-10.2669,9.2643,6.5307,12.9417,-16.0053,6.513,-5.3345,1.698,7.3275,3.6298,-2.2222,1.9184,7.1963,
-5.1367,-12.3022,5.0928,0.59506,11.4416,-14.8042,5.3991,-7.1838,5.2113,4.7185,7.9916,-11.9711,7.3467,0.73874,
5.7768,-7.2257,-0.51541,-1.8508,16.5397,-11.5058,-0.22753,-1.4506,5.3805,2.5072,5.5839,-3.54,5.4597,-3.1624,
1.8147,-6.0693,1.2027,0.42943,14.8244,-13.4666,0.027552,-1.6041,-0.48546,3.562,-1.2591,10.7724,0.5528,0.6432,
-3.5968,-5.2232,4.0226,-1.5245,11.5243,-9.2841,2.918,-2.4722,-2.385,4.7941,0.74465,13.6207,2.4478,1.5685,
-1.9347,-4.9098,6.1919,-1.4331,12.2791,-6.7989,3.7067,-0.87759,2.0969,4.5065,2.1462,9.4295,-1.0735,-2.382,
-6.1574,-10.8817,3.4102,2.0274,6.7221,-16.9962,0.11035,-3.7175,0.52482,1.8259,-3.7671,3.5611,-3.9012,-1.2752,
-7.475,-10.4696,-1.3739,-1.7099,2.7036,-22.9661,-5.4401,-6.6277,-7.9426,-1.8988,-4.7462,-1.714,2.8406,0.97067,
0.20459,-2.1284,4.4933,-1.1252,5.9156,-19.1778,-3.6672,-3.8196,-5.5376,-1.3027,2.2873,1.2811,-0.2221,1.3946,
4.2894,4.0246,6.8746,1.5937,12.5503,-11.5194,-3.2064,-2.3854,0.81997,0.94438,-1.4656,11.0864,-0.44997,-0.85847,
-1.5118,-0.31443,-1.0099,-3.0815,9.6279,-10.5875,-6.6297,-3.4478,1.0115,-1.2817,-6.921,10.18,4.1565,-0.083836,
0.26616,-1.0185,3.1485,-1.2093,8.8093,-13.0857,-3.5804,-0.10745,2.1561,1.4468,0.001695,8.3639,2.2199,3.0542,
2.6606,-1.9214,4.4056,-3.5471,16.9576,-11.8184,-5.7759,-3.9572,-6.6501,-2.0147,-3.3726,9.7905,4.4971,-3.8777,
-0.63211,-7.8317,-0.43801,-10.8061,19.0736,-8.9397,-4.2241,-7.8171,-10.3485,-6.955,-6.7857,8.4802,14.5916,-3.8856,
-5.6556,-8.5669,-2.0992,-10.3985,11.9034,-10.5727,-1.8012,-7.1073,-9.9683,-9.671,-4.6911,-3.3571,13.4749,-1.9654,
-0.014107,0.62378,4.7757,0.83026,13.5998,-8.9745,3.609,-1.3782,-2.1398,0.068294,2.3388,-10.8684,5.9175,2.0089,
3.3612,-2.3057,7.8636,4.6368,14.712,-13.7382,3.393,-0.33121,5.7018,9.7052,6.0549,-7.8062,3.1523,2.3703,
1.2311,-10.8447,4.9814,-4.3183,13.3471,-13.8785,-6.4518,-5.1323,-3.3176,1.8918,-0.093226,-2.9992,3.9273,-5.4849,
5.7367,-5.6145,10.2259,-2.8541,15.6796,-8.9482,-0.039396,-3.6188,-3.3593,-1.355,-2.7385,-4.0244,2.4866,-2.9864,
5.634,-1.6622,11.2996,2.3788,14.9798,-13.4725,7.9172,-2.1964,3.8321,3.3061,-0.40503,-4.9882,-0.79611,1.7725,
-0.97104,-5.9008,8.6934,0.78984,6.8506,-17.0025,2.1395,-3.0289,1.1916,2.6258,1.0655,0.13181,-1.2303,1.6661,
-4.0458,-10.126,9.859,1.4658,1.8598,-16.7057,-1.1224,-6.9446,2.8073,-0.18333,-0.20369,-2.0453,-2.8437,2.2891,
-1.6339,-7.3493,10.9547,5.9571,9.22,-17.8725,2.5604,-6.2869,9.6288,1.033,3.424,-6.5023,2.3886,2.8751,
-5.1511,-10.524,10.5386,3.4308,6.4974,-21.3797,5.0581,-3.7403,10.2561,2.658,7.798,-13.5837,0.55785,0.051257,
-4.3603,-11.3386,13.2805,0.81413,4.1792,-18.6509,7.165,-1.5879,8.1943,8.7652,6.3661,-11.3227,-3.3322,3.9043,
-3.8577,-6.0785,10.7965,2.4525,6.098,-18.7366,5.0478,-2.2156,3.1233,7.5164,1.8867,-5.0997,-4.3371,4.8754,
-3.3848,-3.5447,11.8359,6.8851,5.0093,-17.3715,4.9859,-0.87733,7.9976,1.5218,3.9427,-6.4809,-0.94343,4.3419,
-3.9053,-6.9476,4.6181,-2.4458,5.9138,-15.6065,-4.2311,-8.2967,3.9021,-6.5234,-2.3196,-6.8152,8.031,-0.98054,
-4.1527,-6.5305,2.4125,-4.7094,9.4151,-15.1518,-2.0492,-9.245,1.2581,-2.7578,-0.73444,-4.9603,12.3696,-2.8497,
-4.3857,-5.6565,10.4627,2.3218,6.4403,-14.7249,4.8229,-2.9059,-1.2278,1.2643,3.6482,-11.8933,2.4687,-1.2327,
-5.3279,-3.6304,8.6301,-0.46906,11.597,-10.226,0.91761,-4.4188,-7.6621,-7.2477,-3.5606,-8.5286,3.5254,-2.8459,
-4.526,-3.8943,1.3636,-4.2971,16.686,-9.1303,1.3447,-8.0098,-4.3096,-7.2946,-5.7568,-3.6783,3.796,-5.5675,
-1.3624,-3.1787,2.2457,-0.6648,19.0593,-8.5824,2.2284,-3.6728,-2.1233,0.85543,-1.0731,-5.3858,-2.2163,-4.2691,
-3.9313,-2.747,5.2444,1.0623,13.8184,-9.2728,0.88983,-2.2472,-4.1646,2.9737,0.6785,-1.9292,2.014,0.08441,
-8.9981,-3.0641,2.0373,-1.4116,6.7223,-14.9829,-2.538,-6.4511,-2.4689,-3.9536,-0.32608,-3.7416,6.7139,-1.3669,
-5.5661,1.4581,-1.4594,-2.7731,12.1036,-10.7095,-4.3144,-4.6178,-0.39257,-3.7164,0.65735,-5.4453,5.3467,-5.6232,
-3.3042,4.2629,3.4486,0.76749,8.967,-5.2464,0.28302,-0.9665,1.077,5.1835,3.5102,-0.78004,0.68737,-2.8755,
-5.2749,3.2844,4.9292,5.301,0.47546,-10.475,4.3636,0.77895,-0.19221,6.078,3.5408,0.95376,-2.0047,3.8048,
-3.2711,2.8459,6.3206,10.5265,-1.7222,-13.9444,10.1274,4.8296,6.3268,5.9543,2.605,-5.6109,-8.8743,5.2637,
-6.4491,-2.1453,5.4592,9.4128,-7.4037,-19.8564,8.5556,0.20124,8.8395,8.4893,-3.8176,-14.9155,-20.8751,-2.7651,
-3.4111,-1.2937,5.3726,6.6788,-3.3441,-20.8341,5.3912,-1.4981,5.1756,10.631,-3.348,-7.995,-12.6332,-0.91198,
1.1322,-0.25197,6.0144,6.7603,3.1233,-19.1024,7.96,2.4484,4.8653,7.1009,0.22752,-2.6948,-5.1265,3.9632,
0.82303,3.8607,2.5203,10.9342,6.0692,-14.8225,8.6875,2.5427,5.2965,4.0235,-1.9551,-1.81,-1.6852,0.11024,
-4.288,3.8701,-2.6922,7.6266,0.16142,-16.1023,7.9253,-2.6715,5.2197,-0.31526,-4.0074,-1.4604,-5.1995,-0.61974,
-4.0305,2.1918,4.7,7.1692,-0.81236,-18.5109,11.3059,1.3449,7.7988,4.0422,0.57162,-2.3369,-9.2261,6.6485,
-1.6198,-2.0373,6.105,7.4617,7.6723,-17.159,7.4943,1.505,4.1972,5.4867,3.1886,-7.2581,2.1735,3.5978,
-4.8968,-6.2531,4.2926,7.9786,4.8016,-19.9857,6.0805,-3.8873,5.3918,2.7476,2.0332,-10.6788,6.8636,1.454,
-9.1825,-7.0835,5.2401,5.8124,-4.8863,-23.8484,6.9208,-4.8596,6.2734,2.8235,-3.1507,-11.2436,-5.3586,4.5,
-9.3545,-5.9356,4.6848,1.8482,-3.8702,-23.1409,8.1927,-2.3988,5.656,6.7514,-4.1665,-9.3637,-9.1344,4.9529,
-6.8652,-8.4712,2.9577,5.594,-1.2276,-23.6804,7.7014,-2.7366,7.2446,4.4184,0.904,-11.2122,-10.9967,0.31764,
-2.1148,-6.035,2.78,9.5964,8.9687,-15.9928,6.7572,0.31942,6.8102,1.7424,1.8139,-11.5036,-7.4446,-5.0043,
-2.952,-7.1189,1.6491,4.2006,13.2515,-12.6229,9.244,0.78288,3.9912,5.0126,0.259,-12.2594,-2.6594,-3.2575,
-4.2207,-8.1381,2.0325,2.9842,10.5282,-16.6858,8.6894,-2.6385,2.3059,6.64,3.136,-8.6313,-1.5355,6.0969,
-4.2088,-3.0705,3.5973,4.4924,8.2093,-17.8542,5.5165,-3.2036,4.8187,3.1081,4.1527,-4.0166,-2.6487,7.9003,
-3.9563,-6.7422,1.4533,3.259,3.8604,-18.2293,8.078,-3.4933,6.4577,2.4397,2.9396,-3.2932,-4.8999,-2.6971,
-1.5495,-7.5432,-3.2134,2.3403,10.1365,-14.4842,10.7266,-3.0425,2.4546,2.0526,3.4859,5.8223,-1.9546,-4.2223,
-2.1797,-3.9573,1.077,6.779,10.7333,-18.6766,5.0215,-2.6192,2.5485,-1.6862,3.9999,-1.5167,-5.9349,-0.35374,
-4.9414,-7.5763,5.3507,7.3366,-0.034029,-27.6791,0.38192,-6.3185,5.2877,-4.9595,-1.5427,-15.5257,-14.2559,-5.1528,
-4.8855,-10.2547,9.1274,5.2091,-3.6469,-24.3309,7.8308,-4.2521,9.0682,3.2923,-1.2088,-18.0889,-13.6413,-0.26386,
-7.967,-12.5317,9.0615,5.3788,-4.8742,-27.2096,6.3969,-3.0329,7.0781,4.5408,-0.65452,-13.1474,-8.9664,4.572,
-2.9095,-8.6466,6.8304,6.743,0.47928,-23.8903,1.9155,-2.1278,3.0378,-0.31166,0.58981,-7.779,4.3458,1.1644,
-1.0479,-11.261,5.2159,3.6871,0.20979,-19.8053,6.862,-2.7233,4.5425,-1.0156,4.1701,-4.661,-0.9764,1.3358,
-4.1183,-11.7904,6.108,2.2608,-0.043998,-22.2324,3.317,-2.8006,5.4755,1.6966,4.1606,-4.6225,-4.0511,5.8351,
-4.8348,-5.7806,4.7775,0.67915,4.2977,-18.0059,-1.7025,-2.1504,0.32647,1.5951,1.0191,2.404,10.292,-0.29979,
-5.2683,-6.1569,2.3214,1.8435,4.7625,-14.7566,9.7276,-3.2269,1.9939,-1.1524,3.6089,3.9467,8.8309,-3.4151,
-6.1573,-7.4745,2.4233,2.9379,7.61,-14.112,8.9032,-4.2384,3.5612,-4.2165,5.5617,-2.3158,4.2034,1.8513,
-6.2698,-5.0978,5.1705,3.726,6.1895,-9.8908,0.65626,-1.5735,2.3837,-0.58863,4.7461,2.1619,9.2539,6.079,
-7.0989,-3.5871,6.0651,6.1535,-0.20787,-10.0207,3.7499,1.172,3.4455,3.5436,2.7741,8.0577,3.155,6.4372,
-4.9855,-4.5769,6.9062,2.651,2.4559,-10.6245,2.3199,-2.5139,2.0337,-0.76616,0.43825,-0.37971,-4.9883,1.9533,
-1.0712,-4.5435,10.589,-0.64174,7.8524,-6.8538,4.3501,-3.5682,2.1529,0.0024839,1.617,-10.721,-5.894,0.63108,
-1.73,-1.1372,-1.3743,-3.7365,8.1044,-6.6838,3.3659,-3.1129,-1.1095,1.2079,-0.167,-10.8009,-2.8891,-3.9863,
1.0251,2.0643,-7.3176,0.10335,4.9668,-5.0777,1.9589,-0.75717,2.0903,2.8224,1.53,-0.27113,-1.9926,-3.9883,
2.1686,-3.121,-0.85281,2.2665,-1.8389,-5.4957,2.0826,-1.4344,2.2061,0.48411,-0.24878,-0.013671,-3.56,-3.0259,
3.2438,0.68166,-1.0426,0.44332,7.6714,-1.0686,2.6805,0.82081,-2.988,-3.6427,-2.403,-1.2177,5.5712,0.28915,
-1.2891,2.087,-5.3184,-1.5115,10.1037,-1.9684,1.0734,-0.6747,-2.3268,-4.87,-2.7408,-0.18076,2.3449,5.5744,
-0.24792,-1.895,-0.17902,-1.4208,5.6406,-4.2608,-0.43725,-2.0805,0.70536,-3.132,-3.5406,-0.16991,-3.0985,4.758,
3.3826,-3.9503,1.5192,-2.0587,6.9896,-4.7283,2.2403,-2.6788,-2.9526,-6.0773,-3.087,-4.2573,1.6669,0.37498,
3.6616,-0.33926,-2.4284,1.4393,6.5702,-0.1063,6.4442,0.37447,-0.84726,-3.7845,1.4365,-4.0019,2.5308,1.7987,
0.067663,2.5738,-5.6573,2.317,3.7657,0.86463,2.2014,1.798,1.6139,-0.66513,-0.095694,0.094866,-1.9591,-0.71954,
-0.41856,-1.9191,-3.8719,1.2139,3.0576,-6.9002,1.1052,-0.72021,2.9631,-0.14306,0.87369,-4.7313,-6.1801,-3.0867,
1.7757,-6.8657,-0.988,0.89966,6.0076,-9.6197,4.1719,-3.3281,2.5444,-0.3759,5.401,-4.6884,-5.0864,-0.25043,
-1.4639,-10.0691,0.7585,0.60517,7.3344,-6.8729,2.7168,-2.8874,2.6331,-0.11192,3.3902,-2.7199,-3.576,0.48796,
-0.65312,-8.7416,-0.0099075,2.2556,8.5815,-4.7735,-1.0616,-1.9913,6.0901,2.5459,3.9097,-7.1362,3.6285,5.038,
-0.132,-5.807,-6.7582,-2.7,11.923,-1.5948,-4.8543,-5.2458,0.90445,-0.016993,4.639,-4.2977,9.6773,7.6282,
-0.84698,-5.6996,-6.1118,-2.7789,10.9667,0.18808,-0.46572,-2.7619,0.12682,-0.73887,4.6016,-0.90678,4.5174,2.5912,
4.0241,-4.3937,-3.8169,-0.68446,11.7545,0.17679,-2.366,-1.6323,3.4937,2.1975,3.3616,-2.7806,1.3538,-5.7594,
7.639,-2.2019,-4.5522,-4.0174,17.3162,4.0226,-1.7421,-3.4626,0.87392,2.0657,7.4982,5.099,5.6109,0.37073,
1.6371,-5.6852,-6.4482,-3.5354,14.59,3.5398,3.4241,-3.9777,-0.86574,-0.70937,4.3968,11.783,1.6588,7.8203,
2.5032,-2.4516,-7.5071,-6.2153,12.2683,2.8459,-3.0478,-2.7752,1.1144,-4.0413,-2.6155,12.0403,-1.3328,-1.808,
5.2453,1.0697,-8.0208,-9.2171,12.4963,0.26482,-5.2753,-4.0547,0.083435,-2.3523,1.3981,10.8357,-2.6988,-6.52,
1.5561,0.04169,-5.6113,-2.8795,12.7109,-1.6793,2.754,-4.2934,-0.8859,1.1628,0.34988,10.6675,-0.60872,-0.82612,
2.4271,0.52112,-1.9002,-2.2243,10.9839,0.83162,-1.2677,-3.0714,-1.3147,-2.7633,-5.9376,11.4737,0.87407,-5.1149,
4.2096,0.48985,5.9266,-4.9834,6.4685,-0.18215,-5.048,-2.8871,-2.1997,-4.0433,-2.6889,10.3034,-4.9634,-4.326,
0.34118,0.70143,7.2577,-2.5152,5.3575,-0.41264,0.31658,-1.5091,-7.1294,-2.5959,0.12357,4.1416,-4.4246,2.9234,
-0.64316,2.1056,2.484,-0.91804,5.036,3.4685,0.77952,0.027724,-7.1835,-4.8503,-5.6684,-1.8915,1.6254,-2.5547,
2.5289,2.2202,3.5402,-0.62199,5.4568,5.9119,-2.4007,-1.1792,-4.5834,-6.2465,-4.6054,5.6933,3.2151,-8.9093,
0.93092,1.1227,-0.046647,-0.58467,7.0575,1.7008,0.63583,-2.0723,-4.3084,-4.9078,0.0092296,11.1368,0.61208,0.30234,
-2.0172,-0.87263,-1.0079,-0.067426,3.2599,-7.0781,5.4182,-0.020041,1.2526,0.68953,-0.47303,-2.5471,-9.0654,5.5871,
2.9243,-0.33811,3.873,-4.4019,8.3667,-4.7254,1.2365,-0.501,-2.6788,-0.31594,-2.855,-2.876,-3.7014,-4.8717,
-0.14345,-2.2462,2.6765,-8.4764,11.7213,-0.10336,-3.6582,-5.2914,-8.3028,-5.5999,-2.2015,10.7937,9.5363,-6.9893,
-3.5093,-0.66521,2.5159,-2.1832,10.0537,-1.0615,-1.9925,-4.0096,1.3544,-3.8176,3.2327,8.2179,5.5897,2.5891,
-0.16549,-0.8665,5.0163,0.11718,14.03,-1.7209,-2.596,-3.0459,1.9962,-1.4196,3.7619,-4.0855,-2.6997,2.1925,
-1.3604,-8.2863,8.3308,-3.9872,10.5371,-4.7507,0.21127,-7.4429,1.1531,2.2814,4.2596,-1.6708,-0.36854,-1.5544,
-6.0995,-12.1275,0.60007,-9.0506,0.26345,-11.2146,-3.1759,-10.3708,4.4584,0.69829,1.5934,8.07,3.028,-2.9074,
-4.7692,-10.4355,-7.1487,-7.5437,-0.23429,-8.1311,-2.5034,-6.3741,4.6728,-0.78987,2.4621,9.5144,-0.52765,-3.2149,
-1.8322,-7.1585,-1.1764,3.273,4.3593,-1.136,5.1184,-2.3764,2.7054,3.837,7.8578,2.9178,-2.6658,-4.2276,
-1.4813,-6.0061,1.5457,3.8,1.9286,-2.755,1.1959,-3.4387,1.8197,2.8835,3.289,0.57356,-4.675,-4.6968,
1.0182,-6.6096,3.8631,0.19753,-7.3462,-8.856,2.5708,0.14208,7.0137,5.121,0.68149,-1.871,-9.6967,2.8158,
3.6082,-5.972,4.8362,-1.0196,-9.0746,-9.048,4.5853,0.37453,4.4232,6.9829,2.8098,-7.3028,-4.0537,6.2623,
0.017477,-6.5778,3.5824,0.0056601,-9.0123,-9.9512,0.45402,-6.8786,0.30168,3.6717,4.5696,-5.4181,1.0105,0.10223,
-4.8041,-11.9675,2.8853,-4.3332,-7.9894,-17.549,-1.9836,-13.215,-0.19858,-0.88718,2.8489,-3.1651,-10.1376,-4.2425,
-0.90016,-10.5263,3.9172,-8.1704,6.59,-13.3626,2.7154,-10.7346,-6.212,-1.0747,2.9192,4.9788,-2.5393,-3.7467,
-2.2924,-7.4846,5.6104,-6.7158,10.6534,-10.1507,2.552,-6.2342,-9.6961,-1.4926,0.33391,7.0902,7.736,-6.8964,
-3.8423,-3.9023,8.407,-2.2157,4.9528,-9.3005,-3.1445,-4.1731,0.76782,-1.1618,-2.3374,4.9778,3.6562,-10.0982,
-4.3347,-6.3192,4.2872,-5.2163,2.4864,-11.394,-3.6792,-8.0201,3.3728,-3.7437,-2.4386,4.4381,-1.1425,-9.7333,
-5.0387,-7.3861,8.3689,-4.9031,0.89121,-11.6742,2.3264,-8.0206,1.2425,-0.62632,1.5643,-0.16669,3.2646,-3.8464,
-5.4595,-2.8458,10.9996,-2.44,6.8631,-5.4302,0.49935,-3.9242,-3.894,-0.348,2.1936,-7.6287,10.5403,-4.8212,
-2.9628,-0.023517,5.7603,4.2144,8.6209,1.8855,4.0848,-0.073285,-0.52683,1.3601,3.2673,-5.0014,3.8824,-1.8803,
-5.4361,-6.0481,-1.0928,5.1668,-1.7788,-1.843,4.0811,-3.6843,4.0845,2.4838,2.3479,-3.0141,-8.1607,0.88357,
-6.315,-5.444,0.6598,1.2412,-0.9489,-6.3122,0.22063,-4.1864,3.5983,0.64731,3.4121,-5.0026,-1.1634,-0.37451,
-4.2491,-2.4661,0.86095,-2.9309,-0.16884,-5.6925,-1.4801,-1.7663,3.1412,-2.5248,1.5203,-7.8362,-0.37089,-6.3778,
2.9953,2.7431,-0.39554,-2.996,3.4567,4.049,0.29597,2.4375,3.6761,2.6884,-0.25811,3.9626,-3.9641,-2.3797,
-0.076291,-3.6878,0.59229,-2.3341,1.8033,-1.0144,1.7247,-3.4935,2.0095,4.455,-2.653,2.7608,-4.2079,2.1016,
-1.7589,-4.1894,9.9567,4.3139,1.4541,-8.907,4.7547,-3.0425,5.5043,3.9468,-1.7704,-9.6969,2.5525,3.1808,
2.2028,1.8459,9.841,2.6086,6.1869,-4.5167,2.541,1.4781,3.2456,-1.1105,-2.1464,-12.0079,0.95286,-1.3491,
4.7219,2.9406,2.2609,-3.5733,5.093,1.2982,-1.709,0.18439,1.8458,-3.2128,0.15179,-6.2259,-6.094,-6.8115,
3.9567,5.6567,-2.213,-0.94874,0.44911,1.2203,-3.0523,-1.2725,1.2531,-3.02,0.62462,4.271,-2.8358,-5.4385,
-2.7884,7.4862,-1.8391,1.7595,-4.1574,1.3883,1.228,0.0084778,-1.4734,-2.1162,1.3103,6.1837,-1.943,-0.050718,
-5.0315,5.1091,0.19925,-2.2027,-2.4619,1.7867,-1.738,-0.47373,-4.2773,0.42115,2.1958,9.1873,-4.7187,0.91642,
-0.63225,6.0074,2.3569,-2.3115,1.3013,2.4028,-5.7311,1.2419,-3.7797,2.0831,1.823,19.4823,-2.7483,2.5487,
-1.3172,4.9241,3.9023,3.3708,-7.6949,-0.87483,0.63833,3.3366,-1.8656,-0.69297,1.9546,4.5746,-4.2707,5.5292,
0.69001,6.5568,1.7399,6.0611,-8.1971,1.5882,2.0463,3.6183,-4.6462,-3.5439,0.39109,-8.7153,0.80628,2.7869,
0.16667,6.6453,-0.77459,4.7331,-0.47486,4.385,-1.4509,2.9193,-1.4749,0.043175,-3.4888,3.3768,4.1324,-0.27238,
-3.4587,4.0774,1.441,6.6183,-1.6517,-0.93977,2.2515,3.9489,1.7466,1.2454,-6.4129,2.4513,-5.516,-1.4613,
-3.4922,5.52,-1.2965,5.9802,-2.7574,0.80384,4.7675,5.3992,-1.4912,-2.4447,-7.7154,-9.024,-14.1029,-0.65075,
-4.4879,5.4298,-3.8703,5.3804,-4.7611,7.2636,5.2048,5.7986,1.2493,0.35351,-3.637,-2.9389,-11.0874,5.4143,
-4.2184,5.1042,-6.048,5.0578,-3.0294,6.3456,3.4465,5.4505,4.5491,2.2607,2.366,3.5042,0.66535,3.161,
-1.5554,4.3158,-8.0954,2.8259,0.52657,-2.712,1.3113,4.1594,3.3116,1.1605,0.77755,-3.9372,2.5534,-1.3672,
-0.49779,3.0925,-2.3071,7.4771,-0.46889,-3.0315,4.6071,3.9098,5.0411,4.4653,-1.1973,-2.2547,-2.4205,5.9457,
-3.8424,1.9431,-1.6867,6.0641,-4.2971,2.9352,1.4386,2.2294,3.7747,4.1979,-0.64307,8.9678,-3.2392,6.5533,
-5.0581,1.3446,-5.4419,3.2902,-4.5212,2.7591,-0.093977,5.9516,3.5482,2.9817,-0.60448,10.358,-3.0448,-0.10691,
-3.0671,2.9509,-3.4284,6.7084,-4.0088,-0.057757,3.5269,5.8357,3.0946,3.5259,-3.2195,4.675,0.75353,0.1407,
-2.6422,2.051,-0.089187,7.5107,-7.8661,-5.5979,5.4844,-0.54001,5.56,5.9655,1.071,0.7791,-2.9071,6.6402,
-1.2786,-0.72341,-2.7352,7.7832,-10.045,-8.8772,4.9146,1.1798,9.324,8.7412,5.5862,0.97355,-13.5789,7.9288,
-1.4428,-1.8853,-7.6327,4.1827,-7.7555,-4.2475,0.039978,5.2064,1.7747,5.5652,-0.77448,2.12,-10.1131,0.94558,
-2.0794,-0.084729,-0.18466,5.6192,-7.5309,-0.85913,0.76071,3.689,1.9094,4.5082,-0.9692,-3.0687,-0.58826,3.5402,
-2.9187,0.88399,5.1288,10.5845,-9.0075,-2.2538,1.1972,3.9493,6.6149,6.1656,1.0174,-2.4024,0.89307,8.1478,
-5.6356,1.3133,1.929,9.9494,-10.8772,-1.1543,2.5717,3.7124,3.8083,7.2424,0.95633,3.5263,2.7681,4.7669,
-2.6466,-0.93484,1.5721,5.2549,-4.1992,-3.2544,6.0325,-1.0899,2.8562,6.0847,1.6221,-6.085,4.289,2.7938,
-0.80062,-0.15539,0.27249,4.2167,10.1527,-6.1924,3.5014,-2.2293,2.9263,2.5862,1.7657,-12.7098,6.2009,4.3134,
-4.609,2.746,1.7019,8.302,5.8079,-4.3751,2.809,0.3141,5.6428,2.9129,2.1417,-4.7168,4.8645,6.9467,
-4.8144,2.5812,2.0827,5.8762,-2.2533,-1.2198,-0.25118,-1.6325,1.9302,2.7382,0.085016,-2.9871,5.5369,4.1198,
-0.66911,2.4264,-2.3811,-3.6355,6.559,3.1919,-3.6106,-1.0526,-3.9707,0.64568,-2.3302,-5.2185,13.8818,-0.46574,
-0.38777,4.9321,-5.3715,-3.659,9.2987,3.7231,3.1133,2.1438,-1.563,1.3301,-0.98534,-4.1822,12.3253,0.28488,
0.11743,5.6,-5.5316,-0.54692,8.7403,4.4636,2.4446,2.0152,-2.9155,0.28594,-3.3368,-6.8238,8.6933,2.6779,
0.35135,-2.2073,-1.5843,1.1731,4.119,3.955,-1.3175,0.68944,-0.57141,2.9203,-2.8952,-12.4397,2.6285,3.7225,
0.81243,-7.8597,-3.4172,2.0668,-2.8773,1.7895,-1.7206,-1.7623,2.8371,6.1193,1.1347,-4.9449,1.0248,3.4994,
2.2095,-0.15772,-12.3716,-3.8418,3.5619,3.6103,-5.4738,-5.031,-3.5996,1.8958,-1.8259,8.3672,9.158,-3.4595,
4.2465,8.7698,-8.0134,-2.406,8.4098,7.0091,-4.422,-1.5957,-5.0709,0.57675,-1.9569,8.5886,4.9931,-6.8673,
6.8836,11.6178,-2.7122,0.14829,6.9411,10.4448,-2.2287,0.90998,-3.8025,0.54238,2.0167,7.5911,-2.5375,-2.1167,
2.3734,5.8598,-8.5752,-4.9221,1.4632,7.1672,-2.8181,-5.1699,-4.2975,-1.1772,-1.2375,7.8588,-2.626,-0.30227,
-2.5895,3.0978,-7.5785,-2.6983,-6.8195,-0.011508,-3.1307,-5.8238,-1.1474,2.7496,-5.9838,2.5668,-2.4682,-2.2126,
-0.74686,7.4913,-1.5807,4.9349,-8.5795,-1.6985,0.19014,1.515,1.0906,5.2357,2.329,1.2075,4.6693,2.4995,
-4.3177,2.4623,-2.2085,3.4342,-9.7517,-4.7296,-0.062002,-0.74482,0.78445,1.7883,9.1789,-3.4445,9.933,8.3753,
-4.0586,0.38633,-2.076,-1.1106,-5.3102,-3.482,-1.5045,-5.5208,0.73738,0.71717,5.7361,-6.1304,3.07,6.9084,
-2.1279,-0.35975,1.1816,0.64327,-6.1969,-2.068,0.2725,-4.4667,1.898,1.879,2.2584,-11.3062,-11.2142,1.4323,
-2.4819,-1.3023,5.4497,4.4613,-7.2711,-2.9078,0.73877,-0.82401,3.2306,6.5872,3.087,-16.8941,-24.6413,3.2747,
-2.8154,-0.74219,3.1941,1.783,-4.9067,-1.2873,-1.7161,-1.257,0.62616,7.1558,-0.47264,-11.5423,-37.2629,4.0421,
-2.8872,-1.4208,3.2436,0.95291,-3.8891,2.4054,2.0025,-0.45841,4.2042,4.5571,-1.6493,-2.8956,-30.3269,2.1126,
-2.4728,0.83385,2.8083,-0.30887,4.2982,3.4663,3.5693,-0.67165,5.1571,-0.7778,0.61901,1.3757,-21.0354,-0.66501,
-2.8066,1.266,0.71136,-2.7007,8.8608,0.36607,0.94481,-4.9699,-0.45479,-3.1415,2.0279,1.7749,-18.8092,0.82092,
-0.95119,-0.49743,3.32,0.59461,2.3034,-2.3072,2.0936,-3.4666,-0.1863,0.66265,1.1831,-0.018603,-15.5113,4.3869,
-0.65315,-1.6724,3.8437,0.7999,0.47792,-2.8919,2.6909,0.35678,1.5116,0.86386,-1.0571,-3.151,-8.5551,0.026287,
-3.9882,-2.5362,2.167,0.26974,0.44948,-6.0926,3.0116,-0.14633,5.2776,1.7761,-0.029533,-4.8899,-12.3801,-0.45699,
-3.5079,-4.5536,1.7961,0.012589,1.6273,-5.4861,-0.78449,-3.271,4.2375,1.4286,0.21321,-0.98107,-9.9503,0.29333,
0.31797,-5.4852,2.4112,-0.71153,0.32441,-0.57764,-0.49645,-2.8338,3.2604,0.13758,1.4057,-0.68124,2.9388,-1.8939,
-2.5934,-4.6744,-1.1077,0.29526,-4.9975,-1.0249,2.9076,0.22851,4.5108,2.0573,3.2493,-4.015,4.6907,-0.81616,
-2.6788,0.18579,-2.7285,2.4472,0.36406,1.6881,-0.39992,1.4201,3.0353,4.1035,2.3315,5.6263,12.3637,2.3668,
0.13306,0.41561,1.0507,1.095,1.5475,1.8276,1.3108,-0.35234,1.6479,1.6881,-1.9058,1.6733,14.2729,-2.355,
3.0176,-2.5014,1.4696,-2.3451,-2.4017,-0.21027,1.2322,-1.2955,-2.3074,-1.7876,-5.1659,-8.068,4.7395,-9.9265,
2.8363,-0.90527,0.41729,-3.1685,0.6342,1.2486,-4.1442,-1.7,-4.0973,-0.71628,-0.51738,6.516,9.2756,-12.2236,
-2.8773,-5.4305,5.9361,-2.7372,-4.4648,-5.334,-1.7261,-5.6951,-2.164,-1.3964,-1.2095,11.066,11.8523,-11.731,
-1.9815,-1.9714,12.0876,-1.3679,0.38211,1.9757,1.5107,-0.29193,-2.2754,-3.4816,-2.342,8.2327,17.6489,-5.9656,
-1.8628,4.8956,6.0595,-3.6957,6.6259,11.0164,0.45597,4.0641,-5.5131,-5.2011,-2.6836,9.1848,11.7695,-4.6436,
-1.9918,1.9505,0.63448,-1.787,2.6132,4.8116,0.66935,1.169,-3.4953,-0.79146,-4.692,6.9467,5.0375,-3.6419,
-3.8007,-4.9152,-0.84962,0.73013,1.0099,2.5949,1.5933,0.13473,-0.87524,1.184,-1.0358,2.6733,14.8584,0.43327,
-2.3674,-2.4511,-2.4859,-1.9648,7.4572,11.8392,1.2567,1.3315,-1.0637,-0.57427,3.6057,-1.5845,15.1722,-4.6544,
2.354,5.6497,-6.4341,-4.016,17.3737,19.5645,0.94035,1.975,-4.6153,-2.709,-1.19,-2.2128,16.431,-9.9188,
1.2486,1.4545,-5.0839,-0.40086,16.8134,16.4627,5.2225,0.89236,-2.4099,0.34585,-3.047,-6.4181,24.6044,-1.6106,
-1.7186,-4.8995,-2.8509,-4.7154,10.9841,10.1721,2.4988,-0.60767,-2.7475,2.2531,1.9563,-6.9971,18.7891,-1.0323,
1.0359,-0.025984,-3.8849,-9.9758,12.9764,12.6955,1.1438,2.0806,-3.7877,0.91328,3.0445,3.3049,10.1902,-7.96,
0.7325,-2.1938,-0.51858,-3.3515,9.5465,11.2101,4.2084,3.1608,0.054728,0.61728,0.69239,-1.4729,11.2663,-4.3491,
-1.2394,-4.9545,0.47663,-0.25811,8.0096,5.2351,4.92,-1.3674,-1.3946,-0.38385,0.16869,-11.5077,13.4826,-4.088,
1.2451,-1.2828,-0.51584,-1.6889,10.9035,3.4747,7.9993,-0.80342,-1.7928,0.12112,2.5687,-6.9608,5.4428,-9.1453,
0.68821,0.24024,1.925,-0.14152,9.7671,1.3383,4.627,0.69081,-0.72164,1.5599,1.4505,2.1337,4.634,-8.1144,
-2.0044,-0.97924,6.871,-1.8205,7.976,-1.3933,2.6619,-0.5557,-2.8473,0.26122,-0.32355,-0.64566,11.3456,-3.0485,
-2.3658,-2.8484,16.0999,-3.6392,3.6408,-7.5765,6.8408,0.44174,-2.6767,-2.1648,2.1062,-8.3199,7.2907,-2.3834,
-1.7417,-0.74912,18.0267,-3.4206,-0.43376,-9.0501,2.5742,-0.066928,-0.10571,-5.8911,3.4259,-3.4822,4.4429,-5.6147,
-0.19119,1.2238,14.5347,-0.80504,-7.1564,-6.5789,-0.95451,-1.027,2.7929,-1.1991,2.7382,4.4398,0.80209,-1.4212,
1.5073,-2.9472,12.4571,2.8584,-9.8607,-3.5328,1.7536,-0.24226,-0.025972,0.55988,-0.55939,5.8604,-3.3436,-0.13083,
1.6578,-1.0832,9.0586,0.035849,-0.35057,6.0791,2.8537,1.9419,-5.5676,-3.0891,-1.2487,8.6422,9.6315,-4.2203,
-0.61105,3.0794,9.2382,-3.582,1.3575,8.8477,3.8875,3.9943,-2.5827,0.22947,-0.45113,5.4724,14.5969,-0.83386,
1.595,3.6178,10.3714,-5.536,2.963,9.0399,1.003,2.5496,-3.6328,-0.50697,-4.5212,1.0464,4.3214,-1.507,
2.9456,3.8826,9.2667,-3.7575,8.0879,11.3901,-1.9493,0.95036,-6.3068,-5.2973,0.088406,3.8762,2.6158,-3.3447,
-2.7748,2.4444,7.9873,-1.3634,7.8436,6.6088,0.33685,-3.204,-3.2773,-4.2565,1.7703,3.8846,4.1461,-1.9392,
-4.2955,3.503,6.3032,-3.4508,13.3985,5.0075,2.0039,-2.7708,-1.8754,-1.832,-6.2896,5.8207,4.6202,-1.0995,
-2.5915,0.40078,7.8532,-6.1358,12.1127,4.707,4.7761,-0.19398,-0.79902,0.2066,-3.9841,8.3639,3.3792,-2.9617,
1.1791,-1.3107,10.5153,-4.0806,6.3244,4.6653,6.1766,1.5047,-0.027949,1.8812,1.3164,5.2108,2.9352,-1.097,
4.9648,2.6243,7.4743,-2.39,9.319,5.8317,2.9135,0.45005,-1.9545,-0.16033,0.27312,0.55935,0.8309,2.3432,
2.0158,3.6721,1.0003,-2.4871,10.9295,5.2408,1.5338,-2.71,-1.5962,-2.3194,0.49816,5.1055,-2.352,1.4798,
1.4127,1.0415,-4.3626,-5.7126,8.8272,4.9261,-0.0046976,-1.5837,-4.8747,-1.2166,-0.49628,18.2963,3.0916,-2.9476,
3.4971,-2.6364,-4.8238,-8.0209,5.6465,1.4975,0.71894,-0.76536,-5.7875,1.026,-2.1533,15.5118,3.147,-6.3861,
4.7335,1.3781,0.28591,-3.6833,3.3795,0.92529,2.1216,-0.71944,-2.5482,1.4464,0.86798,3.0115,-0.89818,-2.629,
0.83409,1.0545,1.474,-2.257,-4.2951,2.0751,-0.17485,-1.8816,-4.0821,-3.2197,2.9851,-0.30226,0.361,-4.158,
-1.6258,-4.7936,3.796,-2.1218,-9.3398,-1.9056,2.246,-0.32218,-0.94485,-2.5443,3.2881,0.67998,4.6779,-2.4625,
-1.0468,-5.9522,3.0858,-1.5125,-4.9235,-9.5045,3.5575,1.143,2.0039,0.98231,0.68071,-3.2177,3.4329,0.095375,
-3.6351,-4.3898,1.2139,-0.21649,-4.3866,-11.5853,3.1031,-1.5767,0.67884,2.1287,-0.083494,-3.7475,2.0216,-1.1152,
-7.2734,-3.1621,-0.3052,-4.0599,-8.4618,-5.5875,-2.8677,-4.3746,-6.1108,-3.7836,2.3321,3.7082,12.5056,-0.084403,
-5.1498,-4.1777,-2.938,-9.8418,-4.3386,-1.1549,-8.7212,-4.3531,-11.2878,-9.5822,0.98688,9.9936,14.8888,-0.80224,
0.46164,-4.4092,-4.6901,-6.8414,3.6342,-0.60348,-2.8955,-2.1635,-5.3081,-2.7409,1.4098,10.3581,9.6569,-5.0927,
-0.047759,-2.2162,-5.3728,-2.5743,5.3446,-3.4596,2.0987,0.37665,0.31328,0.31626,5.1819,3.4699,13.416,-5.7512,
-8.2401,-4.0114,-1.676,-2.4199,-6.5457,-5.6621,0.044613,0.83599,1.2584,-2.5952,1.4965,-1.559,1.5238,0.86039,
-6.0584,-0.15532,2.04,-0.10552,-2.5375,7.9335,-0.68142,2.955,1.9062,0.6935,0.68335,7.4526,-5.0755,2.496,
-0.87398,3.2282,-8.2055,-6.3655,10.6304,16.6168,-3.5324,-1.0785,-4.9568,-4.1681,0.64257,6.5237,2.4601,-5.3663,
0.62426,5.4447,-7.2313,-5.984,-4.1075,15.1378,0.053568,1.8783,-4.1775,-2.9542,0.60402,-3.5091,-2.5082,-2.6342,
0.5868,13.3131,1.3978,1.1239,-17.961,22.9062,-2.3598,7.5502,-3.4449,-0.84873,-0.87848,0.075874,-9.5886,-0.066023,
4.8901,12.5141,-3.989,-2.3177,-3.6272,21.5321,-4.1466,0.3485,-8.0587,-9.4747,-5.6463,-1.3747,-12.8694,-6.8107,
18.6967,15.6197,-6.6417,1.1958,10.6904,17.8296,10.0819,4.184,-2.7545,-4.0859,-6.2718,-6.5949,-16.436,-4.4739,
31.6749,25.2875,-8.6536,1.6058,24.149,20.1345,8.9949,6.8252,-6.4458,-3.3586,-13.6085,-14.3941,-24.6087,-8.544,
43.8744,33.6525,-3.0729,-1.1415,36.8001,16.757,8.6964,1.3543,-10.1562,-13.0393,-18.3354,-26.3047,-30.1218,-17.4311,
55.342,45.3721,5.0657,0.61426,48.6921,11.1723,21.431,0.067712,-6.4138,-13.9437,-15.0656,-26.8958,-18.4326,-14.6981,
66.1215,54.7006,6.2078,4.4336,59.8705,8.5735,28.822,1.9921,-2.1723,-6.3588,-10.3055,-24.318,-11.5423,-6.5856,
74.8077,53.1058,9.9327,10.1931,70.3783,5.89,29.7438,4.0417,1.091,-4.772,-8,-33.7051,-17.3574,-6.4314,
84.4192,54.7397,18.0133,11.0278,80.2556,0.71586,34.7076,7.6556,0.54363,-3.5218,-5.1099,-33.1291,-2.3365,-6.0455,
77.5468,46.8763,15.7279,5.7866,89.5403,-13.4271,39.6152,-1.2396,-5.0324,-3.0689,-7.9365,-32.8281,11.9037,-4.4777,
65.4217,36.5919,12.6146,10.5011,98.2679,-26.7215,41.8176,-8.6371,0.81272,-1.198,-10.1114,-31.5818,8.6589,-1.0756,
52.8198,24.2735,13.304,13.245,106.4718,-39.2182,38.3447,-8.1189,6.549,0.80211,-6.1305,-31.6148,4.7649,-2.9392,
35.5506,8.7171,2.6236,0.15801,114.1835,-50.9651,22.3054,-17.9958,-0.35165,-5.2713,-4.0755,-43.818,10.9867,-10.2349,
19.3176,-5.9059,-1.6312,-2.0202,121.4325,-62.0072,20.2442,-23.9057,-1.5358,-1.8216,-1.1794,-42.0325,24.4275,-2.6309,
4.0585,-19.6516,-0.56919,2.9211,128.2465,-72.3868,23.85,-29.7024,4.823,1.6615,-2.0732,-36.1363,13.4414,0.41921,
-10.285,-32.5725,2.3575,6.6022,106.4517,-82.1435,20.0089,-29.8483,13.6927,4.9363,8.1746,-32.0399,14.5631,0.87599,
-23.7679,-44.7181,-6.9432,-1.5065,91.1468,-91.3149,8.2029,-32.3959,4.1943,1.7478,7.2019,-25.2971,27.7893,1.3056,
-36.4418,-56.1351,-9.9009,-2.8626,71.578,-99.936,7.2285,-34.3085,3.9424,5.9815,0.50308,-19.9229,22.1448,3.1552,
-48.3553,-66.867,-8.1017,1.4067,53.1833,-108.0399,11.8563,-31.0452,12.6237,12.6122,2.1599,-16.0764,18.1648,-1.1312,
-59.554,-76.9549,-9.3029,-1.3287,35.8923,-115.6575,11.3863,-33.2796,13.0715,11.1326,6.61,-13.4241,23.5829,-5.1607,
-70.0808,-79.3277,-9.4676,-2.9363,19.6388,-122.818,3.2313,-36.3445,8.1899,5.403,6.9363,-9.9676,26.7477,-2.2,
-72.9863,-73.363,-10.1048,1.8192,4.3604,-129.549,2.7965,-29.5843,9.3857,6.2841,12.0638,-1.4158,32.1322,-0.38074,
-78.2478,-76.1916,-9.4985,0.26426,-9.7598,-133.7064,4.075,-28.2912,9.7869,5.907,11.34,-3.741,25.384,-4.6962,
-75.4814,-72.1023,-7.4824,-0.23399,-16.8874,-127.1303,-1.4722,-29.0041,6.7891,4.1063,6.8032,-8.337,18.0764,-2.4862,
-67.3371,-66.5711,-8.7207,-0.46092,-23.8279,-117.3333,-5.4812,-24.6125,9.9972,5.5472,9.0461,-13.8625,15.7865,-1.6142,
-62.3328,-61.1308,-8.6793,0.048671,-22.3982,-105.4728,-2.7422,-19.2794,10.8436,5.6963,13.324,-12.0667,23.9984,-4.4094,
-60.521,-55.0526,-8.1586,1.0101,-19.6081,-94.8059,-4.5059,-18.1224,6.3366,5.3545,13.007,-4.1119,31.2356,-1.7347,
-62.1921,-59.9441,-9.1151,-2.9067,-30.4829,-93.4559,-10.0199,-21.3736,5.4743,3.5872,4.9955,-5.3112,19.7202,1.2617,
-57.2556,-56.1065,-5.9171,-1.5274,-31.7874,-84.7153,-5.3213,-17.922,6.833,3.6129,4.9367,3.9253,20.2242,0.94501,
-53.8204,-50.8122,-4.598,0.010227,-33.2544,-76.2581,-5.0023,-16.3648,5.4589,2.4321,9.9429,13.3308,18.0467,0.40615,
-48.6628,-49.6914,-5.2864,1.4559,-34.6336,-71.6826,-7.5947,-12.4904,6.0953,1.8042,9.3468,7.7105,9.7331,2.31,
-43.3329,-45.2639,-4.9692,-0.55967,-29.6631,-61.5971,-4.2465,-8.8486,6.6939,3.1422,7.3397,3.8734,16.8618,-2.1669,
-47.7226,-39.4146,-4.9121,-5.1054,-31.9806,-54.2856,-4.2326,-11.9331,6.5332,3.1947,6.176,6.7745,16.5735,-3.7242,
-46.5464,-32.4704,-5.3405,-6.4865,-29.8211,-45.967,-10.4864,-10.9762,0.59784,2.2798,4.1184,13.3576,7.1432,1.5607,
-38.9332,-30.5222,-4.5379,-3.205,-27.5496,-39.8348,-7.4469,-5.9793,2.4899,3.1072,4.3535,12.074,11.0527,0.503,
-36.3562,-30.8602,-5.4707,-1.3257,-30.4762,-36.2396,-3.3848,-7.7897,4.0275,4.1258,5.7793,8.2163,18.3435,-4.5886,
-34.8977,-25.8751,-8.7576,-6.3072,-28.4064,-26.5932,-10.6533,-10.9375,-0.79317,3.1551,4.2275,13.2669,15.5559,0.26621,
-34.7321,-24.8046,-10.1606,-10.2673,-33.9331,-24.5157,-10.4963,-10.2813,0.70045,2.4841,0.11766,11.5068,6.4276,2.1782,
-28.3098,-18.0139,-9.069,-2.9028,-32.379,-20.6344,-5.5282,-2.4338,4.5148,5.709,1.0745,16.1191,8.934,-0.36262,
-24.4421,-18.1381,-10.6938,2.8152,-34.5339,-19.1554,-8.3298,-3.4928,0.62827,2.7152,2.2151,11.5365,2.3726,-0.099668,
-25.1445,-21.1472,-4.9905,4.3335,-46.5618,-19.693,-9.9991,-6.4165,0.832,3.2756,0.39494,2.4086,-6.2059,0.14728,
-21.7079,-11.2015,-2.7631,1.6631,-35.6939,-11.2811,-9.3994,-1.6932,1.2638,3.0789,2.7816,12.3868,8.146,-4.2001,
-15.1027,-5.2267,-2.1154,3.0096,-19.4523,-6.7476,-1.1222,4.193,5.5267,2.4122,12.7376,14.0539,17.7802,-2.0199,
-15.6428,-11.662,-4.3986,3.311,-5.39,-15.0198,0.87284,0.085017,4.2308,2.2675,6.1888,-0.88929,15.7495,0.02948,
-16.3915,-10.7211,-2.9296,4.7993,-13.5025,-13.8775,-0.38459,-3.5355,4.7001,5.2647,-3.1004,1.4539,7.3325,2.679,
-15.6487,-11.7651,-3.4767,0.414,-21.128,-11.8395,-3.0126,-5.0104,3.6952,0.85144,-1.2271,9.8026,-7.2075,0.83107,
-12.2997,-9.6129,0.58803,-0.57494,-8.2914,-3.8985,-2.3497,1.0748,2.027,-1.1281,9.4515,13.0708,5.156,2.7096,
-15.4183,-9.5183,1.5168,-2.9508,-2.9734,-2.7005,-4.6191,-0.91808,-3.879,-1.0602,7.9204,6.0198,18.9467,-2.7558,
-10.8778,-3.8858,-1.2253,-2.5328,-1.5897,0.59477,-4.101,-2.55,-3.8872,1.6545,5.276,8.7921,27.0894,-7.1698,
-9.743,-4.1345,-6.4542,-2.8625,-3.4228,5.8617,-4.819,-0.4688,0.20217,3.4837,6.4054,13.0851,16.7872,-1.4372,
-13.256,-10.8763,-8.7187,-3.4139,-10.689,1.8946,-7.6631,-2.1279,-2.4613,-1.3048,0.95967,3.3819,1.6799,3.2286,
-6.6758,-1.5467,-0.9645,-0.31677,-3.7809,8.0477,-3.3467,1.3742,-2.7953,-2.1906,-0.54394,4.6253,2.9047,3.999,
-7.4805,-0.73096,0.78037,-2.4672,-6.6878,9.2518,-1.9408,2.4968,-0.94059,0.59212,1.6576,5.5528,7.7919,-0.33856,
-7.7546,-2.3741,-2.8814,-2.0777,-7.0094,11.8302,-5.4398,3.5523,-1.6071,2.7257,1.3177,11.2456,5.1552,-1.0411,
-6.3255,4.0349,-4.1553,-1.4716,-3.6968,17.8688,-7.0421,3.339,-1.993,0.63401,-0.20812,19.7295,9.1842,-1.4611,
-3.2944,4.0337,0.19165,2.2324,-7.0902,13.1815,-2.522,3.8617,2.7061,1.3191,7.2764,10.1098,10.8025,0.31405,
0.27772,1.8637,0.66231,3.0625,-6.6645,10.4624,-4.7805,5.0763,-1.3124,0.75779,8.2859,0.82635,7.2621,0.29544,
0.019865,7.7775,0.86354,-0.25471,-6.5061,18.2706,-5.2171,7.4228,-2.439,0.47136,1.7632,7.2843,2.2466,0.036288,
0.50061,12.1311,-0.15237,-1.2035,-4.1873,28.7435,-3.94,6.9774,0.11724,1.4072,0.69327,16.006,3.5578,-1.8939,
0.2296,5.8598,-3.7586,-3.3005,-2.7312,24.3676,-6.3546,1.9793,-4.4691,-2.7746,0.89264,19.6254,9.3704,-5.3956,
0.69799,4.0622,2.2517,0.27224,-5.4592,17.6031,-1.6348,4.2711,-0.82625,-1.1621,3.7314,17.0018,9.7723,2.1592,
1.3792,5.5057,2.8395,-1.4313,-10.6752,17.27,-3.224,4.738,-2.4639,-1.3333,-1.0718,5.1359,2.196,1.7886,
6.3579,5.4163,2.9103,2.2697,-8.3477,20.8134,-1.8255,6.1407,-0.62907,-1.4945,-2.2126,3.1403,2.7874,1.9221,
1.6379,3.1632,0.3251,2.1336,-4.4724,21.9747,-3.1622,4.8082,-1.0733,-2.8511,-1.1159,7.7721,5.5127,4.6993,
-3.5218,4.6604,-1.8633,-3.5383,-3.9633,21.8613,-5.6238,5.2426,-3.6602,-1.4745,3.0486,6.5827,7.3509,3.2118,
-1.8642,4.381,0.17666,-3.8079,-8.5458,18.6216,-2.8758,6.3743,-2.4763,1.506,1.9014,3.7776,4.9816,-2.7655,
3.0679,7.0102,2.0943,-1.1693,-2.7308,21.8424,-3.1856,7.4378,-2.8101,-0.51256,-0.14091,7.4073,13.3594,-4.5278,
6.4994,10.2052,1.7274,-0.37558,2.9769,28.4861,-1.307,9.161,-0.95401,-0.24061,2.5189,8.6503,17.6197,2.2516,
3.4582,6.4594,-2.9558,-3.4868,-4.6733,27.0179,-4.8442,2.1036,-3.5481,-0.46737,-1.7294,5.9619,2.824,2.3577,
8.0711,8.482,-1.3322,-2.7956,-1.9828,28.771,-6.4818,2.9415,-3.3352,-1.4032,-2.108,11.8707,-0.71992,3.1801,
9.7558,5.8039,2.8454,-2.3867,-1.1407,25.8395,-1.0314,7.3443,0.96203,-1.0783,5.0081,11.3997,-0.43553,1.3023,
3.1449,3.7684,-2.869,-5.8589,-3.2414,24.5303,-3.6206,4.2525,-2.7111,-2.2184,1.5746,14.3311,-9.8094,-4.8014,
2.715,8.1216,-4.3843,-5.2666,-3.2881,32.9404,-6.5371,4.2381,-4.2354,-0.3983,-1.6536,20.4609,-17.1748,-3.7906,
4.7217,4.5013,-0.98752,-5.1914,-9.1162,25.9028,-6.3856,2.779,-3.2582,-1.0975,-1.7951,10.7973,-16.867,-5.7321,
7.8124,6.6413,0.035598,-1.5054,-5.1952,20.9739,-2.1461,5.9865,-1.6169,-1.0317,1.6866,9.6676,-12.9629,1.3603,
5.6567,9.8583,-2.6179,-5.0308,-1.7502,26.7054,-3.7043,1.0478,-5.1351,-3.1392,-1.0655,11.2564,-19.1748,4.4124,
9.8968,15.2926,3.0828,-7.8619,1.9702,34.9852,-7.5794,2.1902,-6.0318,0.18267,0.68568,19.0172,-4.286,1.0141,
10.5083,13.6519,6.5133,-7.1493,-2.7273,25.4143,-8.8119,6.1561,-5.4289,-0.06926,3.778,21.0096,5.3712,-2.1797,
8.1906,4.879,4.4355,-4.069,-8.107,13.5253,-4.1856,-0.23878,-3.8981,-6.5728,-1.0282,6.4925,-9.0511,-0.36196,
5.0478,4.8272,1.518,-1.1735,-4.0054,18.7394,-3.2118,-3.3577,-1.0129,-4.9734,-1.6896,2.9696,-8.3873,3.2749,
0.40639,4.5374,-0.50148,0.34292,-11.4781,22.4355,-3.5012,1.664,-1.4343,-2.747,2.7499,3.7556,-3.546,5.0069,
9.782,6.4345,0.25174,3.4556,-6.6918,23.7407,-1.6037,5.6618,-2.0714,-6.6793,3.308,4.2534,0.28243,4.9472,
18.1129,10.6277,-0.96843,2.0432,7.8097,24.0032,6.9284,0.26037,-1.224,-6.5198,-0.98807,4.7213,4.8445,1.5171,
13.411,12.1597,-1.1513,2.1616,13.4871,19.9119,13.9845,-4.3345,2.9468,-0.10256,-3.0975,3.7147,-0.50735,2.1494,
12.1241,14.3222,-1.0824,4.4422,14.6063,24.0196,4.4686,1.2279,1.324,1.8316,-3.3938,0.59948,-2.4053,1.5383,
13.0839,12.7397,-1.2585,4.8986,15.4167,25.7117,3.959,4.7697,-0.44268,6.7833,-2.4673,-4.4982,0.39054,-0.24121,
5.3092,5.9498,-9.6186,-1.4209,4.6098,17.6615,6.855,-1.542,-3.5496,8.5455,-3.5245,-3.023,-6.1408,2.9067,
10.2933,5.593,-14.8263,-6.1561,3.8515,20.9404,4.5157,-0.96735,-3.3364,5.6224,-1.3846,1.9793,-0.4695,10.4449,
14.7374,6.4625,-11.7676,-6.0277,4.8252,25.2276,3.5214,4.1521,-2.8952,3.5978,-0.57866,-12.2394,11.8507,8.131,
15.7814,13.3054,-8.6509,-3.7378,4.0538,30.9448,2.8282,10.6519,-4.6497,7.7208,1.8666,-25.6051,17.8886,7.1612,
12.9058,12.5068,-8.6143,-5.4418,-8.7229,27.6416,-2.1622,9.5304,-2.4425,4.8469,2.2361,-30.336,4.2818,9.1416,
6.1059,7.6591,-7.8562,-4.8745,-22.2996,18.9935,-5.1657,4.861,-1.5729,-0.50535,-0.066974,-23.9363,-2.9648,4.0136,
9.596,13.4663,-10.2771,-1.2074,-15.2973,21.2283,1.411,7.4621,-3.4069,1.4534,0.90114,-13.3411,11.3131,1.3629,
9.9843,11.6942,-8.2142,-4.0274,-13.8975,21.8828,5.1827,9.4245,-2.7201,1.3662,2.2933,-15.9148,9.5495,8.0296,
8.6621,9.7875,-3.6243,-3.5446,-19.0894,19.3645,0.77414,9.5822,1.5402,-2.8134,3.3608,-21.4677,1.0226,12.1273,
10.0706,11.6103,-5.8169,1.0064,-16.0159,17.2386,0.24576,9.0072,1.4478,-3.1265,8.9437,-9.5745,10.6027,8.5072,
11.8767,8.9858,-7.8781,2.8742,-18.9113,17.6505,3.1235,7.5025,-0.56725,-1.0107,11.7816,-1.2873,17.6793,7.9972,
6.8258,8.9286,-6.9234,3.6661,-31.7559,19.9659,1.9718,8.4986,0.43111,-1.9144,4.3258,-10.3688,5.0494,11.3737,
-1.7787,11.2851,-8.9184,3.4459,-35.6354,18.768,-2.967,8.9528,1.8513,-3.2456,-1.7181,-18.4236,-5.3767,10.2092,
4.1126,19.7668,-9.3472,6.6136,-19.9999,24.8725,-2.789,11.3077,1.2583,-2.5689,2.2413,-10.0876,9.0459,10.5605,
7.4813,19.3039,-4.6892,10.7963,-20.9688,25.0674,2.9222,10.8704,0.45964,-1.6916,3.7939,-11.6515,7.6593,13.0601,
3.417,9.71,-2.2385,12.7998,-32.4854,12.7173,4.4339,8.049,-1.7373,0.57926,-0.5309,-22.7627,-6.9003,9.1432,
4.6582,10.5737,2.7166,11.5499,-21.3768,14.3646,3.204,8.0482,-4.0432,2.9546,-0.98098,-20.9148,-15.2834,7.1488,
4.8606,13.3135,4.4818,8.4463,-15.7558,19.2871,2.5293,9.0114,-3.8006,2.7774,-0.92258,-21.1062,-12.4382,9.13,
4.81,13.2376,-3.7411,7.6988,-18.4261,20.7812,4.065,11.6042,-4.7777,3.8158,-3.0362,-15.2603,-10.9688,8.823,
3.3165,8.8281,-1.8292,8.4419,-27.2023,13.9909,6.4725,8.2566,-4.7322,5.7562,-3.5771,-8.3189,-12.962,9.0172,
3.5995,4.9242,6.9574,11.3097,-33.2831,5.4385,6.0839,4.3867,1.8185,3.0005,-3.8447,-20.353,-21.8254,8.4759,
5.0705,6.7977,-3.8246,6.5335,-19.9582,9.6917,1.1393,5.8105,0.50431,-1.7591,-6.2653,-24.6757,-19.7928,1.9416,
5.0075,8.5592,-15.8872,4.4547,-16.1091,14.1716,1.3119,7.1494,-1.6951,1.48,-5.6484,-16.6874,-17.3999,3.5123,
10.2506,12.6252,-10.3544,10.2132,-22.6142,13.0806,3.885,8.4076,-1.8346,4.0425,-5.0683,-11.5886,-18.0429,5.471,
11.0816,15.2419,-2.0206,11.046,-18.3655,14.2237,5.5799,9.8314,-2.6886,3.3178,-3.8001,-3.6627,-12.6223,3.6962,
1.2577,9.0247,-3.8276,2.1885,-18.2274,14.8163,-1.5038,4.4208,-2.0454,3.6006,-4.054,-1.0326,-11.383,3.4745,
3.3516,6.7965,-5.7671,-3.4864,-15.4466,18.989,-7.9211,3.9146,-3.1275,2.1798,-2.606,1.6807,-8.5304,3.5074,
7.0071,6.3885,-4.4569,-1.3488,-10.1812,18.8138,-0.21521,5.1257,-2.9401,1.5668,2.3709,1.0977,-8.0188,-3.4517,
3.4532,8.1746,-4.4303,1.8654,-6.919,15.0339,3.8953,2.6492,-2.0405,0.74969,2.9522,-4.0294,-4.8864,-3.9677,
2.7639,13.4687,-0.79045,3.6817,-5.0581,17.988,-0.19482,7.7925,-2.4,1.1866,-1.0818,-4.27,3.1196,6.8752,
5.0082,8.8039,3.5958,2.9788,-9.0929,21.2473,-0.66552,9.2531,-2.256,3.5256,-2.9451,-3.5316,-2.8522,5.9807,
7.6,7.3114,0.48726,-2.0208,-7.5832,24.3108,-2.0716,3.8774,-0.67463,-0.54212,-3.2505,-1.8737,-9.4302,-1.6092,
4.2517,10.7293,-3.8801,-5.2738,-6.1641,22.8523,-5.3215,2.1988,3.2225,-4.3662,-3.5372,2.5773,-10.3099,-0.54809,
5.4428,12.4957,1.173,-1.101,-4.83,22.4453,-5.9666,2.5488,-0.82727,-0.24785,-1.3968,7.725,-7.2812,0.9306,
17.6498,17.0486,3.0308,4.7501,6.0647,32.6677,-1.2698,4.8064,-3.1882,2.1776,4.9536,6.7796,-0.09588,2.803,
19.7243,18.6772,-7.5149,2.7779,5.4598,33.359,1.9399,9.0973,2.0647,-3.0147,3.9334,1.7935,-2.7412,3.8401,
11.7919,16.1103,-13.8127,1.6469,1.7582,27.9832,-2.5153,10.4797,1.9409,-2.8338,-0.15895,9.8806,-2.5767,0.71761,
10.1201,9.8411,-5.7533,3.4762,-1.7217,24.3758,-5.7388,6.4765,-0.58571,-0.25369,1.7788,15.5543,-3.386,-1.736,
16.2618,14.0713,8.0892,2.3038,1.2736,24.3595,-3.4663,9.9443,1.3776,-2.1667,3.6002,14.1391,-10.4137,1.7426,
15.2858,19.9757,11.4605,-1.691,3.6076,26.2722,-1.8118,13.2042,1.2947,-2.0364,4.8303,18.5932,-15.0917,2.1202,
5.4511,10.341,4.2649,-1.8305,-8.9014,19.1522,-1.4622,6.8684,-0.47018,-0.22702,4.7814,15.7904,-15.3911,-0.65858,
3.4368,8.0333,-0.088325,2.8586,-13.4285,15.352,-4.026,3.3228,0.76333,-1.4187,-0.56715,11.7099,-3.1394,2.5144,
2.5072,7.7923,4.9787,3.4104,-17.2026,13.2256,-4.9897,2.8824,1.9228,-2.5389,-3.1842,4.0175,-14.2792,2.1226,
1.3929,4.9146,11.9108,5.134,-17.6167,15.3246,-2.2798,5.1201,0.84313,1.4703,-2.0288,-0.56191,-27.5225,0.54898,
3.9604,6.7889,7.5807,6.0308,-9.5698,20.9126,0.026191,6.982,1.0335,4.9971,-3.1124,6.9436,-19.2429,6.0597,
4.2052,3.4895,1.3413,0.84868,-16.7084,13.3913,-2.8674,1.2605,0.48956,-0.12302,-1.9613,3.6349,-15.1959,4.7322,
8.05,5.9315,7.2866,2.4848,-15.4647,14.2751,-5.8291,3.3542,0.21899,0.12556,9.0024,3.1756,-11.6332,-1.0956,
1.0595,3.4062,9.9826,2.5769,-13.8137,14.1417,-4.2738,4.358,-2.9274,2.7693,4.3647,-0.14839,-15.5148,-1.2706,
-1.6554,2.4787,9.6247,5.5557,-10.8157,13.5342,0.079943,3.3732,0.86366,6.2181,-2.4052,-8.0932,-16.753,5.7951,
-1.797,4.4996,5.432,3.053,-13.7824,13.4452,-7.8788,2.9301,1.053,5.6043,1.3548,-4.4744,-8.2758,4.7247,
-6.7509,-0.35013,5.829,1.1826,-22.8374,7.0947,-9.0933,3.4772,3.6409,5.0271,1.5145,-1.0727,-6.092,2.2716,
-4.4179,-3.2216,4.9971,-0.81678,-12.7903,4.7408,-7.1017,1.822,1.9765,0.86885,-4.3612,-5.3468,-10.0655,-0.27505,
2.3554,-0.37656,3.9743,-1.4907,1.2335,9.518,-6.9166,0.99027,-1.7575,1.0577,0.48021,-4.7848,-10.6664,-1.4634,
-2.1247,-2.7646,3.2535,0.04503,-5.107,7.0188,-6.9835,-0.033467,-2.6164,5.3325,3.3435,-1.1235,-9.0621,-0.89365,
-1.5151,0.29361,3.0585,1.0064,-5.2827,10.454,-5.6004,3.8252,-4.3874,4.5309,-2.1596,9.067,-3.6979,1.0884,
0.74499,2.4452,5.5261,-0.74119,-5.6887,12.4779,-8.3979,1.908,-3.4013,-1.2846,-1.789,11.1741,-5.6457,0.29973,
-0.74574,2.2987,10.4974,2.1956,-14.0242,11.2475,-12.2321,0.82985,3.0696,-1.6897,1.693,5.2017,-12.5375,-0.68189,
-0.21906,5.0528,10.8314,4.9559,-12.7008,13.4647,-4.2678,5.6003,6.7418,1.7857,2.5553,3.925,-15.1597,6.1075,
4.6148,4.2677,3.4331,-0.16171,-5.1899,14.1031,0.32708,3.818,1.9989,3.6072,3.3663,6.0999,-10.8757,9.5974,
4.3377,2.5656,-3.0396,-5.9364,-2.9505,12.2928,-11.2619,-1.2315,-4.3877,2.4267,1.7178,8.6262,3.8769,2.2729,
0.94416,5.063,4.1324,-5.3394,-7.353,9.3861,-10.827,2.9399,0.45505,2.5223,-2.4824,5.4573,6.6575,-3.4069,
4.262,7.1694,6.2946,-5.501,-5.9475,10.7509,-5.3571,4.2098,-3.4286,-4.378,-6.6722,5.1299,2.8836,-3.6848,
13.1648,10.5956,5.435,-0.83262,8.5093,19.2649,-2.1436,2.5105,-4.6692,-3.6333,2.8872,13.9811,16.8106,-0.5717,
5.8677,3.4521,6.3139,-3.9159,7.1549,11.1193,-6.5945,-3.6654,-6.558,-4.6204,2.4727,1.3319,10.6198,-6.5627,
0.9361,3.0043,6.6582,-3.9217,6.4849,8.7652,-9.3316,-1.7581,-5.4414,-5.0663,-1.7727,-3.8095,1.0647,-4.9639,
0.15704,2.1007,2.6433,-1.5172,1.998,7.5159,-8.0488,0.034643,1.8745,-3.0751,1.4671,5.8191,6.0621,0.39563,
-0.33478,-1.3998,3.931,-7.2112,-1.9783,4.6546,-9.4941,0.99643,-1.13,-2.4087,-0.067185,11.7364,0.39571,1.3358,
3.5417,3.5049,4.659,-8.2244,7.7814,16.4266,-6.9963,3.3468,-4.9186,-3.228,-1.5094,5.7296,-3.4844,0.77368,
9.5959,6.1864,-5.7437,-0.98269,9.7249,19.2972,-0.79213,2.1819,0.67895,-1.1064,1.4734,-6.1833,-3.2756,0.24509,
11.9125,2.9234,-17.4499,0.040823,3.839,12.8369,-1.7087,-0.84133,0.15605,-0.55783,-1.5073,-6.7764,-3.0788,-4.5901,
10.7156,4.6759,-9.6547,-0.92618,7.9467,16.8872,2.7324,4.9935,-0.81741,0.43974,-1.899,-1.0672,-1.93,-2.8687,
6.4574,7.0467,-1.6034,-0.62941,12.0494,21.4178,2.8092,7.8276,-3.4197,-0.30977,-2.9901,-2.2082,-1.573,-0.52715,
7.0341,5.6598,-0.5431,2.783,5.0602,17.2405,-3.1437,6.8758,-3.2143,1.1553,-4.2567,-2.5574,-3.889,3.3611,
5.1658,0.49997,1.4177,6.4724,-7.7769,7.5289,-1.5088,4.0531,3.727,2.5318,-2.5551,-3.3685,-11.8503,6.5334,
4.6149,6.9775,2.056,5.3612,-1.2843,12.6213,0.26891,5.0152,4.7087,1.657,-0.2326,1.8955,-12.3446,3.0084,
7.23,12.3434,2.8965,-1.7094,7.4694,22.4688,-3.1217,5.6782,-0.39453,1.5576,-1.183,12.8685,-13.5321,-2.9567,
6.5557,7.5054,1.9998,-7.6324,2.9239,16.059,-6.5498,0.75819,-4.9502,-1.6694,-5.2093,17.1581,-9.1048,-5.4308,
7.6084,9.9474,0.43378,-2.8363,1.7844,12.2032,0.59187,4.0869,-2.7247,-2.5333,0.40563,13.2363,4.4572,3.5723,
1.8493,4.0479,-1.5209,-0.73796,-8.928,7.1327,-0.40751,4.806,1.7771,-1.8994,1.3456,-1.0552,-6.4156,6.2501,
3.4253,1.6361,3.1499,1.9576,-11.5256,4.5353,-5.9269,4.7584,5.768,2.3122,-4.2785,3.5876,-6.2718,1.2955,
5.6301,4.4298,3.925,0.39415,-9.388,1.8528,-5.5711,1.5806,1.5653,2.1732,-3.0582,10.603,-1.075,-3.1207,
7.7027,8.0206,3.6897,0.37073,-4.9681,7.0446,0.54755,3.8961,0.50733,3.0074,7.2485,2.7362,-6.313,-1.487,
6.7584,3.6827,2.5042,-2.5443,-1.7782,8.5498,-3.3419,6.5547,1.9229,0.41611,1.5111,-4.1771,-8.8265,-2.3623,
3.9425,-3.2869,7.6564,-2.3914,-7.9378,1.7701,-5.0694,5.6792,4.2179,1.3552,-7.7388,0.89398,-6.8508,-3.1847,
3.7062,1.2489,6.2329,-1.7657,-6.0155,7.9306,-4.765,3.8924,1.0725,2.2385,-5.346,9.9996,-6.9215,-1.0652,
7.099,5.7535,0.31509,-3.8292,-0.11118,19.2652,-4.7203,4.8639,-1.1612,-0.54761,-3.3383,9.6404,-9.6399,2.6139,
6.914,1.7928,2.9477,0.015993,-6.612,15.9396,-4.1961,6.2593,2.042,0.69054,-7.2353,0.62627,-12.195,0.28791,
1.6787,2.1674,4.2174,2.4254,-10.0714,10.1632,-3.4622,4.9197,2.4016,4.9877,-4.3909,1.0709,-10.9812,-3.1036,
-3.2425,-1.8188,4.446,0.35144,-14.2876,4.733,-2.7723,4.1423,1.7753,5.6525,-0.27079,2.4526,-18.5168,1.9031,
-0.15566,-5.0843,4.6614,1.2945,-17.7694,1.5562,-3.0881,2.9297,2.6329,3.8673,-1.701,-2.9969,-23.673,1.7887,
6.1207,-0.92289,4.8637,2.1811,-13.3283,3.8734,-1.9385,2.7539,4.4031,3.1533,-2.5628,-7.6376,-19.3601,-2.6569,
6.2351,-1.3497,6.4998,0.60376,-6.2623,3.6408,-3.2687,3.5528,1.2467,0.55378,-3.3732,-5.7335,-13.378,0.39476,
3.9333,-0.78631,9.4847,2.4962,-6.3685,5.351,-0.18002,5.2678,-0.75634,2.9311,-1.7245,4.7338,-4.3801,7.12,
0.56379,-3.8726,8.6747,2.1054,-16.8322,2.3784,2.4819,2.3006,1.9401,4.9244,1.03,5.1732,-6.7689,2.5954,
3.6632,-3.3991,8.3949,1.7379,-12.2071,1.0306,-2.2466,1.4395,2.5469,1.0133,-0.71875,6.5498,-8.0497,-1.6579,
4.1663,-0.54403,8.1322,3.8028,-6.8954,0.24589,-2.8347,3.0403,4.0813,-0.25277,-3.3272,7.844,-11.1822,0.61075,
1.2653,-0.75235,6.9214,1.8874,-15.3993,-0.49222,0.4689,0.68875,7.9338,-0.47857,-0.95839,-0.098445,-15.0908,-0.14879,
3.3583,0.49785,8.1931,-5.2155,-12.7883,6.527,-4.1387,2.3344,0.46808,-2.6188,0.78657,6.4152,-2.3752,-1.3449,
1.4695,-1.7012,6.9786,-6.5898,-7.4417,8.3045,-6.06,3.3997,-5.1036,-2.2207,0.016017,11.0915,-4.4018,-0.54133,
0.17654,1.052,3.4264,-0.65077,-4.3437,7.5653,-4.0092,2.4723,0.26428,0.56364,-0.70784,9.7031,-13.5377,0.69644,
3.058,2.9171,4.6671,-1.5761,-1.6729,8.5576,-8.107,1.842,0.73036,0.52982,-2.5936,19.2438,-10.7973,-1.274,
3.3567,0.81361,8.2432,-4.3738,-4.9472,9.0082,-7.6208,2.6956,-0.27756,1.9441,-0.99192,20.4995,-11.5959,-2.6436,
3.1555,1.247,3.4101,-2.6653,0.17055,13.2882,-10.5378,3.9799,-2.6713,0.38139,1.4779,6.2544,-8.4898,-6.3411,
2.2428,-2.9252,-1.3738,-1.782,7.6321,12.25,-13.0385,2.5363,-4.1982,-4.7032,0.66637,1.7818,-1.9544,-9.0942,
5.7239,-1.5442,0.878,-3.8441,4.5229,10.3099,-11.0512,2.1429,-2.2589,-5.1437,-3.4712,9.1464,-2.5603,-5.4148,
7.3084,6.261,2.2714,-4.578,-1.0509,13.5479,-7.4958,3.4604,-0.6773,-3.389,-2.7808,3.2952,-8.6734,1.1764,
1.8087,0.34174,-2.4442,1.2403,-12.3161,2.8527,-3.913,3.0118,3.4607,-0.052178,0.51957,-11.0025,-22.253,2.793,
6.0385,1.2856,-16.3976,9.843,-5.793,0.27138,-2.232,6.6875,8.0738,5.7351,4.3443,-11.9093,-29.7154,6.9638,
2.0605,3.8593,-29.5137,2.7447,2.0266,3.8703,-3.3031,1.2248,3.9737,0.32952,-1.4597,1.5795,-13.8325,3.4127,
5.3116,7.0024,-29.1889,8.3648,-2.433,3.1564,6.5363,5.0079,9.5201,6.577,-2.3362,5.3418,-9.0252,7.0645,
9.3312,1.762,-21.1711,13.1656,-10.4822,-9.0843,2.7696,7.1175,11.8414,9.0744,-6.0524,-4.138,-22.5837,7.1226,
8.0482,4.3072,-16.7675,13.5803,-6.2381,-4.9241,-1.4941,7.8956,13.7818,8.2887,-4.9662,-4.1309,-34.3648,9.8285,
4.9142,7.6642,-15.5205,10.5963,-5.1407,4.2892,-3.0917,4.2883,8.8575,5.1399,-7.8017,2.1427,-28.2056,8.9978,
7.2705,4.5532,-11.4558,10.2019,-5.0732,-5.8499,-0.73659,1.8619,9.5314,7.0011,-12.877,1.7732,-22.4156,6.7707,
7.5574,3.5569,-4.7431,9.3482,-1.1536,-15.8634,0.99415,2.4733,14.9848,8.7499,-10.8995,-7.7334,-19.8659,5.6414,
3.2473,6.7177,-8.3149,7.3412,3.2544,-8.1627,-2.4397,1.3608,12.6397,4.8507,-5.4251,-3.895,-19.6378,5.3031,
4.2578,7.0375,-11.9134,8.588,0.88949,-3.5756,0.35821,-0.89001,13.5685,5.7645,-2.4482,5.2566,-20.6289,9.5642,
9.5458,5.8925,-7.1011,6.3858,-0.85076,-5.5301,2.9882,-1.0777,12.5133,8.5525,-3.9885,-4.4587,-17.7038,8.2673,
10.4195,4.5749,1.0377,6.9668,-0.31779,-4.7161,3.2906,-0.048934,6.4601,10.4492,-4.7132,-15.2784,-20.0161,4.879,
6.179,3.5772,1.2166,8.7179,3.7989,-0.33582,1.8883,-0.76913,6.7954,11.5095,-5.6355,-4.4795,-22.9124,8.6836,
2.6748,4.0856,-8.2565,2.6514,7.6684,3.7816,-3.2866,-3.3742,8.557,6.2398,-9.877,4.7069,-21.2968,6.9574,
4.6835,2.1535,-4.6276,3.2152,3.5929,1.3857,1.4899,-1.0026,15.0334,8.5165,-7.115,-2.083,-25.5624,7.7453,
5.3665,-1.8322,-4.3501,3.5043,4.3413,-3.9999,1.4006,-1.9064,10.7571,7.0413,-8.1342,-1.9579,-27.403,2.9424,
5.2856,3.8214,-9.6328,-2.7314,7.214,1.7836,-3.263,-3.4794,-0.25257,-1.3348,-7.887,6.5952,-19.7334,-1.3319,
4.9684,5.5203,-8.0907,-3.0499,4.371,8.9074,-4.9954,-1.3424,-0.23742,-0.29088,-6.45,4.7537,-13.2468,0.19428,
3.2241,2.2966,-7.605,1.9538,7.4832,7.891,-3.2495,0.1844,2.1874,4.5473,-10.4013,7.3605,-11.0057,2.1108,
0.86147,2.4002,-2.5692,3.0419,4.865,4.2841,3.4535,-0.067633,7.1174,3.0692,-5.6798,8.1242,-19.7453,6.0815,
2.256,5.1483,3.3693,1.895,-0.72952,5.4731,-0.6106,-1.5098,10.0648,2.4031,1.8918,3.7801,-17.1146,6.1986,
5.2541,6.0446,4.8545,4.9147,-4.3011,4.9038,-2.743,-0.21407,10.1842,10.213,1.5372,7.1688,-8.1336,8.4781,
-0.12276,3.0304,7.2144,8.7175,-8.1405,-0.93414,5.3754,1.9681,8.3677,12.2512,-0.72431,5.0516,-10.779,10.1385,
-4.2127,2.6077,9.4329,5.061,-5.9648,-1.601,0.47361,0.16274,4.7326,4.5267,0.042278,3.5434,-2.6604,1.5764,
1.5837,1.7282,12.0005,4.9982,-5.3658,0.66411,-3.6525,0.39406,7.582,5.9422,1.2449,5.4999,1.1145,-0.20506,
5.1039,1.8655,7.6648,7.3496,-3.8388,2.3115,-2.7102,3.0217,4.9577,6.7907,-3.8912,3.9648,-11.2447,4.3868,
-1.9513,4.1635,-1.4721,0.64201,-0.71609,4.583,-4.4757,3.3223,-1.6068,1.0805,-5.5863,7.5832,-0.92914,1.7129,
-2.0752,1.7446,0.78543,-1.0837,1.978,5.031,-2.5199,2.4,-0.30513,2.221,-0.67137,9.2974,13.2266,2.8154,
1.1825,1.8811,3.3894,-1.2599,7.4027,5.9342,-3.5742,-0.39531,-4.3844,-0.081661,-5.693,4.16,0.26121,5.7797,
-1.7805,4.1788,2.7046,-2.1482,5.5127,8.4706,-2.3955,-0.85352,-4.1209,-2.9688,-5.351,-1.3918,-8.4311,-0.35165,
-0.95074,7.0611,3.7471,2.0781,1.5665,7.7214,-0.56451,-0.07941,1.1876,0.34234,3.8877,-0.10344,6.1748,-5.8742,
-2.3395,3.7449,1.5941,-1.903,3.4007,7.7401,-2.9408,-2.4848,-2.2577,-4.0165,0.76239,4.7235,19.9043,-2.6292,
-3.1632,3.0385,2.9449,-7.5732,2.2326,9.2041,-3.2465,-0.88966,-1.64,-5.7035,-3.1395,1.0658,14.8536,-1.9893,
-0.80427,5.0254,4.455,-7.3602,0.89335,6.9646,-6.6671,1.8148,0.14513,-1.2639,-1.2644,-1.6497,9.8648,-7.8959,
0.69001,0.3853,6.1161,0.7944,-2.0525,1.726,-1.9285,2.1881,4.475,4.1143,4.5963,7.6086,3.0062,0.29083,
-1.2797,-5.9044,8.1594,3.6389,-10.1242,-8.5005,2.5256,-0.83537,6.1348,2.9032,5.2845,1.8493,-2.9586,2.6836,
1.9305,2.4034,5.9827,0.7696,-6.8656,-1.4829,-1.7236,-1.5083,2.6333,-0.88625,1.3521,-12.3617,-0.12991,-4.9491,
6.8765,5.393,1.0442,-1.9279,-3.8021,8.4882,-5.2354,-2.1409,0.3064,-3.4844,-3.7905,-16.8018,-8.5578,-7.3035,
8.6331,3.8641,-3.5977,-2.0532,-5.7431,8.2199,-5.6442,-2.2534,-3.3274,-5.9264,-5.2503,-9.7681,-8.7675,-7.1062,
4.9816,6.2833,-5.0695,-6.0278,-5.158,5.5575,-6.9932,0.050955,-6.7436,-7.2581,-6.6225,-2.1926,2.6044,-9.3314,
4.2003,6.3883,-8.6217,-9.0406,-2.4379,5.706,-11.3939,-0.43404,-7.3029,-9.2332,-10.0815,3.7235,1.484,-10.2178,
6.1179,-0.50251,-11.2375,-9.2211,-3.9789,5.1227,-15.2895,-4.9877,-11.9264,-11.3303,-9.7176,6.1517,-4.1484,-11.2915,
19.8509,3.866,1.9698,-1.9189,-4.704,5.2973,-4.2493,-1.796,-3.498,-4.8659,-2.868,5.3006,-3.4176,-7.7219,
32.7598,10.6241,1.6109,-3.0088,1.6035,5.2206,-7.1276,-0.48313,-4.0113,-5.779,-8.7217,-0.56125,1.367,-7.4998,
32.4812,4.925,-5.9576,-8.8543,8.9791,5.1484,-20.4385,-1.6594,-12.2063,-8.5657,-8.9213,-2.2148,5.3823,-8.2547,
20.8914,3.1837,0.18447,-10.2508,17.5994,11.1064,-31.2632,-2.0418,-10.992,-9.0157,-5.9754,0.8106,-0.72494,-5.3493,
33.7379,17.0927,2.8247,-6.9849,30.6434,18.8755,-43.4874,-0.71423,-8.1631,-10.6441,-10.1969,-2.3713,-2.8508,-2.377,
45.8136,28.4796,1.9319,-5.3605,42.9048,5.9328,-54.9782,-4.7687,-8.8786,-8.8002,-8.3798,-16.329,-9.1875,-2.9573,
57.1648,40.8709,6.3957,-2.3878,54.4306,-6.2333,-43.0029,-7.6161,-8.1049,-4.6567,-2.8155,-17.1572,-14.662,-2.5389,
67.8349,52.5186,6.0117,-2.2443,65.2647,-1.0388,-26.3227,-5.2307,-7.6184,-9.1978,-9.8772,-10.8251,-23.423,-3.3506,
77.8648,63.4675,4.446,-4.7609,75.4488,1.6749,-10.6433,-3.7118,-7.4025,-10.3329,-17.2383,-21.5038,-36.1177,-7.2472,
87.2929,73.7594,4.6611,-5.9215,85.0219,-8.0668,4.0953,-6.3816,-6.9583,-6.8209,-14.7582,-26.4803,-48.0506,-9.7049,
96.1554,83.4339,4.6229,-4.3609,94.0206,-16.0185,17.9496,-8.6496,-6.7818,-6.1707,-16.0417,-24.6503,-59.2676,-9.8455,
104.486,92.5278,4.1043,-1.9299,102.4794,-7.1036,30.9726,-0.17687,-12.8826,-4.5954,-23.5151,-32.0894,-62.3397,-11.9061,
112.3169,101.0762,4.099,-4.9481,110.4306,-2.5803,43.2142,7.7875,-16.2072,-4.5606,-28.1302,-44.264,-72.6993,-14.3252,
119.6779,109.1116,6.0223,-6.8199,117.9048,-8.4508,54.7214,5.1511,-11.1372,-7.9024,-27.6474,-55.7082,-82.4374,-12.7423,
126.5972,116.6649,5.42,-2.3133,124.9305,3.3844,65.5381,9.4213,-12.6384,-6.7054,-30.5681,-56.7042,-70.2605,-11.7368,
133.1014,123.765,-6.2334,-9.6461,131.5346,7.7609,75.7058,13.9179,-21.7618,-7.99,-42.4721,-67.402,-75.4446,-19.4685,
139.2153,130.4391,-2.4852,-7.1396,137.7426,4.4027,85.2635,21.2776,-14.1895,-4.6181,-39.924,-70.227,-85.018,-15.4081,
144.9624,136.7128,1.2794,-4.0596,143.578,5.8259,94.2476,24.5803,-9.2407,-6.0284,-33.913,-51.9134,-84.376,-11.3502,
150.3646,142.61,-9.4025,-9.6007,149.0633,14.6353,102.6928,26.9618,-13.0249,-6.6309,-34.2887,-53.4986,-80.2777,-13.0797,
155.4427,148.1534,-16.5511,-10.9528,154.2195,27.8571,110.6312,35.9494,-15.1355,-4.3048,-33.6774,-55.5911,-70.1584,-13.2586,
160.2162,153.3642,-14.112,-8.3677,159.0664,36.1881,118.0933,38.1309,-12.2994,-5.9745,-33.103,-46.4713,-66.431,-14.8736,
164.7032,158.2623,-15.1933,-7.8654,163.6224,39.8017,125.1077,32.9508,-12.5253,-5.6163,-31.5988,-43.6828,-60.0348,-14.9453,
168.921,162.8666,-12.1127,-11.0089,167.905,50.188,131.7013,30.7323,-15.3894,-1.6639,-24.6414,-39.3748,-42.3327,-13.8074,
172.8858,167.1946,-1.7446,-8.9021,171.9307,49.1049,137.8992,31.299,-11.0916,-3.0103,-18.3424,-30.7456,-25.6928,-14.4252,
176.6126,171.2629,-3.0864,-6.922,175.7149,48.0866,143.7253,28.9389,-9.9442,-4.2757,-17.2419,-20.224,-10.0512,-12.5956,
180.1159,175.0872,-11.0959,-9.8809,179.272,48.0937,149.2017,23.3464,-13.6858,-0.64495,-16.6893,-11.7797,-1.3737,-6.0551,
183.4089,178.6819,-13.5634,-9.0473,182.6157,37.7365,154.3496,17.848,-15.0339,-0.84699,-19.7853,-12.278,-15.3913,-5.9329,
186.5044,182.061,-11.0626,-6.335,185.7587,38.1236,159.1887,18.9461,-9.5525,-2.9656,-19.3216,-5.0338,-14.8295,-10.1565,
189.4141,185.2374,-8.9526,-7.401,188.7132,47.4051,163.7373,17.3276,-4.6408,-1.3416,-12.8596,3.9453,0.16031,-9.5473,
192.1493,188.2231,-11.7901,-8.8853,191.4904,52.7558,168.0131,15.8058,-7.7366,0.66733,-6.7856,8.0469,14.2507,-5.6003,
194.7203,191.0297,-12.5287,-8.8341,194.101,44.7702,172.0323,13.4112,-8.2367,1.1092,-4.4501,9.0104,27.4956,-4.7819,
197.1371,193.6679,-5.7512,-7.5812,196.5549,31.2377,175.8104,9.9554,-6.0553,0.31977,-3.9421,11.6032,31.9922,-6.6641,
199.4089,196.1479,-1.3086,-5.4389,198.8616,29.6046,179.3617,8.6349,-7.379,-1.3869,-0.57208,15.4863,44.1726,-5.0592,
201.5443,198.479,-0.024997,-4.8718,201.0299,25.659,182.7,6.9118,-6.2131,-1.5444,1.1492,9.4957,47.6683,-3.5506,
203.5517,200.6703,3.351,-5.0614,203.0681,20.745,185.838,8.4253,-3.4302,-0.9698,-0.8479,12.3004,44.8082,0.51884,
205.4386,202.73,-0.70695,-10.5423,204.9841,18.054,188.7878,7.9198,-5.1526,-2.3579,-1.7611,17.8289,55.6171,3.3802,
207.2123,195.3865,-7.413,-10.3917,206.785,15.525,191.5605,4.0701,-3.3972,1.1581,6.0575,12.9028,56.1367,-0.19704,
208.8795,174.5045,-9.8605,-4.9477,208.4779,16.0395,194.1669,1.8975,-4.1574,0.6064,10.9965,15.5028,65.7839,-4.5238,
210.4467,154.634,-8.0638,-3.4458,210.0692,11.4615,196.6169,2.0248,-4.1492,-0.63504,8.6495,21.5625,70.2728,0.32718,
211.9199,137.8844,-9.7494,-7.3366,211.5651,6.1943,198.9198,-2.6762,-6.5516,-1.3201,1.6228,17.1353,60.5125,2.4769,
213.3047,124.0677,-3.6208,-3.763,212.9712,8.9561,201.0847,-2.7566,-2.0611,-1.9638,6.5871,9.1175,63.8717,3.0512,
214.6065,102.5236,-1.7165,-2.3321,214.2929,2.393,203.1196,-4.2786,-0.25045,-7.3898,10.7712,-1.3117,66.5471,-0.7475,
203.1761,82.2722,-8.362,-7.4948,215.5353,1.2855,205.0324,-7.3959,-6.9839,-3.5719,2.8943,4.5518,65.9287,-4.0766,
181.8267,68.1769,-10.2702,-12.3476,216.7032,1.6906,206.8305,-8.8801,-9.4571,0.49899,-3.5459,5.725,58.1164,-7.2063,
170.1938,57.5788,-7.0029,-8.9556,217.801,-2.0263,208.5206,-6.1781,-7.2025,-4.5926,3.6565,-0.6443,59.6911,-7.9792,
150.5824,42.3137,-13.0904,-10.5872,218.833,-6.0023,210.1094,-11.8332,-10.3855,-8.4147,4.16,1.5635,60.2072,-10.1518,
127.4474,29.6517,-15.1973,-11.8804,219.803,-6.6063,211.6028,-14.4975,-8.7983,-6.9457,-2.3561,12.0748,58.0408,-9.5424,
105.7006,21.6059,-15.2495,-11.1673,220.7148,-5.2458,213.0067,-12.1816,-7.7887,-7.975,0.67757,18.099,62.2713,-8.0058,
85.2586,15.0071,-14.8167,-10.4975,221.5719,-7.3414,214.3263,-12.4148,-11.6595,-7.4962,8.8319,14.6031,58.0529,-3.6693,
66.043,15.312,-8.866,-7.6981,222.3776,-5.2132,215.5667,-13.3571,-12.6471,-6.8055,5.6509,13.9679,57.7032,-1.7619,
47.9805,16.8034,-8.816,-8.6824,223.1349,-1.0441,216.7327,-9.1812,-6.5856,-8.8073,7.7219,23.2527,63.3996,-5.0306,
31.0016,8.0822,-12.1437,-10.0899,223.8468,-2.9098,217.8287,-7.1843,-0.88809,-8.2791,15.9355,28.1243,63.4522,-7.1392,
15.0415,-0.35649,-15.5124,-9.7255,224.516,-6.3507,218.859,-8.4405,-7.3423,-15.2541,9.9177,20.8932,62.7786,-4.0593,
0.039038,-12.1452,-15.3046,-9.3829,225.1451,-12.4771,219.8275,-10.1032,-10.9996,-22.2926,1.8508,9.7577,56.3603,-1.6465,
-14.0633,-25.5165,-8.8431,-4.2407,225.7364,-11.0056,220.7378,-7.8098,-4.3136,-13.0013,5.8371,15.1978,56.1122,-3.235,
-27.3195,-38.0855,-9.0357,-5.1913,226.2922,-6.2481,221.5935,-6.1362,-3.814,-11.9805,9.1021,20.7936,54.9144,-6.1741,
-39.7803,-46.8876,-9.2167,-5.6029,226.8147,-7.0783,222.3979,-5.0449,-4.7902,-17.7689,8.3152,16.4128,45.5942,-4.5986,
-51.4935,-52.2693,-10.1092,-4.7846,227.3058,-9.0635,223.1541,-5.2243,-4.9845,-16.7026,4.4421,19.7665,37.0737,-4.8044,
-62.5039,-62.3893,-10.2258,-0.88233,227.7674,-13.5811,223.8648,-8.5261,-1.5522,-10.157,4.8987,19.7856,37.9826,-1.8653,
-72.8537,-72.7459,-12.5048,3.9913,228.2014,-20.4795,224.5329,-12.8352,-0.013275,-7.6194,7.4968,4.4985,42.9345,1.6211,
-82.5824,-74.2865,-13.9239,0.61836,228.6093,-18.5278,225.1609,-8.9316,-4.1098,-9.3319,5.8417,1.6977,40.5994,1.2829,
-91.7275,-72.2396,-8.2677,-4.7212,228.9927,-13.5595,225.7513,-5.5034,-1.9353,-11.6643,5.9734,8.3445,33.3429,-1.2045,
-100.3239,-72.4846,-3.1924,-1.7868,229.3532,-10.5764,226.3062,-5.4142,0.35046,-13.1336,12.6048,-0.10987,39.7785,-3.3014,
-96.5941,-77.5355,-2.7594,-0.4743,229.692,-15.9678,226.8278,-6.2946,-0.39393,-8.2477,10.6437,-7.5751,33.2944,-5.2724,
-95.3782,-81.8014,-4.7635,-1.6511,230.0105,-18.1432,227.3182,-4.7117,0.35261,-0.76346,3.4972,1.797,19.0042,-3.2689,
-93.2707,-81.9548,-7.1285,-3.721,230.3098,-13.9209,227.7791,-2.742,0.090714,-3.3685,4.0105,13.0176,29.1924,-1.8677,
-90.5669,-84.2683,-0.91669,-2.5339,230.5912,-12.1218,228.2123,-3.0594,1.5315,-5.577,11.0007,13.2004,38.5276,-2.238,
-87.0607,-81.6224,1.067,-0.45364,230.8558,-6.5737,228.6196,-4.804,-0.0066211,-3.3142,7.4481,20.1216,40.5547,-2.5852,
-89.5503,-79.6175,-6.2279,0.055509,231.1044,-4.2511,229.0024,-4.9977,-1.4525,-4.0792,5.555,17.4681,39.5677,-0.98428,
-96.4695,-84.7226,-6.5774,-0.18856,231.3382,-11.4681,229.3623,-4.4571,-0.16027,-9.3783,7.3911,2.32,23.0937,-1.1664,
-93.3322,-83.7364,-3.0495,-2.8286,231.5579,-6.2,229.7005,-1.5384,-0.39139,-10.5026,6.2245,-1.0729,17.008,-4.7116,
-83.8761,-80.1583,-4.3125,-3.141,231.7644,-0.52562,230.0185,-0.96389,1.0781,-8.4264,8.7437,7.6683,30.0876,-2.5005,
-84.8691,-80.8928,-6.2234,1.1448,231.9585,-6.0377,230.3174,-5.0034,-0.19186,-6.7155,9.424,14.68,42.3823,2.2288,
-87.7309,-86.4029,-1.7524,3.2455,232.141,-10.2549,230.5984,-6.8726,-0.42109,-3.1793,8.6173,15.0043,34.7777,0.89002,
-81.7439,-88.2088,4.8605,0.88138,232.3126,-7.4707,230.8624,-4.2908,1.2912,0.14468,3.5208,7.5963,36.7886,-0.36845,
-77.8034,-83.398,2.6409,-2.5457,232.4738,-0.75573,231.1107,-3.0693,-1.1962,-6.1307,0.41723,9.069,48.6813,1.5816,
-81.8125,-84.1794,-2.3385,-2.3932,232.6254,-1.1926,203.1441,-3.3673,1.2855,-5.2807,11.9616,13.8268,45.6397,1.9689,
-78.3496,-85.3947,-2.6802,-1.7672,232.7679,-2.5668,176.8554,-2.6833,4.1009,4.6771,18.9567,14.9258,32.296,-1.5237,
-72.4438,-85.8151,-1.7964,-3.8308,232.9018,-2.1718,152.1441,-6.6197,-0.243,3.1912,8.4193,18.1276,30.5992,-2.1552,
-72.4355,-89.3428,3.1321,-1.1904,233.0277,-7.3442,128.9154,-8.6326,2.1822,-0.8567,2.6115,19.4501,17.1941,2.7944,
-72.4277,-89.2849,2.4622,-0.63702,233.146,-13.652,107.0805,-6.1865,3.9794,-0.80484,5.8292,16.3549,9.896,1.6629,
-72.1794,-89.4714,2.5554,-0.83977,233.2573,-13.5562,86.5557,-5.5743,4.9455,3.8227,8.1306,15.1326,18.2198,1.3221,
-67.1255,-85.7901,6.9816,3.3082,233.3618,-9.1272,67.2623,-4.5167,8.2644,9.6192,10.2941,13.5015,24.1167,4.858,
-66.2312,-86.6685,2.4651,5.2786,233.4601,-11.7133,49.1266,-5.4508,5.5992,5.9083,4.615,6.6661,12.7876,2.8795,
-71.6573,-89.9041,-1.2977,6.1672,233.5525,-15.5898,32.079,-6.329,4.5403,0.9745,-0.24122,6.0252,7.441,3.912,
-73.6246,-86.9202,2.1544,4.8331,209.5369,-12.244,16.0543,-6.4315,4.7501,0.9158,1.7012,11.448,14.2252,7.0515,
-75.4741,-87.9719,4.9172,5.507,182.8647,-13.92,0.99101,-7.0094,7.3571,6.1635,2.5635,9.3149,9.0333,7.5923,
-75.043,-93.0575,-2.8497,6.3818,157.7928,-19.5922,-13.1684,-4.9016,7.6386,6.0347,4.5788,1.2842,1.0195,6.4139,
-75.8429,-88.4381,-5.5708,5.0348,134.2253,-15.5244,-26.4783,-1.2333,5.7347,2.2984,10.5708,6.992,15.0584,2.6548,
-82.3797,-85.0603,3.9225,3.7686,112.0718,-11.2187,-38.9896,-4.0516,6.3543,2.6426,6.5619,11.8749,19.8187,-1.843,
-76.4726,-85.2588,6.0973,4.5069,91.2474,-8.1355,-50.7503,-4.7728,6.9373,4.4123,2.3118,9.2342,9.4706,4.5341,
-72.3662,-89.3023,-1.4994,-0.58427,71.6726,-10.5394,-61.8052,-5.4503,0.25458,-0.1908,2.6555,-0.47891,0.70762,6.1902,
-67.783,-81.2929,7.9908,4.0303,53.2722,-6.2914,-72.1967,-3.9183,-0.0018949,1.5076,2.255,4.1293,10.5473,2.6855,
-64.6804,-76.8972,7.9933,5.7167,35.9759,-1.0937,-81.9649,-6.0933,3.3727,2.3815,-2.2187,11.1124,12.807,0.59622,
-65.861,-79.2735,5.8262,4.6505,19.7174,-3.1974,-85.8446,-4.5226,8.7137,2.4794,3.9398,5.8662,6.4947,4.658,
-71.3094,-76.2043,7.1639,3.6486,4.4343,-4.6928,-94.7939,-3.5284,0.71907,1.1253,3.4624,7.2014,9.2381,-1.6475,
-67.272,-69.9446,1.6726,2.7066,-9.9317,-0.79559,-103.2063,-2.5935,-0.046748,2.7452,-0.36051,8.9387,10.8537,-3.2356,
-67.574,-75.3894,-5.6586,3.508,-23.4358,-10.3888,-111.1139,-3.4018,7.6684,4.9907,-1.7851,-5.6976,-3.2954,2.2612,
-72.4378,-76.4094,3.5988,5.9489,-36.1297,-17.2375,-113.9678,-0.54682,7.4495,9.7527,1.4552,-4.9943,-4.7851,2.8486,
-68.0911,-72.7887,13.5062,3.1818,-48.0619,-11.8645,-120.1447,1.4146,4.1104,12.542,6.6706,6.3926,1.769,0.74952,
-64.729,-73.965,3.2958,2.268,-59.2782,-9.4659,-127.036,-2.7681,2.1766,6.2458,5.065,0.94735,2.3857,-1.4646,
-67.8351,-72.6606,2.3747,7.1932,-69.8215,-11.549,-133.5138,-1.3967,5.179,2.7376,4.5202,-3.2068,2.9659,0.79243,
-65.6932,-69.7472,2.7146,2.9052,-79.7322,-10.3741,-131.529,0.13339,4.3863,3.5377,7.6234,2.2882,6.6444,4.6013,
-62.4743,-68.2137,-11.5482,-5.705,-89.0483,-3.244,-137.7373,-0.59775,-3.8308,2.1203,5.479,4.8022,17.5737,2.1558,
-65.4748,-68.4592,-20.617,-0.54202,-97.8054,-4.9775,-143.5728,0.40198,-0.22651,4.8852,0.81149,-0.78854,15.073,0.5802,
-67.8128,-68.208,-12.6313,4.3108,-106.0371,-9.4991,-141.7073,-0.586,2.6796,4.1101,2.691,-2.1875,3.5638,-0.90042,
-61.8158,-67.49,-11.3913,1.16,-113.7748,-3.1446,-144.2921,-1.9971,-0.37369,-0.47479,9.2784,8.5491,10.5808,1.5637,
-59.7941,-68.5023,-11.9131,-2.525,-121.0483,-1.7511,-147.4447,-3.5645,-1.0742,-3.0979,4.6244,10.2053,8.2587,1.2289,
-61.991,-63.9097,-6.8598,1.4829,-127.8854,1.2465,-150.6491,-1.9044,-0.52779,-2.4296,-1.9201,7.6648,4.3887,-0.29105,
-63.5744,-64.8961,-3.074,1.8761,-134.3123,2.6177,-152.2153,-2.2723,-0.49635,-1.3197,3.0161,2.3844,4.6076,0.20857,
-54.9395,-58.592,0.002767,-3.0574,-140.3536,8.7274,-152.2416,-2.1357,-2.3945,-2.2051,7.1732,8.0257,8.6692,1.1597,
-57.4275,-56.0406,-7.7099,-8.1764,-146.0324,8.204,-157.2071,-6.828,-10.4458,-8.3391,-3.8622,12.3646,1.8828,-6.1405,
-59.0433,-60.6316,-5.0782,1.2325,-151.3704,0.23972,-154.6438,-2.8032,-1.8651,-0.36715,-1.4611,8.0076,-10.5225,-2.1564,
-56.224,-62.0554,-0.67614,4.774,-156.3882,-7.2465,-149.9445,-3.8398,3.3085,2.7884,3.6882,1.0196,-14.9528,3.9985,
-55.7431,-56.4039,1.2924,1.595,-161.1049,-0.063232,-149.6249,-3.128,4.5558,1.6567,6.359,-3.3803,-9.2354,5.6868,
-56.2547,-54.4657,-1.1953,-0.42911,-165.5386,7.1716,-153.6626,0.43441,4.2827,2.0395,4.5314,2.6073,-4.3427,2.4533,
-58.664,-57.9467,-1.6053,-2.8135,-169.7063,0.95675,-155.5301,-2.9661,1.1332,-0.493,2.8133,8.2354,-12.7588,-0.10402,
-61.6521,-57.121,6.4448,3.3809,-173.6239,-5.1262,-152.7062,-2.0648,6.6088,1.7057,5.778,1.7158,-13.6805,6.8916,
-66.3884,-54.4168,3.4068,1.9729,-177.3065,-4.0955,-157.6438,-0.73584,3.561,0.88026,-1.0764,5.228,-1.0493,5.2731,
-61.9232,-50.1879,0.31031,-3.4476,-180.7681,-0.95771,-157.9467,-0.69169,0.93718,0.34551,-1.0118,11.1813,-0.98635,2.5466,
-57.967,-45.9716,0.050496,-2.0357,-184.022,-0.17712,-154.9776,-0.89138,2.086,1.5298,6.0385,-3.2281,-6.471,3.1169,
-57.8635,-43.6952,-5.7373,0.97851,-187.0807,0.79738,-158.6943,0.12597,1.9609,1.92,6.6401,-6.4089,-0.29817,2.9299,
-57.5247,-47.0991,-8.0444,2.607,-189.9558,-3.3478,-153.7524,-1.0864,4.0124,-0.36437,3.5906,2.4113,-1.0032,5.4052,
-56.2424,-47.8886,-10.2129,1.2453,-192.6585,-1.9417,-152.963,0.18406,3.0487,-2.9936,5.0624,0.57941,-2.6302,6.7681,
-52.8681,-41.641,-10.5642,-0.75737,-195.199,2.0315,-156.3184,3.5472,2.3836,2.9704,9.5791,-1.8653,3.3124,5.3979,
-49.4548,-39.3833,-6.7968,-0.95267,-197.587,0.70451,-157.7854,0.68308,1.0356,6.8897,3.461,8.6108,8.657,0.01259,
-49.8619,-39.4309,-9.7637,-0.89597,-199.8318,4.5182,-157.4773,0.16016,-0.47284,5.512,2.289,18.217,14.8865,0.49377,
-56.7522,-45.5007,-14.7213,-5.9034,-201.9419,0.14972,-160.3207,-1.5367,-3.5775,-0.84425,3.8389,11.5804,10.3779,2.1514,
-50.2138,-39.6374,-2.5098,-4.3442,-203.9254,1.8282,-158.1735,-0.23941,-2.1578,-0.5524,5.296,12.573,9.9964,0.81722,
-44.3087,-34.8488,9.6921,1.7008,-205.7899,5.5747,-150.1291,0.25712,-0.10035,3.3374,4.978,9.8902,1.2017,-1.1598,
-47.1935,-39.2656,7.4236,4.2501,-207.5425,-0.3032,-147.6291,-0.48144,1.5931,3.3779,4.9205,-0.58537,-12.9704,1.0787,
-42.4337,-38.8378,3.6035,3.0312,-209.1899,-4.6238,-149.8586,0.99371,2.9433,1.7289,7.0354,-0.06831,-12.795,1.496,
-39.6467,-36.7485,7.0029,1.6441,-210.7385,-5.5512,-145.9287,1.1751,3.972,2.3485,7.8186,3.0693,-0.21675,-1.2449,
-40.1602,-35.9897,7.0645,2.9915,-212.1942,-4.254,-145.3679,0.14045,-0.12245,1.7255,2.529,1.4391,-2.1322,0.27583,
-39.1969,-34.3127,5.6767,1.3657,-213.5626,-2.5525,-148.697,1.0959,-2.5257,-0.30625,0.4486,2.3166,-3.4505,1.2236,
-38.0501,-31.0488,6.0592,-1.3671,-214.8488,1.2158,-147.7291,1.2713,1.7234,-1.4929,4.0373,9.1677,6.1568,-1.0192,
-35.0442,-26.5348,6.4181,-1.0446,-216.0579,3.794,-143.927,-0.49217,0.41474,-3.573,5.9638,15.1251,16.6332,0.72917,
-34.6288,-27.5938,10.1309,1.6697,-217.1944,-3.9055,-139.8707,-0.70361,0.14889,1.2211,5.3655,13.0123,10.5739,0.92639,
-39.7814,-30.7584,6.6309,0.12322,-218.2628,-5.117,-144.4939,2.2311,-0.82391,4.0404,2.6334,14.6422,6.5651,-1.0574,
-47.7591,-32.5286,-1.7209,-7.3557,-219.267,-2.641,-149.5628,-1.0365,-5.8364,-3.6741,-2.1046,14.0044,4.4837,1.1754,
-44.1702,-28.8896,5.3718,-4.2633,-220.211,-5.6156,-141.7943,-2.6615,0.057408,0.1618,4.5296,5.6923,5.9019,4.7203,
-38.6277,-25.2278,6.496,-3.0434,-221.0983,-5.2789,-140.9992,-0.09145,-1.874,2.0801,6.6682,9.6893,17.1172,0.09857,
-37.2741,-25.1607,-0.64247,-6.717,-221.9324,1.7865,-139.7699,0.87813,-5.1362,-1.419,4.3397,19.2311,20.9106,3.9488,
-34.0734,-22.2043,3.2525,-0.52937,-222.7165,6.982,-133.7938,2.2717,-0.48929,2.0406,7.4538,16.149,22.0666,10.9432,
-37.3318,-25.6925,4.5034,2.3947,-223.4535,-2.5957,-135.4074,-0.27495,0.022232,-1.938,6.5248,1.0801,16.404,2.0917,
-39.4302,-29.4539,2.7869,6.1074,-224.1463,-6.7788,-130.1754,0.70587,4.8412,0.58843,8.5435,-5.1307,2.8863,2.93,
-38.7519,-32.2661,-3.4059,5.4998,-224.7975,-4.6846,-129.3546,0.42232,4.3099,6.5789,3.9333,-6.5104,-8.6148,5.8875,
-33.2933,-32.4993,-2.9603,7.3394,-225.4096,-5.6088,-125.6906,3.5305,8.6306,8.8353,2.4925,-16.9655,-3.0367,7.2215,
-28.1622,-27.8983,-1.5779,10.032,-225.9851,-5.0313,-119.8364,5.9697,8.8357,4.6897,8.8504,-9.9221,5.0992,7.0291,
-30.811,-27.6704,-2.9292,4.6096,-226.526,-4.7292,-122.2874,1.273,1.5569,3.9262,5.4271,-3.5424,-6.2937,-0.14129,
-30.6498,-26.7333,7.1287,9.8764,-227.0344,-8.0611,-117.6015,3.8479,6.043,11.6446,1.0039,-12.2477,-19.6547,2.0366,
-27.1234,-21.032,8.8699,13.3814,-227.5123,-11.675,-115.1249,5.3041,7.8498,8.7765,0.22051,-9.8258,-17.2703,6.4934,
-32.4858,-27.2416,0.86613,7.0349,-227.9616,-15.0714,-116.1712,-0.075401,4.2453,4.1526,-1.48,1.61,-15.9927,4.899,
-38.2495,-36.6946,1.2961,7.5767,-228.3839,-20.916,-115.9498,-1.5171,5.9188,7.7598,-5.2475,-2.8249,-23.7107,3.6407,
-33.7853,-32.8055,7.726,9.2917,-228.7809,-21.3483,-114.0541,-0.22081,7.2509,7.0532,-2.2811,-9.6453,-20.6003,6.0738,
-26.4558,-27.9451,8.7085,6.3239,-229.154,-13.8007,-110.1031,1.2385,8.2619,5.184,3.6401,-1.836,-5.2643,5.7092,
-29.9299,-29.4016,3.1245,5.7032,-229.5048,-9.8394,-114.3429,1.8873,0.77651,1.2573,2.6985,4.3,-0.48943,1.2695,
-34.4008,-25.7093,4.8655,7.7714,-229.8345,-9.7312,-112.3033,1.7738,-1.6804,1.1821,2.5369,3.0779,-12.0295,2.157,
-29.9264,-21.2742,6.9837,10.1974,-230.1444,-9.1471,-106.5287,2.1496,6.1334,6.4136,-0.025703,-3.8555,-15.1638,3.474,
-31.9872,-24.3363,4.6365,12.4781,-230.4358,-10.5264,-107.8503,2.5025,5.2835,6.5107,-3.3986,-7.4805,-9.4338,2.3013,
-36.0933,-27.4557,10.3843,15.345,-230.7096,-12.0642,-105.9583,3.5579,5.2072,5.8793,2.3491,-7.2724,-15.3754,9.6352,
-32.2405,-25.5674,9.5198,10.3265,-230.967,-8.6888,-100.8061,0.69286,6.582,3.8394,1.9672,-7.5595,-13.73,7.3699,
-29.5834,-25.7206,1.4768,6.0913,-231.209,-5.0347,-94.9989,-1.0357,7.3921,2.4039,0.16174,-2.0444,-4.9522,0.41999,
-29.0137,-28.2749,1.6292,7.413,-231.4365,-6.9018,-97.7351,0.7132,6.2257,2.9826,1.3569,-1.6808,-9.7168,2.082,
-24.3801,-22.2396,-0.39677,5.0403,-231.6503,-1.6672,-100.5474,0.67064,1.5136,3.2858,1.2757,0.8304,-5.2772,4.8494,
-25.5689,-22.1105,-6.3985,-0.80574,-231.8513,-0.36186,-98.6124,-4.9132,1.6638,4.7759,3.3683,2.4678,9.1395,0.943,
-30.3012,-26.0863,-3.1221,1.1708,-232.0402,-8.0529,-99.926,-5.1004,1.5644,4.9713,6.0587,2.3197,18.8347,0.88642,
-31.1345,-28.6187,4.0547,2.3056,-232.2178,-14.5594,-96.0999,-1.6611,2.1932,3.9499,1.5976,-0.95271,3.6046,2.5202,
-26.6153,-26.1785,4.5345,0.96199,-232.3847,-10.5528,-92.503,-1.3204,3.2669,3.9538,0.77886,-2.1008,-10.7117,0.19986,
-23.09,-20.7514,-2.0043,-2.47,-232.5416,-5.0992,-99.9685,-0.27712,-1.7496,0.34238,2.1782,2.3638,3.6694,-2.2225,
-19.5354,-17.3371,4.142,1.2937,-232.6891,-2.6236,-94.6933,3.8369,4.3809,-0.40106,2.2884,0.53471,9.9571,3.9369,
-16.4349,-11.9584,7.7496,2.6621,-232.8278,4.2825,-87.5657,5.5351,6.5284,-3.2697,-0.25922,-1.9077,4.0568,4.1824,
-17.6182,-10.5177,-0.18695,-4.0049,-232.9581,8.6051,-90.7476,4.4798,-3.2635,-7.6526,2.89,-1.0701,8.8753,-4.0221,
-19.9355,-13.2611,4.1626,-3.7651,-233.0806,6.6425,-87.7129,2.7648,-4.514,-2.3732,7.055,0.92226,16.0551,-5.227,
-23.0777,-11.9833,6.323,-1.1286,-233.1958,6.7259,-88.2347,-0.29316,-3.2788,-3.1947,-0.59918,-0.096938,14.6099,-2.0213,
-21.6931,-7.4077,6.9079,2.7955,-233.304,9.6968,-85.3507,5.9909,0.77432,-2.5211,-1.5271,-4.9114,8.4311,3.403,
-21.1148,-9.1328,8.1802,3.3507,-233.4058,8.874,-83.8456,6.3544,0.48689,-0.20065,2.6619,-7.2682,12.5045,1.0292,
-24.9092,-13.6463,5.5202,-0.9477,-233.5015,8.5825,-83.8761,0.9119,-2.6758,-3.3221,4.6713,-1.289,17.2979,-3.1299,
-27.271,-17.1661,3.2608,-2.3371,-233.5914,5.6575,-81.736,1.3391,-2.9972,-5.5329,1.0166,-0.24733,2.7626,-1.0139,
-25.1528,-17.1002,7.4035,0.21325,-233.6759,8.2101,-84.5446,3.187,-4.7456,-2.7908,-0.97259,-0.71442,2.1145,-0.47112,
-25.0897,-14.6279,10.334,0.68308,-233.7553,9.6459,-82.8462,1.5497,-2.5324,-3.587,4.8706,0.77447,15.0033,-0.44262,
-23.3436,-11.5811,6.0987,1.3648,-233.83,8.8259,-77.6342,1.6975,1.2347,-4.0949,5.3015,0.48727,19.1645,0.789,
-20.0143,-9.44,7.661,4.6573,-233.9002,9.7426,-76.3506,3.0419,3.5708,0.97105,1.6089,-5.3266,18.979,2.1879,
-20.2602,-8.8738,14.4317,3.4136,-233.9662,5.3017,-74.6621,1.4131,4.8028,1.8767,5.8507,-13.6841,11.5733,3.0205,
-19.7672,-5.6901,13.3251,2.4856,-234.0282,5.7067,-73.3156,3.0158,4.2734,-0.88681,8.6329,-7.8016,1.4791,4.5263,
-20.9915,-8.7227,11.5615,5.2292,-234.0865,7.7747,-71.3266,3.317,4.4992,4.9512,3.7769,2.7897,-1.5019,10.04,
-21.419,-11.8149,10.1447,4.1924,-234.1413,2.2463,-71.627,0.46665,2.5422,5.8587,-1.0293,7.2018,6.0598,11.1246,
-16.2777,-7.2497,10.0181,3.4586,-234.1929,1.6298,-72.1498,1.8847,3.8357,1.1691,0.47852,13.0364,16.7836,9.493,
-16.5061,-9.9479,13.0322,4.4562,-234.2413,2.2552,-71.918,2.9767,4.8107,0.37585,1.1729,8.1567,11.1971,5.7897,
-14.0697,-5.4947,17.0708,7.5635,-234.2868,9.8324,-65.1925,4.7265,2.5941,3.2456,3.0305,6.7032,10.0431,2.0681,
-13.7075,-3.7187,13.1545,5.1815,-234.3296,9.2424,-60.3171,1.0684,3.4023,1.6046,2.8492,8.2292,12.333,0.98014,
-16.5005,-9.5214,12.1243,1.7371,-234.3698,7.4826,-64.1699,-1.6472,4.4034,1.2674,2.9187,6.5301,13.7622,5.9826,
-14.5461,-7.986,14.2889,2.1148,-234.4076,15.7107,-65.1402,3.2723,0.28284,1.1913,5.6361,4.6925,16.3105,9.48,
-12.9502,-2.9273,14.6366,5.1212,-234.4432,18.8657,-58.0985,5.7273,0.50661,-0.56717,4.0929,0.79532,16.5374,5.7779,
-12.4144,1.8276,12.5533,7.4652,-234.4766,23.7591,-57.7461,5.1425,3.1275,3.0821,2.6418,5.3271,21.0885,6.1544,
-17.6951,-1.897,7.7028,0.99179,-234.508,24.0212,-62.2348,1.219,-0.19315,3.1381,3.2066,8.141,12.3514,3.616,
-21.9362,-7.568,8.2047,-4.3706,-234.5375,19.6872,-64.2856,-2.7108,-3.0743,-0.42441,6.3885,4.7602,3.8973,0.50672,
-19.4146,-6.8727,8.9175,-0.97465,-234.5653,19.7115,-62.5974,0.10319,1.2077,-1.1221,8.1745,-0.1049,12.5818,3.1276,
-18.7318,-9.3529,8.8646,2.94,-234.5913,14.6722,-56.4316,2.5069,6.4377,0.87321,4.3098,-11.668,10.3804,6.3142,
-14.9566,-3.2481,7.1277,5.4149,-234.6159,14.033,-52.8045,1.6338,2.9182,2.5083,4.292,-10.2448,8.0706,6.1765,
-8.5161,2.4904,8.3868,2.9209,-234.6389,20.6624,-51.8056,3.7045,2.0202,2.5987,12.4701,-0.2301,12.1656,7.4927,
-12.5844,-6.0949,10.5351,-1.3517,-234.6606,15.8072,-50.8665,2.7593,2.1399,-2.6189,10.5171,-6.2418,6.8564,5.8383,
-12.0703,-0.66778,10.144,0.89852,-234.6809,14.1359,-47.5735,5.2448,1.2882,-2.2208,6.7526,-0.32372,13.9168,2.8365,
-11.3461,3.7108,8.0891,2.2909,-234.7001,13.2877,-45.201,5.4125,0.72896,-0.15932,7.3118,1.142,13.5637,-1.1901,
-15.0039,-0.3682,10.496,3.1175,-223.5106,11.0445,-45.3813,7.0162,0.20351,-1.5958,6.3909,-10.4959,1.181,-1.6004,
-16.2728,-0.58708,13.9641,1.7252,-212.7511,9.1765,-45.3097,9.7283,-1.4959,-4.1511,2.392,-11.5534,0.38676,-0.29954,
-14.3321,4.2689,13.1262,-0.30608,-205.7706,9.1083,-45.4832,9.627,-5.2626,-5.8303,1.7666,-1.7012,8.5587,-3.1736,
-16.6057,7.6277,3.4206,-5.8318,-190.2913,13.623,-52.1547,6.3978,-13.8649,-9.0963,1.9015,8.2828,16.9628,-8.0449,
-18.2604,5.483,2.492,-6.6867,-178.1505,14.0109,-47.3379,5.291,-13.7559,-4.4527,3.9566,5.1348,16.6684,-2.9825,
-10.1754,6.8413,8.8504,-0.25996,-167.7026,9.0729,-37.508,11.963,-4.9768,0.39372,9.7452,-2.1632,14.463,-0.15241,
-12.9388,3.5385,6.8731,-2.6545,-162.9429,4.1902,-38.6317,13.6558,-9.0165,-7.8246,4.3398,-0.58714,7.8106,-4.4816,
-18.6704,1.639,7.666,-0.80845,-158.7099,5.1436,-37.5191,13.0774,-10.6451,-7.5961,-1.9461,0.17099,2.2803,-3.4898,
-10.3192,8.7717,4.7957,1.6509,-140.0283,11.1018,-33.3396,14.2212,-8.5599,-1.3555,4.4374,0.64289,11.3028,-5.2084,
-10.6643,6.3167,-0.79467,-4.2332,-135.0013,10.4357,-33.7498,12.4036,-10.4569,-4.6491,6.5813,6.3889,13.9986,-4.4139,
