"AF3","AF4","F3","F4","F7","F8","FC5","FC6","O1","O2","P7","P8","T7","T8",
83.8771,461.8053,73.2718,54.9537,-90.6258,11.0872,98.8207,-24.1026,15.4255,-11.0872,-39.0463,-80.5026,-272.359,-30.3692,
77.6394,438.1946,65.7422,39.8466,-71.0882,14.5196,86.8657,-28.1999,13.295,-13.5552,-34.0519,-88.9286,-242.2787,-33.6085,
78.7652,416.7227,61.7972,31.1888,-52.7229,17.9867,75.8687,-20.7235,6.7127,-6.9574,-28.6348,-78.2907,-225.3321,-26.7717,
80.5472,394.8533,50.1361,20.8818,-40.1593,27.7538,65.7734,-12.49,5.1046,-5.3346,-24.2652,-59.4933,-200.9659,-12.8731,
71.3758,368.2698,33.028,5.5289,-23.6498,36.6936,54.114,-10.7765,8.173,-8.3892,-20.3991,-41.8237,-174.808,-10.1725,
67.0933,347.6194,22.0077,-6.7339,-8.1308,42.6867,56.1698,-4.3453,16.3593,0.30929,-9.0518,-25.2143,-150.2195,2.4894,
54.8727,314.7109,6.5873,-20.4298,0.31103,35.787,47.0153,-12.2796,7.1828,0.29051,-10.4371,-9.6014,-127.1063,9.0887,
46.7601,285.7054,-7.908,-33.304,9.9333,41.8349,31.6609,-17.8098,0.96724,-0.20886,-6.4365,5.0747,-105.3799,9.0253,
32.8673,256.9939,-18.7619,-45.4058,18.4964,48.4838,18.1921,-17.705,-3.911,-4.0527,-1.712,17.9063,-84.9571,8.9657,
22.7005,237.7179,-31.6155,-56.7815,26.5456,51.3594,13.7261,-10.3758,-7.0508,-1.399,3.2115,24.5447,-65.7597,19.0331,
13.6257,212.3676,-43.8186,-67.4746,29.7731,45.3853,3.2616,-14.092,-11.448,0.13077,0.60866,23.072,-47.7141,19.8193,
-1.2918,185.5255,-55.2894,-77.5261,27.9867,40.2521,-11.0341,-23.8518,-19.9206,-9.518,-8.5874,31.3287,-30.7513,15.2557,
-8.3247,162.4634,-66.0721,-86.9745,40.4075,51.9369,-20.8569,-18.0821,-18.2432,-7.9829,-3.2512,43.549,-14.8062,28.4403,
-15.297,145.7257,-76.2077,-95.8561,52.0831,53.7615,-22.2566,-18.6844,-20.7641,-4.8528,2.0051,55.036,0.18217,26.3725,
-20.8869,127.5819,-80.3122,-104.2047,49.681,48.3668,-23.5725,-20.2147,-23.6154,-1.9103,0.67975,52.4572,14.2712,18.2824,
-17.7055,118.9631,-78.8679,-108.9189,49.1107,55.5877,-25.5326,-11.771,-16.8958,1.5788,-2.7355,62.8071,24.1407,31.2855,
-23.874,100.2562,-72.6895,-96.117,35.5588,47.4322,-22.5544,-11.5466,-14.4362,0.037782,-1.607,53.7361,8.5923,31.2163,
-28.4671,80.502,-54.2282,-77.5758,19.3253,30.4863,-8.9091,-12.5411,-15.7392,0.27648,4.033,36.4119,-5.5413,17.0508,
-22.1798,66.7543,-36.8745,-60.1468,4.0658,14.5571,-1.3846,-10.5833,-14.0715,-2.3912,-2.2345,20.1272,-1.5934,16.2687,
-8.5565,68.7746,-20.562,-42.438,0.44735,11.2731,7.1341,-3.9228,-1.4171,-0.5605,-3.7877,5.4222,-9.4518,16.4979,
-0.089343,71.638,-5.2283,-25.7917,-13.6795,8.9099,20.4448,2.8205,6.6217,6.9449,1.5013,-3.8212,-22.9847,3.6979,
-4.6635,56.0113,9.1854,-10.1442,-26.9587,-5.7247,24.2796,2.4101,6.9475,3.8769,-6.5428,-17.6919,-35.7056,-9.2987,
2.606,49.0354,22.7343,4.5644,-39.4412,-16.8301,30.7768,10.2195,17.3767,4.3674,-8.3196,-30.7304,-47.5425,-13.3203,
5.5833,34.2829,35.4702,18.3906,-51.1747,-29.9203,27.2432,5.9907,7.8982,-0.47413,-13.3638,-42.9866,-58.79,-26.6211,
14.8888,27.8872,47.442,31.3871,-62.2042,-26.7993,30.4289,7.0773,5.0142,1.9644,-17.8649,-54.5074,-55.8652,-28.0366,
16.8878,22.3578,58.6955,43.6039,-72.572,-21.8171,26.1928,7.1348,7.6056,-1.0457,-28.3621,-59.6729,-66.6133,-26.8363,
24.0697,14.2679,65.4171,55.0877,-82.3177,-18.098,23.1754,7.6708,7.6312,-1.4649,-26.1782,-58.5026,-70.6907,-33.903,
36.7255,12.6882,67.9998,65.8824,-63.2786,-7.1299,25.882,11.7901,5.9683,-1.1363,-19.5461,-55.2336,-52.3493,-29.6999,
48.622,-2.1731,49.8198,50.7215,-45.3819,-17.3074,10.2291,-3.0173,-8.4898,-15.1681,-32.4733,-66.0196,-63.0674,-42.0179,
59.8047,-7.7066,42.613,44.7862,-28.559,-20.1254,11.6642,-8.9823,-6.8959,-22.8142,-37.1531,-70.1327,-50.1243,-48.5349,
70.3164,-4.1111,37.8866,40.8937,-12.7454,-19.6407,14.5793,-2.9,-5.2768,-18.3121,-28.8984,-71.9505,-33.0168,-49.2385,
80.1974,-4.3464,38.0236,35.548,2.1193,-20.3905,19.9716,3.0586,-2.0681,-9.9825,-27.1645,-66.6694,-16.9358,-38.5714,
89.4855,-3.8447,40.8038,29.3176,16.0921,-17.4798,26.2451,4.0804,2.1535,-2.8758,-16.6165,-60.0179,-1.8197,-24.9289,
98.2164,-6.0242,34.4991,24.1842,29.2266,-17.3955,32.865,3.8354,5.3987,2.1171,-1.5196,-51.5962,12.3895,-15.7203,
103.049,-17.4725,28.3321,22.0101,41.573,-30.4517,42.2216,9.631,15.9209,10.4261,4.4767,-36.6902,25.7461,-10.6796,
84.8146,-30.5242,16.509,13.9407,53.1786,-42.7246,36.7959,9.5351,16.4118,12.2108,9.0284,-23.4017,38.3014,-11.9671,
66.2287,-42.7927,6.8417,3.9454,64.0879,-54.2612,24.9471,1.2504,11.5708,12.9243,19.5741,-12.8384,50.1033,-10.2849,
48.155,-54.3252,4.9848,-1.112,74.3426,-65.1055,17.1836,-7.5016,9.9123,13.5949,16.9535,-14.4786,61.1971,-6.2935,
31.1657,-65.1657,7.8191,1.124,83.9821,-75.2992,18.804,-8.7389,13.4151,13.9844,14.7311,-8.5483,71.6253,3.9662,
15.1958,-75.3557,-1.8091,-5.6921,93.0432,-84.8812,16.7115,-16.8914,9.2357,11.6991,15.2935,-4.179,81.4277,-5.4306,
0.18401,-84.9344,-14.2339,-11.6172,101.5606,-93.8883,5.5858,-27.9291,3.8612,6.6587,12.4478,-14.5332,90.6421,-19.2047,
-13.927,-93.9383,-10.7283,-7.7869,109.5669,-102.355,1.6354,-29.3866,7.7269,1.1977,9.5316,-18.2408,99.3036,-21.5475,
-27.1914,-102.402,4.0154,6.7803,117.0929,-110.3137,11.9012,-22.562,17.1452,8.5977,14.9852,-8.7104,93.8272,-10.8547,
-39.6599,-110.3579,7.5099,17.34,124.1673,-117.7949,9.982,-27.2341,13.9473,7.3587,14.8092,-22.2878,80.7257,-19.1215,
-51.3803,-117.8364,4.8903,21.8433,115.7534,-124.8272,7.2138,-27.7691,12.3875,2.8197,12.7157,-35.0505,88.1746,-31.2302,
-62.3975,-124.8662,12.0685,29.4507,94.7082,-131.4376,7.504,-23.9339,14.7776,6.2658,3.0346,-34.8759,68.7841,-35.8642,
-72.7537,-131.4743,21.7086,38.5298,74.9257,-137.6513,5.3669,-19.8464,18.4703,11.4336,1.6476,-38.3268,50.5571,-31.5431,
-77.7886,-137.0833,24.9857,38.3873,56.3302,-143.4923,-0.49884,-20.3427,18.5673,10.5065,8.0563,-50.1272,37.4006,-33.2658,
-72.8804,-130.0637,20.8354,36.8071,38.8504,-148.9827,-2.1563,-21.2914,17.2122,11.0813,3.4755,-49.4092,41.1822,-32.9572,
-69.9536,-127.0801,17.6571,40.3832,22.4194,-145.4665,0.38371,-18.5679,19.5539,11.8624,1.3387,-32.3447,30.9983,-19.8925,
-63.3461,-125.7219,18.0438,38.4423,6.9742,-133.8464,-4.4601,-14.5614,17.4165,5.8482,9.9354,-17.9914,24.8,-10.9863,
-62.6787,-121.7944,11.8996,29.6281,-7.5443,-121.236,-12.6286,-10.5544,13.2381,5.7384,11.0264,-26.7939,33.6762,-12.9784,
-59.882,-111.5943,10.2214,28.8147,-21.1916,-103.3566,-8.0141,-2.2082,18.2285,17.4455,11.811,-11.0863,45.7556,-6.415,
-54.3611,-106.8271,12.0183,28.0496,-34.0201,-90.4068,-9.4617,4.6727,21.4731,22.6653,19.2972,3.6789,57.1103,0.23645,
-52.3044,-111.7453,8.1638,19.3769,-46.0789,-84.7413,-15.8837,5.1156,22.354,21.0643,26.0933,9.7249,54.1656,-2.4289,
-55.4328,-114.6814,-4.8592,8.5734,-57.4142,-75.3181,-25.5357,-2.9042,20.5307,17.3902,14.8866,4.321,60.5567,-2.7653,
-54.517,-108.7648,-9.8702,5.1666,-57.9462,-56.8197,-31.2343,-2.2479,16.4069,15.8647,8.6909,18.1618,62.2259,3.1854,
-48.1129,-100.0696,-8.5549,6.0618,-60.0131,-42.5643,-30.0834,5.8408,10.8429,11.2975,16.1233,29.2436,50.5385,3.7172,
-44.9849,-92.8606,-10.693,8.3494,-58.0996,-34.4669,-29.4835,9.1058,9.9511,11.3428,20.2173,17.1249,44.8548,5.1814,
-46.3834,-91.3865,-6.9181,9.5355,-64.0136,-34.0861,-26.0273,10.2464,14.8977,15.7237,16.8351,11.5179,41.9226,4.1474,
-42.6362,-90.2416,-1.6824,8.9634,-69.8139,-31.5589,-23.9836,10.1139,14.968,12.37,12.4507,12.7552,42.7816,3.8987,
-34.0525,-84.1039,-5.6788,6.7384,-61.5275,-22.1935,-26.6419,6.8558,14.7928,9.9406,12.9087,10.3026,39.0096,6.3159,
-24.7786,-76.6477,-7.7486,12.6007,-55.4256,-13.6312,-25.5254,9.8188,20.6541,17.539,15.0266,20.7718,28.9561,10.2753,
-20.3995,-72.5309,-1.9811,20.5217,-54.5105,-9.9209,-22.0658,14.5322,17.9687,19.3791,9.3044,28.6844,36.8599,14.4794,
-17.4883,-70.348,6.5739,20.4957,-47.6242,-7.1565,-15.6802,13.4193,12.7932,14.119,5.6129,24.312,37.7815,13.3697,
-14.752,-68.2965,10.7587,20.471,-51.2747,-7.4502,-13.0524,9.4808,13.2307,12.0665,6.9633,20.202,21.4146,8.9521,
-15.3129,-69.5011,13.0055,27.4374,-62.2982,-9.4136,-12.2693,10.84,15.3291,15.1989,7.9915,8.3848,6.0297,10.8251,
-13.9121,-69.6697,16.5636,31.5759,-66.6347,-7.4026,-7.6768,15.0102,16.8196,15.251,7.03,3.543,17.7192,12.5858,
-10.9082,-66.2124,12.4365,26.0659,-56.6108,-0.93269,-11.7955,15.3148,9.7849,9.2747,4.439,16.5871,14.0049,5.3232,
-10.0126,-66.8191,10.0032,22.3329,-58.2757,3.2207,-14.7031,16.0831,8.4748,9.4412,3.9316,16.3149,3.7647,-0.05776,
-10.376,-70.5229,13.2594,24.8491,-60.0818,2.0634,-13.339,15.6,11.8224,11.767,4.6598,1.236,12.6977,-0.054295,
-10.9586,-68.4608,10.7767,23.5992,-61.0563,2.1807,-15.1898,13.4591,7.0159,8.8917,5.5854,6.826,17.4793,6.4566,
-7.4088,-62.425,10.6121,19.291,-56.9108,6.8703,-14.7606,15.0616,6.5949,12.2146,2.358,16.0574,13.5383,14.2641,
-3.5898,-61.5718,9.9753,14.7591,-48.1937,8.3863,-16.7673,13.6758,7.6452,12.4458,-1.1579,12.2015,10.3156,6.6593,
-9.1591,-67.5183,5.0384,10.4994,-53.0148,7.4011,-22.0279,8.0349,1.4021,6.8787,4.6962,13.3979,1.5021,-1.4529,
-11.2608,-65.1546,2.0849,8.1821,-55.8595,9.6082,-24.8037,7.7939,0.5947,8.1531,7.5478,17.1734,7.9195,6.1062,
-14.9237,-64.6197,-2.8609,1.9066,-46.7236,8.5496,-29.1,6.3619,2.4872,5.2536,1.7923,23.3736,21.5444,11.0423,
-16.9205,-68.9373,-3.6531,-0.13598,-43.92,11.411,-29.2822,5.0163,-0.55409,-0.84622,3.613,23.4175,34.3517,13.272,
-9.6386,-59.0164,-1.5058,4.6927,-42.731,24.8264,-28.4894,10.4999,-2.9312,2.0968,7.7347,12.3715,28.6752,20.1887,
-5.4449,-52.3421,-1.6565,7.5445,-43.7825,37.4368,-27.0211,14.4493,-1.0682,4.6222,2.691,12.3522,27.6777,20.6645,
-10.9029,-56.4325,-1.0751,15.2866,-45.9761,27.9597,-26.364,15.5107,1.8881,4.827,1.0834,19.3237,24.5709,17.4963,
-12.659,-54.9746,0.43559,21.1182,-38.8791,30.1387,-28.1565,16.9903,4.6672,5.0194,2.4646,20.0926,18.7582,17.4105,
-8.2839,-51.9172,2.5787,21.0563,-31.9667,37.7305,-23.8157,14.7657,4.6285,1.1029,1.1117,29.7332,15.4637,19.0173,
-9.9563,-56.756,6.0394,29.6749,-37.0386,34.7435,-17.8072,15.0848,-1.6753,-1.6146,-0.16026,30.6005,15.7409,18.5994,
-10.3229,-61.0635,10.0155,41.3918,-34.8162,35.5513,-15.7748,20.9285,-0.12837,6.1952,7.0803,14.6645,17.2067,16.5192,
-7.5342,-60.0509,6.2812,38.1853,-27.1837,36.5514,-14.5873,19.4317,7.833,9.9209,9.3067,7.3974,14.4869,15.7692,
-5.1542,-61.2685,0.60167,33.0017,-29.4091,30.5019,-13.712,12.9632,5.9167,3.5409,1.5175,21.0536,6.3869,14.823,
-10.6293,-66.2691,3.94,36.3244,-34.3932,25.7795,-9.5148,13.1497,2.1875,2.3646,4.3187,27.3826,4.0757,10.5592,
-13.8481,-66.6316,7.5599,40.8933,-32.3297,22.3046,-7.4978,16.6992,5.4306,7.043,11.2903,11.6397,8.6515,8.4795,
-13.0173,-71.3107,-0.12442,32.655,-33.2823,13.2532,-9.9403,10.8766,3.6588,5.1743,3.3822,21.1849,1.8658,10.8631,
-11.0311,-75.95,-2.2862,28.0447,-32.4904,12.6991,-7.1747,6.6087,2.2341,2.6946,-2.3643,31.7241,-0.4154,12.8625,
-8.923,-69.9467,3.6355,30.7004,-26.2026,17.2398,-4.816,9.1045,0.17166,1.5688,2.5981,26.9283,1.0558,9.1985,
-9.3518,-68.1602,2.9356,26.4483,-19.8099,16.6875,-5.0091,8.5581,-1.2846,1.9567,3.4062,19.046,-4.7923,8.6467,
-9.9957,-70.0963,1.5544,23.174,-15.0058,17.3735,-4.9497,5.8754,-2.8949,2.5625,-0.89555,20.0724,-3.2997,10.2971,
-12.2882,-69.2647,0.97883,22.2656,-18.9261,16.3312,-2.7244,6.9691,-2.7211,-0.0015301,-4.2162,29.9554,0.75482,5.3408,
-10.1049,-68.9654,-1.49,19.9658,-18.2725,14.8691,2.7417,11.8536,-0.62967,0.48072,-2.9991,24.7836,2.1558,5.0204,
-7.5704,-71.5762,-4.7751,19.7317,-6.5711,18.7975,-0.79727,12.1064,-5.8943,1.8979,0.073142,11.2453,10.7033,7.6114,
-12.1777,-73.7892,-4.2475,14.4506,-7.8639,19.357,-6.7751,6.3185,-9.1562,-1.3493,-2.5825,19.0066,14.6405,5.9496,
-14.0983,-70.567,-4.7157,8.5222,-15.3459,16.9904,-7.0916,3.7701,-8.8477,-6.3297,-3.6327,30.1586,6.7726,7.7619,
-17.5907,-71.1535,-13.1096,7.5287,-17.7994,16.4531,-10.5225,2.5798,-9.7631,-8.3603,-1.4865,19.672,-2.7928,9.2243,
-19.4276,-71.2227,-13.2872,11.8976,-14.3212,16.9121,-8.445,4.8353,-6.767,-5.4484,-1.8794,15.5995,-3.1073,10.117,
-12.4774,-66.9493,-5.7411,9.2553,0.63809,15.8971,-6.0101,1.6529,-10.6996,-6.0856,-7.0693,19.4838,11.1791,7.5818,
-1.8467,-61.2453,0.14665,7.0129,14.6998,16.6306,-2.034,1.7948,-9.3343,-3.0693,-0.61945,14.6994,24.6084,5.4398,
-7.0384,-59.9808,-4.2006,8.5202,6.587,12.2582,-3.8402,1.205,-7.3281,-4.8132,-0.10024,6.1048,24.096,-1.6354,
-3.9648,-49.3921,-0.81483,11.6246,4.0226,19.4767,-4.333,2.3378,0.58358,-0.42705,-1.2993,11.2821,21.4452,5.4526,
-0.59355,-48.1159,-2.4535,2.9731,11.7351,19.9952,-7.6883,-3.8281,-2.1029,0.80398,-0.49831,12.2923,15.0969,9.2229,
-4.4146,-49.0853,-3.2704,7.6152,6.6924,15.9032,-7.7091,-3.1163,-7.7615,-0.20835,0.49568,13.483,6.4781,7.2233,
-7.765,-49.2736,1.0233,14.148,-4.0733,11.8156,-5.5593,1.6501,-5.6085,1.491,-0.25707,7.6124,5.8485,7.5129,
-7.0581,-47.0401,-1.207,7.7555,-0.2135,9.9016,-9.3233,2.7562,-2.1387,3.089,-1.9289,10.7711,9.595,5.3749,
-5.6704,-44.2178,-4.509,2.4696,3.1736,15.0922,-10.21,0.6627,-2.9746,0.97515,0.5971,17.8377,11.9117,0.23204,
-3.6431,-43.252,1.3049,8.3471,-0.15014,15.8738,-4.5359,1.346,-2.555,-0.77048,3.2125,2.6675,8.0634,-0.50513,
3.3241,-38.7286,3.1546,11.2206,6.1255,15.8854,-11.0125,5.1215,-0.47366,0.7219,-1.8006,-0.98752,8.5438,5.3099,
1.9197,-36.646,-4.9885,1.1477,9.8554,16.1374,-17.8234,1.681,-3.0964,0.4375,-3.8619,13.1717,15.5028,3.7861,
-5.6674,-36.1343,-10.7146,-1.0904,5.1666,12.0358,-12.1746,-2.0354,-5.5619,0.65256,2.8777,17.5634,13.3677,-4.3949,
-4.8453,-31.0739,-12,2.3491,6.7849,12.2779,-11.444,2.9074,-2.8179,1.5774,5.1152,6.3865,4.3706,2.1354,
-7.2057,-33.789,-14.8955,-4.7813,4.2087,12.2643,-20.6396,2.492,-4.3361,-6.471,-2.1815,16.3674,0.011023,7.5509,
-9.9069,-32.9669,-8.9403,-3.2893,1.3048,10.8053,-20.1243,-2.2371,-6.2453,-6.3239,-2.2916,9.3596,5.554,4.9287,
-8.3482,-27.6143,1.2374,6.5489,6.0469,6.7827,-9.2758,-2.103,-3.942,1.7682,2.6665,2.0495,8.5951,7.5254,
-12.427,-28.1267,-0.041981,2.5406,3.997,-0.13211,-7.0321,-2.6998,-5.3926,-4.3634,-4.0013,14.7009,8.3205,5.8687,
-9.994,-24.752,-5.583,0.21916,4.9624,3.4914,-6.851,0.59555,-5.3104,-9.1631,-5.4484,17.4341,20.1136,3.3473,
-2.8869,-20.6156,-2.5969,2.3752,10.6902,6.8971,-6.199,1.283,-5.2327,-4.034,0.42215,3.6138,18.6658,2.4233,
-1.7493,-20.8249,-1.477,-2.1059,14.8692,6.0013,-12.0938,-6.5068,-8.7749,-4.2737,-0.56728,12.0739,13.2073,2.2779,
-2.3675,-21.2624,-5.9676,-5.595,19.5209,7.3285,-10.1629,-4.4292,-7.5255,-7.6327,-4.1487,19.3034,21.333,5.7567,
1.149,-17.5765,-3.1992,0.043159,21.7239,8.3348,-2.8044,4.0313,-4.1817,-5.7287,-1.9715,4.0452,24.8735,5.4113,
4.4544,-11.2194,5.1875,3.8971,20.4206,10.7271,-4.5645,4.2715,-7.3051,-5.867,-0.40711,-8.1285,15.6679,1.7122,
1.5357,-12.7155,7.0453,-1.3981,12.2054,9.3605,-5.4958,-1.5283,-7.5898,-7.6843,-4.4802,6.4592,0.62787,4.2607,
0.47945,-13.8808,4.2123,-2.2783,10.5089,7.3526,-5.166,-1.9188,-5.6884,-6.7413,-6.6217,5.2282,1.9159,8.3436,
6.4763,-7.022,3.7184,0.027443,22.1708,13.4192,-3.6509,2.2938,-1.7318,-0.79286,0.28343,-1.1112,15.9009,6.6378,
2.7133,-9.0111,-1.8071,-4.3128,15.5379,8.7575,-1.5037,1.1921,-1.1457,-2.1918,-0.21574,2.8119,10.7289,0.45498,
0.38135,-12.0858,-1.4575,-4.7771,9.5442,6.0629,1.2379,3.2897,-4.2103,-7.6039,-2.8539,1.9201,8.3982,-0.77739,
6.143,-9.4325,1.5223,-4.0083,22.4689,11.9658,2.1277,5.9846,-3.4755,-4.7371,2.6198,-11.6925,19.9456,-1.6948,
8.6669,-5.9741,-3.3897,-2.8038,27.8695,13.176,-2.3384,4.1794,-4.7131,-0.5968,2.9446,-8.0985,19.7129,-2.0752,
6.2187,-7.0619,-6.0788,-2.1532,15.5923,9.9753,-7.0186,3.9286,-8.2867,-4.8993,-3.9807,3.4744,10.3354,-0.98659,
6.5686,-7.3612,2.7219,0.62695,13.9335,14.4383,-3.4641,9.7188,-3.6923,-6.2927,-3.5008,1.5788,6.5816,0.75972,
8.5848,-6.9196,4.969,2.0358,17.4361,15.5002,-1.8102,10.0995,-2.9886,-3.9867,-0.39847,-2.8543,-3.4542,1.6782,
7.3466,-6.7454,-1.3547,-2.1841,17.113,11.9189,-1.4604,3.95,-5.9427,-3.9885,-1.5796,0.45025,1.8145,1.8185,
8.593,-2.7255,1.8596,-2.776,21.1477,18.1934,1.7605,5.4004,-4.3809,-3.0263,-0.27978,-0.29989,15.8056,1.4684,
8.0774,-5.9361,3.6762,-3.5738,18.9147,14.6917,1.1727,9.8967,-3.1542,-2.8447,2.6293,-5.1024,15.4599,-1.512,
4.9415,-11.6058,2.7325,-6.9745,15.1285,2.9639,0.37943,6.1696,-3.2056,-4.8429,1.2665,2.1934,10.4347,-4.0726,
5.8502,-4.4016,1.3639,-9.207,21.6927,8.3298,-3.7408,0.73785,-4.2185,-5.7575,-2.907,10.4978,23.9087,-2.623,
5.017,-2.6915,-2.0927,-9.1368,22.3194,14.0965,-5.9267,2.1396,-7.822,-7.3405,-2.2506,5.0475,19.2203,-3.9119,
6.6443,-3.012,0.44314,-1.84,17.1237,9.8764,2.1418,9.7241,-3.9781,-6.418,4.6332,-2.0042,6.498,-5.1233,
2.1483,-3.0723,-3.6808,-5.827,13.9271,4.7043,-0.63805,4.5612,-4.4628,-11.0944,1.222,1.2493,15.0262,-3.6107,
-2.5603,-5.5394,-4.6651,-13.4314,14.7786,10.4477,-5.6613,-2.702,-8.7746,-9.2236,-1.985,6.7179,22.0785,0.70322,
2.1729,-4.4839,-1.2517,-9.0101,16.5432,14.8825,-7.973,-1.3351,-11.3812,-5.0547,-3.5529,-0.67461,15.2102,2.8302,
8.0682,-1.5634,0.028317,-1.9619,16.7558,10.374,-3.3971,4.7707,-5.637,-4.0284,-5.509,-4.2497,11.1642,5.3118,
8.3071,-2.6748,-2.1427,-4.013,12.6171,4.2081,-1.024,5.6896,-3.6112,-3.0635,-5.9014,1.0669,13.6277,0.89564,
9.014,-0.82707,-5.6293,-11.7262,20.296,8.053,-6.9884,-1.1595,-11.3485,-5.0491,-2.8963,7.0284,22.2098,-5.6656,
3.6526,-1.2594,-5.2913,-14.8793,21.4886,9.016,-7.5329,-3.0179,-10.6678,-8.6027,1.6161,3.7144,12.6828,-5.8078,
-1.387,-1.1838,-0.63573,-6.2735,10.5583,5.5828,-1.7783,4.3938,-1.8328,-2.7837,3.9295,-6.1494,1.3167,-0.63886,
0.86537,-1.354,-1.3203,-8.0665,11.1298,7.417,-1.9128,2.4432,-1.4816,0.034654,2.0065,-9.8778,13.5295,1.0867,
5.8751,-2.4776,-2.4461,-14.0897,17.9339,11.5517,-7.3414,-1.801,-5.4903,-5.5113,-0.28309,4.8149,15.8515,-1.1477,
5.0405,-4.7395,-2.2996,-10.3525,12.0371,5.5557,-8.8294,-0.72882,-8.0532,-9.5191,-1.2302,15.7335,0.8004,-3.9711,
3.5327,-5.178,-2.4026,-9.008,1.9151,-3.2133,-6.6124,-0.44413,-7.329,-5.8145,-1.3974,4.4256,-8.5271,-8.3123,
6.6952,0.43506,-2.2589,-9.9138,2.2819,0.83567,-11.0363,1.5107,-5.9254,-4.5018,-2.2778,3.1957,2.1074,-6.3678,
7.0169,-0.31394,-0.91758,-9.5599,2.8684,5.3653,-11.0968,2.1434,-6.2923,-8.811,-3.346,0.83481,1.258,1.4863,
8.5237,0.18694,1.5475,-5.612,-1.16,6.0073,-1.7543,1.0508,-3.9867,-6.3538,-1.2172,-13.3153,-11.833,2.8433,
13.0739,4.7551,2.6596,-4.5523,2.5247,6.8518,-1.8901,0.74648,-5.4351,-2.3575,-2.3493,-6.8523,-9.4361,-2.8711,
9.8788,-0.35089,-4.7308,-14.4025,7.6758,4.5125,-11.8998,-2.6728,-13.7856,-9.4468,-7.0291,7.6589,3.1816,-5.5911,
7.1172,1.8396,-8.5441,-11.8509,8.4206,6.8933,-9.9805,-2.2712,-11.7534,-9.6032,-3.4736,5.3919,5.1601,-0.6761,
4.2798,4.1395,-0.80085,-5.8374,-1.7259,5.9976,-3.1152,1.7212,-4.7815,-3.2422,-1.3372,2.658,-9.129,-0.6353,
0.88951,-2.1346,-0.029898,-12.477,-5.7199,3.4683,-9.436,-0.5512,-6.6642,-6.1811,-5.8363,13.3443,-10.7509,-0.35622,
4.2106,-3.4528,-8.7052,-13.1747,-0.55621,5.1884,-15.1366,-1.9644,-7.7102,-9.6666,-4.0403,12.0617,0.017515,3.5215,
4.1992,-3.9685,-7.9412,-5.3941,-6.066,1.2619,-2.9,1.2872,-0.73984,-3.0609,3.6742,-1.4362,-3.5987,2.1052,
-3.0427,-8.7921,-3.3674,-4.8295,-11.728,-8.6959,-1.5209,0.0046636,-2.3827,-5.5288,2.7308,-0.62713,-5.07,-3.0828,
-3.5828,-7.0593,-3.4066,-8.6368,-2.5882,0.26194,-10.8296,-3.1289,-5.8549,-5.4378,2.8077,12.1852,6.0802,0.23542,
0.48858,-4.7075,-7.0586,-8.1186,0.45936,7.4768,-7.7695,-4.8693,-3.0935,3.5656,0.2291,7.5977,-3.4436,4.0777,
-1.2284,-6.5945,-7.3582,-3.5344,-1.2557,0.52029,-2.2421,-3.3721,-3.1491,1.1818,-7.2567,-2.2584,-12.1553,4.0742,
-6.6981,-10.7781,-4.2656,-0.18883,-3.3493,-3.6081,-0.90229,-0.51869,-0.30857,-4.4323,-5.1338,-3.8101,-3.4718,3.5888,
-4.609,-8.4444,-2.3224,4.8837,-1.4613,-5.0788,4.6955,3.61,7.1817,1.3773,3.1279,-3.3403,-4.4688,2.6503,
1.2112,-4.3221,-5.3161,0.97573,7.0625,-3.0868,5.619,4.1165,3.1354,5.392,2.6993,-0.97075,-4.9236,0.80409,
4.2718,-5.7502,-5.2383,-8.0011,7.3617,5.534,0.70214,2.664,-5.4891,0.48897,-4.4525,-1.1535,4.7716,0.99681,
0.88196,-6.6103,-5.6469,-9.2083,0.89442,9.7815,-5.3655,0.81742,-7.8108,-4.1201,-7.8008,-1.3252,0.38797,1.178,
-0.13506,-3.3214,-8.2009,-6.7273,2.2868,7.7486,-3.1154,-1.642,-3.0036,-1.4626,-0.58407,2.1285,-11.6866,-0.33874,
2.2834,1.6984,-7.2267,-5.842,7.9342,6.3196,1.892,-2.0256,0.068892,1.5175,2.8257,0.072375,-10.5033,-0.31864,
0.21821,3.5247,-4.3827,-4.5274,-1.2188,7.3864,-0.14972,-0.93999,1.0289,4.8007,-1.6827,-4.2701,-13.7297,4.039,
-1.4821,2.1081,0.45955,-1.1223,-10.5456,3.3278,-0.3817,-0.16023,5.0645,6.6822,2.9978,0.083499,-27.0059,2.5919,
-1.393,4.392,-1.0136,-0.090365,-0.2717,2.6462,-3.2511,-2.079,0.42252,1.9428,8.1208,6.8272,-21.6492,0.025983,
-0.58648,6.2977,-1.6764,0.63773,2.3957,6.1029,-6.1895,2.6252,-3.7004,0.62113,-1.7667,2.32,-17.217,1.7114,
1.3769,7.3661,7.1013,6.8664,-2.0864,9.5931,-2.4437,10.6624,1.3419,3.9583,-5.517,3.627,-22.4507,6.4294,
-3.2852,6.6829,3.06,6.2133,-7.0229,7.3303,-4.9484,5.9255,-2.8358,-1.3411,3.2499,5.5788,-18.9345,1.4642,
-8.6317,5.0766,-2.1855,6.0812,-12.6273,1.8288,-3.4464,5.8107,-2.4249,-1.5018,8.1163,-0.78172,-20.45,-1.275,
-10.0417,6.7006,-1.5718,8.127,-8.0129,3.1654,-2.7574,8.8367,3.0234,2.4452,0.8808,0.71156,-33.323,3.1399,
-11.1267,4.129,-4.6111,4.9877,-6.3272,3.6985,-3.7973,5.6548,6.4573,0.61119,-0.85916,7.1762,-45.4236,4.6386,
-13.5922,-2.144,-6.0215,5.894,-11.009,-1.5848,-4.7743,2.1827,4.3828,-3.5231,2.8076,4.0943,-54.5081,0.74513,
-10.8487,0.87667,-1.3218,14.217,-0.70772,2.3664,-5.4522,7.3539,2.1912,2.4729,4.0854,-4.346,-47.3814,7.4489,
-7.5462,4.9217,6.2295,16.0153,2.4685,7.2863,-1.5096,10.5284,3.7472,7.8684,4.5634,-4.8084,-49.1178,13.5097,
-8.7809,0.04661,2.2399,8.5464,-7.0799,1.7872,-6.4807,3.8706,-2.5036,-5.8606,0.67417,-0.90448,-49.3043,1.8528,
-5.8437,2.4542,-0.78683,7.552,5.8782,7.4648,-4.6456,5.5668,-5.2453,-6.4726,3.0441,-3.2606,-32.246,2.7057,
-2.6006,9.5379,2.153,9.991,17.095,16.1758,2.8641,11.4994,-3.9666,4.0388,5.2717,-5.4752,-16.2112,12.1845,
-3.4091,6.073,1.5416,7.9454,9.3203,17.1334,-1.6464,8.399,-7.1029,-0.06027,0.13477,7.3867,-1.1386,14.3456,
-7.5426,-2.004,-1.9252,4.0945,0.56634,15.1415,-3.4756,3.557,-5.7126,-4.3947,-0.83741,10.3182,-3.3599,15.4133,
-6.8491,-0.19649,0.35974,10.8384,-3.565,13.992,0.83026,8.405,0.17397,5.2687,0.4179,-1.6293,-8.7017,14.7297,
-5.2331,-1.8719,-1.8315,10.911,-3.1101,8.573,-1.3889,8.6236,-0.077894,1.8196,-1.7763,0.63759,4.1125,3.4816,
-7.3292,-6.5801,-10.8804,2.5438,8.1637,3.2381,-4.1977,2.8038,-2.9655,-9.3771,-3.1158,0.11718,17.9657,-4.4399,
-6.8895,-2.8111,-13.1198,3.3553,15.8688,4.008,-3.9458,1.6715,-3.2693,-3.0296,-1.4828,-11.9409,16.2854,-0.31732,
-5.7532,-2.8836,-7.7534,2.9125,5.5165,2.08,-5.8787,-0.11606,-1.8683,4.6235,0.29339,-8.5734,8.3184,0.42462,
-6.1311,-4.8797,-5.1188,2.4971,-4.2145,0.26822,-9.6233,-3.7243,-0.069199,1.2128,0.51652,6.041,4.2041,-3.2161,
-7.4503,-4.8279,-9.8733,2.1063,-2.7564,0.011159,-8.3228,-4.7061,-0.30601,-1.0291,-0.71931,7.9684,8.5311,-8.5667,
-8.9317,-5.5023,-10.245,3.9079,-4.0372,0.49242,-4.9311,-2.4958,-1.2517,2.8893,-1.1585,-0.70462,21.9988,-6.1243,
-10.0828,-7.3411,-6.4966,3.4326,-12.2307,-1.2241,-12.1068,-4.0326,-3.8275,1.0289,-4.2221,0.060785,15.6174,-6.4799,
-7.7906,-5.6958,-2.4919,0.0932,-11.2559,0.53633,-14.5139,-2.5858,-3.8393,0.24381,-5.656,3.6726,10.1006,-6.8141,
-9.7335,-5.3541,-2.8243,1.5339,-13.473,1.9504,-11.7149,0.46141,-3.1265,-3.1453,-6.2807,-5.2249,23.4743,-0.62063,
-12.2827,-6.2379,-2.8958,7.9493,-25.4389,-2.7461,-7.3966,1.1571,3.0866,-6.0896,-4.6988,-5.1524,18.9324,2.5496,
-8.6535,-6.3458,-0.79384,11.8111,-23.9125,-8.8481,-2.6142,-0.84053,4.8296,0.54231,-2.0065,-1.4688,3.6964,-3.8699,
3.4348,4.6401,3.1103,13.0303,-10.4266,-0.1224,-2.4575,4.5122,0.68355,8.2227,2.4523,-9.5755,14.2003,-1.2274,
4.9159,7.4952,1.7184,4.2948,-12.9342,3.9825,-11.71,4.4824,-2.9729,-1.1888,-0.82831,-12.6164,25.6408,5.8361,
1.4876,2.4659,-2.482,-1.9884,-12.3993,2.0562,-18.4794,0.11625,-5.4459,-6.6609,-6.8043,-2.9414,17.1126,0.9063,
4.7728,5.2104,-3.7793,3.4336,-2.4963,9.6459,-13.514,1.5555,-5.6011,2.4158,-3.0216,-0.83675,13.1933,-3.0045,
2.5581,4.4155,-3.0705,6.1197,-11.5057,7.6207,-7.8828,0.49799,-2.8548,1.3067,-1.3941,-4.643,9.5093,1.0323,
-4.1029,2.4636,-3.1272,4.0653,-17.3228,-1.7543,-8.1327,-3.1473,-3.4067,-3.351,-4.9257,-3.6413,10.626,1.6933,
-1.9286,6.6542,0.9169,8.6418,-8.0886,2.6893,-3.3063,2.8262,-3.2024,4.5625,1.6365,-0.53045,13.363,-2.7468,
2.7666,9.3882,8.8154,14.1491,-11.2187,11.4461,0.025328,7.7181,-7.1076,7.9044,9.974,-2.668,14.7301,-1.8588,
5.7339,11.4763,14.7942,14.0232,-9.3405,20.6412,-1.1813,10.3883,-9.8144,5.2607,8.1705,-4.1949,27.9463,10.5452,
5.6308,6.6901,8.3629,7.6382,-1.3083,21.5719,-3.2798,9.524,-6.5744,2.7759,2.6188,1.1182,23.7389,14.4918,
1.1956,2.1913,-2.0208,2.1183,-1.4708,10.8776,-12.483,2.4451,-11.2414,-1.0061,-2.6,6.1128,8.2146,3.258,
6.6675,7.6035,4.126,5.1247,3.197,9.0199,-9.0827,1.0931,-9.3619,4.116,-1.2387,4.5407,21.8217,2.3396,
6.7497,1.3628,1.9504,-0.96729,4.9335,7.5147,-7.0913,-1.3825,-6.8718,3.8691,-2.1284,2.8222,34.6124,2.1993,
2.0061,-4.0217,-5.3972,-4.7658,1.2631,2.7254,-11.9686,-1.2997,-8.8698,1.7087,2.3378,16.7528,34.3436,-3.2354,
-4.622,-4.0214,-4.3504,-3.7569,-7.7307,-7.8022,-11.0093,-0.49879,-8.0966,3.2934,6.7768,18.2784,24.8112,-7.6206,
-6.2728,-3.2981,-2.1613,-0.63909,-13.5335,-6.3701,-6.4925,0.97728,-5.6825,2.6137,2.9958,3.0817,9.2225,1.0317,
-8.5478,-5.2695,-6.611,-2.77,-19.2293,-0.44418,-7.3081,-1.7326,-10.4031,-2.123,-2.2455,2.2944,0.35353,5.0671,
-9.2399,-7.1223,-6.4552,-4.7729,-18.3164,-3.5509,-4.7003,-2.3514,-10.502,-0.79017,-1.3875,14.4489,6.8404,0.1834,
-9.1678,-8.1414,-4.622,-2.0763,-12.8792,-9.1225,-6.8286,0.19947,-6.4977,-0.7431,-0.82243,3.4587,2.5732,-0.30942,
-8.1356,-6.6886,-5.3088,-3.3977,-7.2857,-2.7904,-8.829,1.634,-6.1076,-2.1445,-0.29092,-0.60498,9.6499,1.1552,
-4.5142,-2.6721,-6.1951,-3.9172,-3.2332,6.2949,-5.6479,1.295,-8.3925,-0.32865,-0.0325,13.5313,23.1709,-1.0833,
-7.6174,-2.9936,-6.3057,-5.6103,-4.0032,2.0609,-5.7911,-4.5672,-8.8529,-3.6833,0.93366,12.3579,32.0239,-1.9825,
-7.1606,-2.3322,-4.4811,-6.7199,2.9855,0.97293,-6.408,-8.15,-5.9119,-4.9085,6.662,-2.4836,23.836,-2.3455,
5.0794,4.3156,-5.4173,-6.5574,16.9063,8.3864,-5.3003,-4.0453,-4.8338,-0.99837,7.4678,-9.2037,36.5058,-0.51777,
4.7747,4.5387,-2.682,-4.7181,14.5665,7.8833,-4.0181,-2.8386,-3.5798,0.025515,6.5375,-9.1336,36.8462,-0.0046507,
5.4522,5.7126,0.85305,-2.5067,12.7283,8.3743,-2.3311,-1.2224,-2.401,1.4699,5.6634,-8.1037,33.1893,0.47768,
5.607,6.8158,3.6942,-0.91025,11.0005,8.3538,-0.74499,0.29743,-0.81069,2.3458,4.8414,-7.6175,29.7519,1.4131,
5.5118,7.6122,6.6058,0.83136,8.6533,8.5757,0.50501,1.4846,-0.03892,3.4106,3.8278,-6.9193,25.7974,2.0515,
4.94,7.3965,8.3787,1.9869,6.447,7.8203,1.1977,2.1186,0.68643,3.929,2.8751,-7.2271,22.0805,2.1694,
5.1257,7.9167,10.7686,3.3136,4.1318,7.3509,2.572,3.4378,1.6095,4.6572,1.7384,-7.2755,18.3452,1.5575,
5.5413,9.129,5.5427,2.8738,8.4637,8.5971,1.2126,5.8827,-0.17434,3.6549,3.3213,-5.1518,19.896,1.223,
1.5934,5.9299,-4.6715,0.53245,12.5351,5.43,-2.9577,-1.4599,-3.7793,0.30232,-0.97531,-0.26339,7.3738,-1.0197,
5.1132,6.7792,0.18805,5.0798,9.1317,7.2736,5.6559,-1.1314,-0.41905,4.8635,2.2165,-3.3808,-7.1686,5.067,
4.0833,6.1314,2.3459,4.534,1.5942,2.7396,4.5932,0.62373,-2.0811,2.4025,1.3603,-2.4549,-20.8385,0.6654,
3.5973,3.1122,1.4823,0.16464,4.1498,-0.076141,3.1125,1.7916,0.21289,1.5354,-0.89043,-0.13841,-25.8547,-2.5078,
5.7917,4.3716,1.393,-0.32752,3.9007,2.3387,5.8182,-1.2083,4.5386,0.96105,-1.3191,-12.1813,-28.1601,1.9811,
8.5776,11.5813,5.8893,4.7539,7.2822,7.7421,7.6383,1.5154,2.097,4.0365,3.3395,-6.3889,-33.46,2.5853,
4.4474,3.8966,-1.4538,-4.9317,11.9066,4.1442,1.6363,-2.6732,-4.5364,-0.30291,2.898,8.0945,-26.3909,-7.4517,
3.2164,-0.19355,-6.6693,-12.8305,14.0847,5.3418,-0.39005,-7.3331,-2.3358,-5.1054,2.7242,3.3906,-12.2739,-7.0046,
-0.59197,1.987,-3.618,-12.3016,7.6958,2.8519,1.8025,-6.6521,-2.4371,-6.0044,-0.090386,-0.91018,-14.671,-2.9693,
-5.6177,-1.7472,-0.74938,-8.912,3.1369,-2.8626,0.97146,-6.012,-5.4239,-6.849,0.156,7.0986,-20.2982,-3.996,
-9.8604,-5.258,-5.7661,-8.6187,-0.66692,-2.932,-2.7022,-8.7848,-6.7859,-6.1971,2.3158,2.093,-18.3574,-4.4791,
-9.028,-0.36324,-7.1076,-7.8608,-3.7604,-0.10503,2.5211,-8.0165,-1.7995,-0.28187,2.9,-2.6121,-23.2817,0.36866,
-5.1116,4.9612,-7.1628,-7.3889,3.6961,5.2039,2.3701,-6.5714,-6.5118,-4.1211,-1.6126,11.6446,-23.3309,2.7569,
-3.1177,3.9406,-7.4564,-8.1504,10.9463,15.7379,-0.90539,-5.9362,-12.1466,-9.4175,-0.31052,17.3329,-10.1209,0.42233,
-2.9306,3.222,-4.1167,-4.2872,9.8074,17.2038,3.9694,-2.6877,-5.6332,-3.55,-0.29212,2.1929,3.5015,1.843,
1.5836,5.4392,-6.7619,-0.17367,10.1832,12.7975,5.6596,-1.0803,-1.4387,-3.8186,-4.1309,0.73594,12.9328,7.5174,
5.3449,4.1486,-9.7303,-4.5017,12.4644,13.4755,2.9095,-5.3539,-0.38844,-9.3742,0.93736,3.5842,20.3514,6.1019,
5.0242,6.792,-3.8443,-6.1598,18.4652,15.0774,2.7349,-4.0684,2.045,-3.9915,4.2556,-8.6824,29.2537,3.3256,
-1.3028,6.1435,-6.7469,-12.2979,21.9368,9.1113,-2.4906,-5.5117,-2.6568,-5.9209,0.38505,-3.582,33.0418,-0.0071578,
-1.2246,6.2568,-6.8243,-10.5959,16.282,9.0465,1.0331,-6.1451,-4.9077,-7.976,0.84365,0.97151,29.1314,-2.4171,
4.3926,13.8353,2.0212,-0.077898,10.2438,14.5294,8.9252,0.24949,2.3763,-0.025753,2.9625,-8.0047,17.9834,0.37938,
3.6467,14.4513,2.8639,-4.8938,6.7367,12.6934,4.5331,3.1267,2.2336,0.45784,2.7849,-7.0424,13.53,3.2488,
3.9099,9.7278,-1.6462,-8.4566,8.2607,12.4137,-2.0056,0.046575,-6.0954,-3.426,-0.75665,-1.7994,19.9491,-0.32059,
9.9422,12.5186,3.7552,-1.2003,13.0677,16.9718,4.3815,-2.3663,2.4658,-0.81033,-2.6394,0.23678,23.0904,-0.78329,
5.9713,11.2853,4.0118,-3.5388,9.3914,10.6508,5.0827,-6.0808,5.6918,-2.6899,-2.4811,-2.1875,13.0279,-0.73629,
8.5053,13.5007,3.7711,0.52987,7.3819,8.5658,3.3317,1.033,0.52981,-0.11792,1.5242,-3.5026,20.9233,-0.20972,
10.8872,13.1726,7.4015,4.3547,5.4927,9.98,8.9164,2.417,3.8725,1.3352,0.95056,-5.7025,26.899,-2.1256,
8.3058,12.3823,9.3677,1.6831,3.7169,8.4169,6.9351,-3.0304,5.5681,-3.5654,-1.0344,-4.8784,13.7157,-1.9983,
6.6026,15.7369,7.1184,-2.5153,3.2531,10.0813,-0.47061,-0.67941,-0.79108,-3.1105,1.6787,-2.8985,10.2416,-0.67307,
4.519,13.5874,6.9321,0.28696,-4.4141,5.3788,2.6909,1.0484,2.3892,0.6913,1.8192,1.373,7.4578,-7.1404,
2.5607,10.1208,9.1677,4.849,-10.175,-1.9336,2.2882,-5.522,6.3432,-2.4837,-0.94151,10.2082,4.8407,-8.3992,
7.2277,13.8519,12.474,4.0762,-6.1901,0.11063,2.1512,-4.7088,2.5886,-2.3346,-1.367,5.2574,15.1555,1.7457,
11.3736,17.6003,14.8588,8.4111,-9.4341,1.3091,6.6016,3.0453,4.6022,-0.025175,-1.5261,-4.9402,16.8975,-0.046018,
4.4244,10.2778,11.557,11.7631,-22.9681,-6.0001,2.3491,0.93465,6.2545,-1.9516,-1.4343,-0.30525,2.8685,-7.2739,
0.78427,3.8763,13.7558,11.539,-25.3259,-8.5326,1.2439,-2.4961,4.9151,-1.3528,-1.8304,-4.6255,-2.1246,-1.0531,
10.1374,9.6695,21.8483,13.016,-9.7063,-2.477,3.3386,1.2693,3.8971,1.8616,-5.8182,-7.4812,10.2956,4.0716,
11.9396,7.6433,16.1993,5.0045,4.9761,-2.8103,-3.6104,-2.1811,-0.67528,-4.0344,-5.9508,1.6445,10.642,-4.8496,
8.8128,7.6669,9.9249,3.7401,9.9804,-1.6774,-6.2858,-3.0143,-2.0808,-8.1305,1.6369,6.8487,3.2548,-1.6659,
4.9098,13.4734,8.3654,5.4436,9.3813,3.2435,-3.0166,-0.4231,0.45441,-4.7508,0.092611,-0.31086,7.3981,7.1109,
3.1692,10.7368,5.4531,5.5992,4.9621,2.567,0.53862,1.5303,3.8014,-2.0554,-0.39511,-3.6669,17.5592,3.7915,
1.0504,4.7899,1.269,4.7808,2.254,0.0025792,-3.8323,0.9565,1.6451,-3.8603,2.0387,-7.3033,9.7568,3.0821,
-2.8688,7.3948,4.5674,3.5301,3.0831,6.7513,-5.5303,2.3454,2.9926,1.1921,-0.011792,-11.6856,0.012346,9.6461,
-8.9634,5.5049,0.43693,-2.4663,2.4159,6.8282,-8.091,1.2403,0.8849,-1.772,-5.7957,1.5488,-0.95226,6.6567,
-3.6049,3.2466,-7.3016,-3.2822,9.984,9.311,-10.0154,4.5404,0.8318,-3.5939,-0.14528,15.5559,-1.8595,7.2217,
-7.2452,-4.179,-10.2384,-7.9059,9.8666,7.3061,-15.1993,-0.070383,-0.66436,-1.45,-4.4749,11.6098,-12.8351,7.7522,
-12.5953,-3.9285,-12.0342,-12.2523,12.6489,11.206,-23.4464,-2.9587,-7.3734,0.56516,-10.9553,9.4669,-4.3522,11.6254,
-9.9114,-1.7644,-19.025,-18.748,19.1208,17.2821,-26.3781,-1.3349,-7.4129,-3.3251,-4.0315,19.5042,5.0679,11.8922,
-6.1832,-3.346,-19.5707,-21.7205,19.1788,15.5223,-24.0723,-0.049971,-0.46068,-1.4384,-1.138,21.467,-3.6723,6.117,
-7.9814,-4.3503,-16.2273,-21.6225,20.6792,11.9399,-21.4229,-0.76987,-4.0485,1.299,-3.7213,23.7944,-5.1387,2.617,
-9.19,-6.2584,-16.4589,-22.4943,24.0182,8.5719,-13.6298,-0.96465,-2.1183,0.49816,1.5637,25.9821,5.5335,8.0031,
-9.1205,-7.8111,-20.2919,-21.6264,17.7566,6.6116,-13.294,-0.42461,4.7579,0.46804,0.98768,13.3362,10.5044,6.5593,
-5.6807,-6.3781,-17.6281,-15.9905,14.2811,8.625,-12.0142,4.4211,2.5442,2.8505,2.8566,9.644,15.6587,9.5402,
-8.2322,-7.9236,-18.0162,-15.9949,11.978,8.5899,-7.9191,1.2638,-6.2855,-1.6588,2.6852,11.9574,14.7192,14.2704,
-8.4614,-3.833,-16.6943,-16.7225,16.3205,12.6538,-7.6849,-2.4275,-6.1493,-2.2826,-0.12699,6.6607,19.8615,11.727,
-5.7845,-2.8799,-13.5237,-15.4784,15.1005,13.0996,-6.0188,1.8153,-3.1291,-0.94062,-1.8068,2.1634,19.8749,4.0332,
-3.7505,-2.4661,-9.5788,-7.0779,10.0967,11.1084,0.3679,9.1782,-2.2184,-3.0533,-0.49313,10.4693,16.5133,1.6221,
-3.0431,0.57434,-3.7014,-5.2069,14.3116,8.9961,-0.61804,3.3253,-3.0492,-8.1728,-4.3199,15.6262,21.789,3.4529,
-0.69154,4.637,5.9207,-2.7254,13.2119,7.251,-0.34022,2.8844,2.195,-4.5489,-5.748,8.1807,14.4561,4.4511,
-5.4703,1.4667,-1.1835,0.33069,-1.6808,-0.89683,1.1267,5.1219,3.0276,-1.8659,-4.4388,-2.4331,-0.51127,-2.0825,
-3.4551,-0.3085,-6.6561,-0.41251,-1.2185,-0.60205,5.1562,6.5018,0.6768,-1.031,1.3712,-1.0822,-7.8317,-1.2347,
1.5729,3.0845,2.9025,-0.86946,8.978,4.2546,1.4726,6.1115,-1.7742,-1.4509,0.32482,-4.3915,6.6177,-0.19649,
-1.8959,5.3095,6.1028,1.5928,0.24437,3.9993,-4.8823,3.8166,0.26048,-1.3638,-7.8894,-8.9483,-5.3485,-4.0411,
-3.9513,3.3037,0.67476,-1.1541,-10.6166,0.62607,-2.4202,0.45434,2.4142,-1.0412,-5.729,-1.4218,-6.2331,-2.5936,
0.86529,4.3108,1.8393,-4.7005,0.86647,3.7218,-2.034,0.18589,-1.3463,-1.2195,1.6044,8.0633,8.2409,5.998,
0.81314,4.0521,4.1393,-5.8645,3.7068,5.9088,-6.2505,0.17496,-2.7115,-3.5567,-3.3124,0.34892,2.5645,1.2995,
2.4518,8.8705,-0.20661,-3.3432,-2.541,7.7237,-7.5627,-0.55866,-0.3799,-5.5127,-5.283,3.4612,-11.6894,-1.4298,
3.2686,11.2305,-3.0863,-0.25056,-0.4603,6.2959,-7.1089,0.43872,-2.2853,-4.2176,-3.5198,16.7509,-5.8059,4.9225,
3.0725,4.2902,4.8117,3.6209,7.762,-0.34834,1.0306,7.1613,1.2263,1.3381,-2.3443,3.6948,5.1473,6.0734,
3.3703,2.5865,2.1126,2.4395,4.404,1.1186,-0.47749,4.3213,1.6349,0.77566,-1.2395,-4.7219,6.7669,3.2991,
0.75793,3.8776,-5.7269,-1.0809,-9.9602,1.0515,-3.8231,-2.6865,1.0548,0.72912,-1.1651,8.0949,-7.7391,0.69061,
-5.0724,-0.69385,-2.4908,-0.052134,-14.0626,-9.1345,-2.1476,-3.4896,1.4735,0.68537,-5.434,4.7167,-17.7593,-6.0993,
-2.3579,1.2762,0.06857,2.8433,0.88114,-7.1404,-2.9829,2.9865,3.7954,-1.7661,1.1588,2.0234,-2.5938,-2.3591,
-2.9395,1.4404,-3.5507,-1.9068,-1.4616,0.75959,-5.9374,3.0481,2.8446,-6.2397,5.6688,10.8198,6.8411,2.3615,
-4.9321,2.5595,-0.2042,0.37674,-13.184,4.3294,-4.8578,1.6604,3.8792,-2.2499,-0.21498,19.0887,-2.9693,5.3538,
-2.226,0.95964,0.77214,2.2826,-6.1265,3.1056,-6.0126,0.1147,1.2361,-0.18644,-1.6481,7.3383,-0.38081,5.0323,
1.282,-0.062037,-0.72044,0.21741,1.9541,3.4016,-9.0261,0.58975,-2.6945,-1.6215,4.7173,-7.202,-5.1782,1.3564,
3.6154,2.3518,-1.6413,-2.206,0.87277,5.6074,-8.4845,2.4828,-2.0506,-2.9703,-0.38623,-9.0595,-11.6167,-1.1354,
5.0857,1.97,-2.7477,-2.3146,7.3283,4.0661,-5.3241,0.6466,-2.651,-1.5872,-7.8349,-2.9723,-6.3399,-3.7188,
8.6365,3.2976,-0.65508,4.0908,19.9036,-0.034667,-2.1126,1.0897,-0.081775,-0.045715,-0.61633,-15.8094,-4.9957,-7.3521,
14.8674,4.5462,3.2408,5.7738,28.3506,-0.51429,-1.0215,-0.42168,3.7797,-4.3811,4.7235,-26.43,-9.5159,-6.4288,
20.0009,4.5144,-4.4254,-5.4189,37.4958,5.5421,-8.9142,-6.9043,-5.847,-15.4469,-9.6599,-19.7828,-16.4172,-13.5148,
32.9009,18.3435,-3.6777,-3.6478,49.3461,19.3096,-5.0051,-1.6696,-9.3528,-15.9661,-15.9497,-15.2216,-14.95,-18.9707,
45.0268,31.3429,4.9786,-2.7055,60.4853,32.251,3.2492,2.046,-8.5502,-15.731,-11.8592,-28.4083,-22.0068,-20.0016,
56.4252,43.5623,-1.5866,-14.1128,70.9562,44.4159,-6.1048,-3.8613,-20.5707,-25.3924,-25.2477,-32.1267,-33.2199,-24.1042,
67.1397,55.0486,-11.8555,-20.2557,80.7988,55.851,-9.354,-4.3528,-29.2186,-31.3409,-37.8328,-29.476,-32.4317,-27.7194,
77.2113,63.556,-8.0109,-18.7992,90.0509,66.5999,-1.3209,-2.8865,-27.7062,-33.0757,-37.2501,-41.8074,-40.8499,-34.0102,
86.6786,69.6244,0.90563,-12.6098,98.7478,76.7039,4.7841,-1.0259,-29.6595,-33.2603,-35.738,-53.399,-46.3529,-35.5848,
95.5779,75.3289,-4.6923,-12.0941,106.923,86.2017,11.4865,2.6506,-29.0852,-28.1316,-35.2811,-48.2671,-38.51,-29.3523,
103.9433,76.1115,-13.0877,-18.5996,114.6076,95.1296,7.4228,2.4918,-27.8223,-26.4437,-34.6105,-41.0327,-27.5226,-27.5914,
111.8067,72.9913,-7,-22.3036,121.8311,103.5218,3.1213,2.3425,-29.0448,-30.1595,-34.4616,-34.2322,-31.1736,-29.3101,
119.1983,71.0222,4.9894,-13.2528,128.6213,111.4105,14.5034,7.0225,-17.6609,-22.0832,-30.4657,-27.3573,-40.8726,-19.8385,
126.1464,69.412,-0.37163,-12.6986,135.004,109.3054,12.9103,5.8778,-17.3246,-21.4811,-35.1455,-31.2597,-33.3586,-16.4791,
130.0263,65.4887,-5.8929,-21.3367,141.0037,113.1114,1.2894,1.9101,-26.649,-28.6284,-37.6163,-34.4456,-25.8134,-26.3366,
119.8146,62.5232,1.6915,-17.164,146.6435,119.3397,2.1759,1.3131,-24.5681,-24.0182,-28.1287,-34.307,-31.4955,-23.7921,
109.4924,54.1923,0.38492,-15.8934,151.9449,106.6359,2.7685,-0.45265,-20.9251,-19.9258,-23.3077,-36.8281,-28.4007,-9.1084,
96.8971,44.4331,-4.6996,-23.3757,156.9282,101.9248,-1.4952,-0.18476,-22.3209,-20.4177,-19.7399,-20.5185,-17.2969,-2.0542,
78.5496,36.4642,-4.4179,-21.0091,161.6125,107.3787,-5.2616,2.7186,-19.0532,-19.1928,-15.1813,-5.1873,-20.5972,-4.3413,
67.3293,30.6612,-0.53716,-13.7228,166.0158,93.9463,-2.7765,5.2068,-11.8843,-13.9437,-15.9576,0.66728,-22.977,-2.8757,
62.3255,27.8574,0.9411,-10.9714,148.7033,74.2095,-0.20005,2.9665,-13.5816,-15.035,-21.7488,-7.5672,-23.0444,4.0459,
46.0527,21.8479,-1.0433,-15.6156,125.6811,56.8622,-1.1521,0.37811,-16.1409,-17.5071,-18.9976,-6.6315,-35.7617,7.1774,
32.443,18.3676,4.5627,-13.9555,104.0402,49.8349,9.7635,4.9349,-3.8445,-6.0926,-3.7578,0.2741,-26.9878,6.0236,
16.3965,3.527,-5.5933,-16.2514,83.6978,32.7448,3.1519,-5.2433,-7.7114,-10.789,-7.9913,-13.8423,-11.2686,-4.7019,
1.3127,-4.6384,-5.0167,-8.7689,64.5759,16.6801,5.1319,-5.6516,0.22309,-6.0443,-0.52199,-7.1067,-3.9645,5.9441,
-12.8661,-18.4601,-4.9564,-8.9659,46.6014,1.5793,6.511,-8.9282,7.1998,2.2723,6.9809,6.0943,-1.0753,10.6494,
-26.1941,-26.8732,-4.9002,-7.2228,29.7053,-12.6155,5.8792,-8.1513,9.4187,8.1618,11.1416,7.8976,13.0892,13.1432,
-38.7225,-34.902,-5.0884,-5.343,13.823,-25.9586,8.9011,-6.2162,11.2639,9.1181,16.7398,2.6033,23.0294,9.4628,
-50.4991,-38.8332,-1.1674,-2.853,-1.1064,-38.501,9.5721,-5.602,13.7218,14.5968,21.7612,14.2574,18.9968,5.2794,
-61.5692,-40.3598,-3.5078,-5.5746,-15.14,-50.291,5.6233,-7.6762,11.9339,15.167,21.4196,16.7762,26.0519,9.3012,
-71.975,-35.2867,-0.1638,2.2322,-28.3316,-61.3735,11.7939,-0.2258,21.5822,18.8367,29.5345,9.7441,32.4425,21.5175,
-81.7565,-36.3029,1.5328,4.7493,-40.7317,-71.7911,6.9886,1.9569,24.3846,23.7321,28.9672,23.2594,25.9162,22.8776,
-89.987,-39.4272,-0.96907,-1.3204,-52.3878,-81.5836,0.30281,-0.088471,20.5112,24.7185,25.7832,35.9639,15.2025,25.3615,
-94.2288,-38.99,-2.3572,-0.27689,-63.3445,-90.6681,-1.6438,-1.0475,16.3885,20.3429,28.0926,34.7701,8.0238,24.8037,
-99.4211,-41.2301,-2.457,3.3549,-73.6439,-92.6996,-0.82203,-4.6003,19.0204,19.3635,29.5403,26.6582,8.7474,14.3977,
-102.6149,-43.0946,-6.1657,-1.1849,-83.3252,-92.9225,-3.1828,-7.6985,22.6996,19.1658,28.25,35.1818,19.3096,13.0516,
-101.0377,-38.8219,-13.268,-7.1394,-92.4257,-88.0705,-5.1613,-5.5494,18.6866,16.8106,28.2422,42.9528,32.251,23.1148,
-95.9393,-37.4565,-11.9895,-7.6749,-100.9802,-83.7501,-1.4771,-0.87762,15.1552,18.212,28.4759,31.699,23.2058,24.1385,
-96.4495,-36.1732,-12.7164,-9.1426,-109.0214,-85.4738,-4.7627,-4.1994,13.7635,17.6017,22.9109,18.7098,7.7135,15.4593,
-97.4112,-31.5927,-12.9175,-8.5943,-116.5801,-81.7914,-8.3333,-6.8397,19.6868,15.0991,22.9823,30.6029,7.3712,16.9421,
-94.459,-34.0354,-9.7321,-4.222,-123.6853,-78.8121,-3.495,-3.5371,17.5411,11.3009,21.1212,41.3,12.2313,20.7461,
-88.5505,-30.3063,-9.8713,-0.83542,-130.3642,-74.3246,0.81203,-0.67398,10.9452,14.7204,19.6132,34.2425,7.8822,17.8139,
-89.9862,-28.9699,-10.7251,-6.5701,-136.6423,-75.1675,-4.0572,-5.936,12.6989,13.837,17.9543,18.0879,2.1069,8.5501,
-83.8639,-27.9548,-4.0558,-4.4884,-142.5438,-68.4883,-5.0188,-3.8923,17.4803,9.8735,20.4926,26.041,8.0058,8.7602,
-78.3499,-30.1337,-4.7766,-2.2907,-148.0912,-58.5942,-3.2714,-1.7308,14.5035,7.3531,18.299,31.7096,10.4182,14.0194,
-80.1566,-29.5309,-9.5516,-6.2511,-153.3057,-61.5862,-3.3161,-5.7243,12.428,11.0093,15.0319,15.707,3.2852,11.491,
-75.1062,-23.6617,-10.6655,-6.1168,-158.2073,-65.845,-5.7685,-7.0679,13.3698,12.0357,14.3707,0.66459,2.8469,4.2939,
-65.2974,-23.6883,-8.5796,-3.3398,-162.8149,-57.0739,-3.4944,-5.1978,11.6031,9.8675,13.5082,14.7247,6.0503,6.4461,
-64.0309,-24.9183,-7.8241,-3.8626,-167.146,-44.7316,-4.0079,-3.6808,7.2917,9.0343,10.5288,22.3974,-0.82046,9.675,
-61.3939,-18.8435,-8.5597,-0.97951,-155.1888,-38.914,-3.044,-0.32674,6.1311,8.2515,7.7277,6.9535,-1.9758,9.3357,
-55.0592,-15.5439,-7.8049,5.587,-134.5495,-37.7847,1.7179,-1.0303,8.4145,7.0333,6.059,8.1028,5.6143,10.9445,
-55.612,-17.0214,-5.4084,9.1081,-129.3688,-34.0713,-0.79552,-0.48651,7.4277,5.165,7.6236,16.2938,5.2774,11.2521,
-52.2751,-15.518,-3.1555,5.1874,-114.8578,-29.6167,2.1447,3.3993,6.4999,5.3373,12.4691,17.2446,7.3711,9.6129,
-39.0156,-10.7305,-4.8946,3.9121,-93.8663,-31.6963,11.1751,4.1594,7.5559,3.571,11.7207,13.7995,15.1238,9.5183,
-33.0593,-10.3276,-5.806,8.7388,-74.1344,-39.6765,18.4585,0.29468,6.3794,4.0799,10.7763,-1.1284,8.6725,4.8496,
-35.6552,-18.1439,-1.8422,6.5273,-67.9993,-48.1421,17.592,-2.8565,3.8275,6.0043,9.8887,-4.3147,-5.9478,-4.3594,
-26.5263,-11.0297,2.3657,7.8228,-54.5191,-43.5664,15.8131,0.93032,4.8032,4.4387,7.6082,10.0442,-0.16759,-0.96436,
-16.2576,-0.2448,4.6339,11.6923,-43.053,-32.2753,22.5776,4.7309,4.9969,3.6905,11.4905,12.9362,0.80634,3.9142,
-19.3797,-4.8096,7.0072,14.124,-50.352,-30.58,24.8381,3.242,2.0458,4.6741,10.0779,-1.9399,-13.342,3.4382,
-18.4579,-9.1003,3.9356,14.9638,-42.7514,-29.4681,17.3223,2.8065,3.6102,4.1527,2.0014,-4.1132,-13.3849,6.8473,
-14.6991,-7.3493,2.9764,15.271,-33.6786,-28.4231,21.3444,3.8432,7.9731,3.1804,1.6401,7.944,0.19241,8.1235,
-15.2634,-6.9085,3.7617,16.2829,-43.2273,-29.6103,24.402,1.6844,3.1564,3.4715,1.0598,-6.5124,-8.9782,1.3695,
-10.491,-4.5656,6.9106,14.8238,-40.6336,-24.4592,19.5637,4.4756,2.4849,5.6736,-0.93221,-15.2805,-14.2238,-2.0869,
-9.3796,-5.7379,6.0138,10.5597,-26.6264,-22.0275,17.9077,4.2068,4.2638,2.9228,-2.3223,-0.26365,-5.1759,-1.4799,
-12.9144,-8.5271,4.4475,9.6854,-23.8238,-19.983,21.4128,0.33924,2.3209,3.4706,0.46836,13.8522,-9.9268,5.5985,
-17.201,-13.077,4.4221,6.4532,-32.2763,-21.4351,22.7791,-1.3683,2.4226,5.4315,1.6455,5.5492,-23.4312,5.9859,
-16.8921,-12.5333,0.059387,3.8963,-23.832,-21.3541,14.9049,-3.4554,3.9645,3.4184,0.82346,-0.32733,-27.2073,-3.2913,
-15.6371,-12.5042,-5.4876,0.047372,-10.1096,-15.9752,7.5029,-5.8994,5.4141,3.4545,3.4258,7.6463,-16.1746,-5.2627,
-14.9401,-13.9233,-4.4354,-2.1246,-11.6724,-13.8117,10.6681,-5.3045,5.3302,3.0062,4.907,8.3928,-22.194,1.5605,
-8.2593,-8.2675,2.5792,6.1976,-13.8643,-15.8755,15.3307,1.2803,4.528,4.754,3.1664,-6.2108,-27.6113,6.7695,
-3.184,-3.6741,6.0398,10.4054,-8.9351,-13.7177,16.0981,2.4088,8.8361,8.0842,4.1817,-19.9381,-22.3392,4.1942,
-1.7879,-3.2124,1.0982,3.7551,-3.3373,-4.9409,10.0705,-3.7613,5.6544,0.6093,2.2436,-6.4498,-18.8297,-2.5654,
2.8986,1.0777,3.2012,4.7349,5.2986,3.7917,13.0815,0.56151,1.218,-4.0068,5.7241,8.0372,-16.9767,2.168,
2.2426,1.0128,6.3836,6.8609,4.4985,0.18955,18.0811,4.3842,3.0726,-0.39192,3.4525,3.3367,-21.2608,5.412,
-0.30213,-2.9041,5.5184,2.1112,0.37243,-4.1601,10.2476,-1.1813,1.9246,2.5239,-2.0571,-9.8787,-20.9492,0.74915,
-1.0069,-5.3812,3.9822,-3.077,1.0732,-3.1874,5.5356,-4.7256,2.5323,-2.2071,-0.24666,2.5244,-11.7383,-0.018932,
0.49954,-0.71979,0.85124,-2.4104,5.3471,-1.5501,8.5775,-1.0676,4.3085,-0.62838,1.2144,-6.3037,-11.034,-0.49973,
3.844,2.2157,1.2821,-0.33759,10.8111,-0.49303,12.8835,0.92466,3.0857,8.086,2.1059,-17.9771,-11.8182,-0.95168,
0.72109,-3.7018,0.24131,-0.31733,4.3779,-1.9095,10.1823,-2.0233,-0.95582,6.6369,3.4258,-2.7984,-13.5193,-0.41265,
1.6419,0.37667,-0.25556,3.5581,2.6689,0.61545,5.715,0.99058,4.4042,4.3105,5.6304,11.4695,-21.8671,1.5403,
5.641,5.8977,-1.4453,2.1395,9.9806,2.2655,8.0234,1.1719,8.7194,5.257,5.5337,6.9251,-33.8113,-0.7215,
7.4717,6.7489,-0.15351,1.77,12.0331,2.3706,9.7114,-0.10349,2.6524,3.7365,4.9605,-4.8188,-30.0956,1.9731,
4.6128,1.5232,2.748,4.5561,6.9723,-2.1102,9.6104,3.2769,1.5292,0.62,1.2882,1.7371,-23.9518,0.89063,
1.9259,-1.9424,3.5472,6.2111,6.0721,-8.7323,11.4442,5.4907,5.2941,0.10064,-2.6453,3.5608,-36.6147,-5.4296,
6.3896,2.7534,1.1652,8.0076,10.2873,0.22755,10.0342,4.9203,3.2892,5.6382,-0.31738,-0.26825,-35.5024,-0.042099,
6.9706,3.0704,0.61337,2.7064,10.1522,6.9628,8.9502,2.6969,1.6456,6.7462,0.1836,-6.5187,-21.8028,4.2987,
0.28561,-0.48804,3.4686,1.0983,8.579,0.27829,9.3775,1.5707,0.58297,0.55683,-2.7195,-1.7892,-24.833,-5.1182,
-1.4185,2.1926,9.7682,10.4321,9.7512,-0.46154,10.0199,5.0921,3.6812,-2.1279,-0.86931,6.754,-32.2611,-1.6779,
-1.0924,-2.5185,8.9412,6.6727,6.5148,-5.4953,5.8033,0.68925,1.7731,-0.313,-2.5044,-7.7512,-43.0999,-0.3719,
-4.4014,-3.3315,2.6201,1.4521,6.1242,-9.5041,1.1168,-2.2446,-2.6716,0.18771,-2.3541,-13.191,-38.1035,-9.5086,
-5.8243,4.8224,1.2578,4.4982,6.962,-2.4259,5.6293,3.9158,0.14006,-0.54668,5.7411,1.7005,-22.0788,-3.8762,
-6.6803,2.8456,2.3874,3.0233,5.3388,-2.5218,5.5323,1.9934,0.37239,-1.7189,0.33472,-9.6095,-29.6721,-0.51082,
2.1568,9.1828,11.6442,8.8674,13.4546,1.2451,11.2263,5.4897,5.8937,8.2661,-0.40826,-16.9867,-30.0609,-2.1669,
-1.3472,3.8111,7.0891,4.9609,7.3446,-0.75798,11.0347,6.1242,5.0581,5.36,-0.8657,-14.0393,-31.6317,-9.7497,
-2.4712,-0.032763,0.15609,3.4587,7.6271,-0.95324,9.1675,5.0336,3.5496,-1.4693,-0.57256,-7.1711,-25.6362,-3.1389,
6.1129,2.1384,-0.57641,3.01,17.5336,3.6835,9.8226,2.5627,-0.761,-0.65799,-1.2613,1.695,-11.8058,5.0029,
9.6023,6.8303,1.8685,4.2754,19.3736,11.6572,9.233,3.8545,-3.6076,3.2376,-2.1498,2.075,-5.3128,-0.11775,
5.8929,9.554,1.5155,1.8497,14.596,11.1987,3.1354,0.97211,-3.1502,-1.054,-2.2617,-8.8953,-9.0917,-3.7261,
5.7803,4.8832,3.1115,-0.43067,12.033,4.501,2.2241,-4.6296,-2.2381,-2.6777,0.52483,-8.1208,-4.4488,-0.85121,
8.3258,7.9646,9.6733,6.3441,19.0238,8.0873,4.5013,0.95036,-4.5139,-0.10694,1.4577,3.4537,9.9181,1.1281,
4.9342,11.3434,5.7189,3.5533,22.2212,15.3153,2.7849,3.7863,-3.7611,-0.58245,0.88828,-5.9121,15.9517,-0.86782,
4.8793,9.4577,-3.0601,-2.6857,11.0057,15.6015,3.341,1.3897,2.4903,0.65756,3.4863,-6.7625,9.4512,1.3536,
5.3092,8.1671,-2.1536,-0.8373,1.4273,10.568,1.9352,3.9575,-1.7565,1.341,2.5538,7.7433,1.8938,4.8878,
4.0268,7.6771,4.7247,-0.3049,8.5725,10.898,3.7475,7.0947,-2.1332,-2.1137,1.4369,1.1322,-0.62973,1.2203,
11.9799,10.5907,2.0304,-3.6613,22.1582,15.0646,6.415,3.7763,-0.55922,-9.6999,-0.095801,-6.1668,10.0131,-2.2276,
25.3611,17.9094,-0.74227,-3.6824,34.9287,17.776,7.7171,1.3808,-7.0334,-9.3586,-1.7771,1.6752,13.9918,-0.40645,
33.3602,21.4139,2.9175,-3.7026,46.933,20.325,7.4952,2.9849,-13.1191,-4.6995,-1.9116,1.334,8.5728,-1.5876,
25.8149,17.478,-1.3549,-7.0959,50.2632,21.7566,4.3944,2.5648,-14.0187,-6.5867,-2.0379,-4.7716,16.0122,-3.6615,
19.9275,13.0551,-1.7558,-7.6342,42.9089,16.1127,7.505,0.48253,-10.2858,-7.1561,-0.46959,-10.7525,24.6927,-3.924,
19.2138,14.2,-0.2042,-6.2123,32.1397,9.3613,5.6084,-4.8486,-13.525,-8.6549,-0.44141,-14.9276,15.0159,-7.0625,
20.2303,17.927,0.049245,-5.5984,32.3802,15.7893,5.0307,-3.835,-13.4366,-6.9305,1.7545,0.06805,9.5355,-2.5416,
12.991,12.2721,0.28726,-7.4316,28.7502,17.0111,7.3804,-2.8816,-10.9432,-3.8631,-3.4125,14.164,6.7942,0.26241,
8.3551,7.6794,-0.6943,-6.0219,23.1688,13.0984,5.4913,-5.6012,-9.8042,-1.2212,-8.028,-0.78587,9.761,0.24666,
10.0232,7.9418,-0.41145,-5.9013,21.056,10.1436,7.3313,-4.542,-7.529,-0.90676,-2.0029,-14.1154,17.1293,-0.49127,
7.4934,7.9474,-0.86893,-8.9219,16.4179,7.6065,4.963,-4.7516,-8.5233,-5.6728,2.4558,-7.4841,14.655,-4.3184,
8.7308,10.6034,-2.0219,-9.1097,20.0124,9.801,2.4958,-5.6716,-11.1456,-4.1279,-0.34287,-1.4917,11.1244,-5.2644,
13.7506,15.0293,-0.69525,-2.5371,22.4271,11.3825,8.372,-1.7159,-7.3434,2.1458,-1.5276,-11.2841,13.5904,-1.3331,
13.4077,14.1273,-0.65376,2.4356,14.3328,10.2174,13.6541,1.7613,-3.0461,5.3913,-2.4,-16.3919,10.8466,-2.2172,
6.8186,7.0132,-0.13215,-2.0489,6.7243,7.6762,11.871,-0.27212,-3.8272,2.1758,-4.1838,-3.3568,5.3755,-6.4225,
7.3739,9.0025,7.5886,-3.3722,9.6949,5.2874,9.7124,-0.73772,-3.5976,-2.2931,-4.8971,4.5574,8.4275,-7.4834,
12.7158,11.8371,7.6154,-0.7595,13.9337,6.4167,6.7193,1.2345,-4.3458,-4.5659,-4.603,-3.911,3.1013,-4.624,
15.8092,10.1625,0.89151,-1.6783,12.1338,9.8876,9.2087,3.0886,-6.0137,-2.8457,-0.47091,-3.6763,-3.3513,-0.0082733,
19.4402,12.2041,5.8995,-1.8183,11.1646,10.0175,8.415,-0.22995,-8.3042,-3.3981,-0.20146,2.0881,2.8751,-2.1772,
15.6227,11.2309,10.1252,-3.8784,10.7356,3.8728,4.2947,-7.206,-10.939,-11.6303,-6.6968,-3.0989,6.318,-8.554,
14.4441,10.7977,7.3483,0.9334,13.2248,6.2918,10.0628,-1.7122,-5.2212,-5.3886,-3.1618,-12.3132,10.0365,-2.4974,
14.7825,8.9448,-0.56414,-1.2915,9.78,9.5299,4.3975,2.4881,-5.1491,0.47806,-0.32075,-11.3332,14.0139,1.2681,
10.7621,5.7566,-1.7356,-9.6502,3.6495,5.3422,1.4821,-3.2048,-7.0094,-5.0942,-1.0249,2.1213,7.147,-3.3877,
9.1525,8.3037,0.77868,-6.1786,6.3231,7.4323,8.6241,-3.4944,-4.6606,-5.7525,2.4111,7.7786,-0.030242,-0.77388,
7.8802,7.5643,-6.2577,-8.9416,11.0052,10.6015,2.5628,-4.9722,-7.9966,-2.7564,-0.86684,-0.64212,14.0716,3.3697,
10.2999,10.9673,-9.2567,-11.2972,20.4682,11.4117,-0.96499,-3.2276,-7.0344,2.2297,-3.7069,-1.0855,27.3273,4.1318,
5.8251,11.2731,-7.255,-6.2811,18.7577,8.7988,2.9493,-2.552,-1.7921,-1.2786,-3.003,-1.0204,11.5876,1.4733,
4.2705,9.8738,3.0622,3.4958,6.3041,6.5837,12.1723,-0.22976,8.1978,1.4497,4.6494,-9.3953,-3.2076,4.0365,
3.2912,10.0043,1.1913,1.5988,4.721,1.6094,2.042,-1.9032,3.6086,4.4957,3.1652,-22.9316,-17.1152,-0.30306,
7.191,14.9476,-6.352,-1.6306,18.5377,9.4665,-1.6959,-0.10178,-2.6339,5.9132,2.2519,-17.5786,-30.1883,-2.4545,
8.2061,10.6766,-12.2372,-2.9783,17.5459,14.6833,-0.63009,-1.0593,-4.8858,-0.70786,-1.7394,-2.4239,-42.477,-2.7889,
10.8467,14.1333,-11.2624,0.81534,8.539,11.1508,-0.83325,4.5474,-2.9059,-3.3169,-1.394,9.4112,-54.0283,0.99382,
12.1243,18.5877,-4.32,5.105,11.4013,11.4458,4.0372,9.095,4.0176,1.2206,3.5101,-5.2535,-64.8866,7.6829,
9.9506,17.9544,-1.1682,10.5833,15.5375,16.0617,5.7232,7.5855,3.7761,3.5575,0.88936,-12.0486,-75.0934,5.2937,
9.3536,17.8415,-1.5801,13.3227,11.7132,14.6161,5.8617,7.1303,2.5857,3.826,0.35407,-0.23848,-84.6878,1.1197,
4.4541,16.771,-1.4853,9.1494,1.8514,6.9902,6.4744,5.7387,4.3587,2.6326,1.7791,-2.6343,-93.7066,6.3552,
2.7406,16.7286,3.4241,14.3845,0.77596,6.0889,6.5678,8.7683,3.1329,2.4746,-0.73825,-1.5119,-84.9509,9.8302,
1.1299,11.3866,2.2548,17.3778,0.24747,2.3491,4.7275,11.6167,-0.4291,3.29,-4.5503,0.507,-81.2999,-1.8468,
5.1594,10.4624,-2.4603,15.6123,6.7401,5.3416,4.6848,9.2325,0.31955,2.8516,-2.5901,1.6814,-81.0014,-3.9052,
6.5373,8.6296,-5.4459,9.6141,12.8439,9.1187,0.3066,2.6532,-1.3866,-0.45271,-5.5679,3.7499,-72.0437,-0.53759,
4.2169,5.2193,-1.7447,9.0372,11.1089,5.6791,6.0728,5.868,-0.82149,1.5026,-5.7163,4.9712,-65.7932,-0.98773,
2.9998,2.9782,-2.1222,11.8692,6.5862,1.9641,12.4571,10.8188,1.6382,4.3048,-0.070409,5.1551,-58.4711,3.4105,
-1.0366,-1.5388,-5.3693,8.7469,-2.0041,-2.0101,12.1916,5.8309,4.4319,2.6002,1.3801,4.8453,-49.1783,3.6878,
-3.1438,2.1689,0.014546,11.8375,-5.9812,-5.023,16.5218,5.2401,7.7814,3.1676,1.5382,5.7599,-44.5403,-0.14884,
-5.1243,5.1718,2.6648,8.9581,-2.0069,-4.4807,17.6996,4.2028,1.7709,-1.1198,0.24065,4.209,-41.1448,-1.3452,
0.0038438,4.3793,1.5408,3.1178,7.2723,-1.8015,18.5661,2.9865,-0.26329,-1.0529,0.22644,2.0285,-27.1069,-0.78233,
6.5111,6.7681,0.72544,7.9924,19.6104,0.47579,22.0314,5.9403,1.9217,-1.2307,0.93575,4.5579,-11.3805,-0.97636,
3.7103,3.9519,-3.6564,3.1745,25.1827,2.8574,24.5659,1.7275,-4.9425,-6.9414,2.3259,4.7668,3.4023,-0.91778,
1.3181,2.0271,-4.6423,-5.934,26.8048,0.51677,25.743,-0.54529,-6.8151,-3.3919,4.3555,6.1676,17.2982,-1.1041,
4.3725,3.1108,-3.1585,-5.8189,30.7401,-0.71953,23.4756,1.1747,-1.8265,0.90943,2.8889,10.8592,30.3603,-0.31453,
3.6282,-2.3781,-9.7179,-12.7006,29.3781,8.0007,16.2824,-5.1623,-9.4297,-12.1606,-3.551,3.9411,42.6387,-5.5983,
3.8927,-1.7537,-20.7042,-23.508,31.9535,21.6207,13.8595,-9.1911,-19.4694,-22.5184,-7.6765,5.6326,54.1803,-8.6366,
7.7565,2.4489,-25.4875,-29.5693,32.6878,34.4235,16.1609,-6.9524,-17.5779,-17.5519,-3.6005,19.3947,63.2218,-3.0572,
11.1475,1.82,-26.8503,-34.0617,30.2446,46.458,7.479,-9.9098,-18.9333,-18.9089,0.47194,29.4389,71.4801,1.9469,
18.1914,8.4593,-27.1679,-37.8026,42.5299,57.7706,2.6914,-11.2434,-24.5463,-22.1131,2.3718,41.1699,78.278,10.0248,
17.8228,13.9777,-25.7788,-43.9705,54.0781,68.4043,10.9656,-8.3996,-20.9043,-19.0991,0.060351,49.0636,70.4479,15.9313,
14.8255,13.6212,-23.2675,-45.1885,63.8486,71.4102,9.3436,-6.4496,-17.7216,-18.4349,-1.3893,48.5301,67.6675,16.4214,
13.6952,6.2962,-30.7893,-51.395,61.2228,72.1875,0.82947,-9.1959,-26.5405,-24.3184,1.8273,51.6441,75.4178,13.2672,
13.8371,5.9182,-33.7629,-55.0604,65.2624,72.1943,4.6359,-11.0545,-26.8765,-24.7877,4.128,58.6686,74.2669,9.5784,
15.1763,11.1065,-30.5321,-50.5517,72.1922,72.4422,10.383,-12.0782,-22.6126,-22.5773,1.711,51.5328,64.749,8.7625,
14.5067,11.6459,-27.9768,-53.0618,78.2255,76.0499,11.9297,-12.0764,-26.317,-25.802,1.3673,47.236,60.6236,14.7452,
10.7442,11.4291,-27.2625,-59.0371,82.2086,83.056,10.7319,-13.7624,-31.4869,-32.449,4.1774,58.3812,64.6989,17.2345,
6.9663,9.0559,-28.76,-57.6643,85.2301,80.724,14.6675,-17.0338,-26.9464,-37.0098,5.6142,55.6014,61.5401,9.6927,
5.3428,7.3075,-33.5421,-53.4813,94.2163,75.1574,20.2952,-18.6631,-28.9453,-36.4762,6.4824,45.7576,57.6065,8.388,
4.2991,7.5921,-37.0734,-56.2982,102.6633,76.1914,16.9081,-18.7488,-38.0546,-37.9033,5.3703,53.3763,61.6217,14.8744,
5.4874,3.7622,-33.8847,-55.3304,107.8312,74.5119,16.3756,-16.6596,-34.325,-37.0753,6.4944,57.8865,61.7808,15.4282,
4.9172,-1.0433,-38.8415,-54.1798,106.905,66.9082,16.5983,-19.2754,-35.399,-37.5019,6.3457,47.9058,56.3867,11.369,
5.3453,6.4913,-39.1619,-58.4006,114.5907,71.8115,21.6282,-18.842,-37.3722,-36.9388,4.7599,54.4317,64.3319,18.6413,
2.3733,8.7532,-36.089,-60.9223,121.8152,74.9749,26.8382,-16.9879,-31.5147,-38.8196,1.8229,61.0475,67.944,21.138,
-1.1436,6.7817,-39.2263,-55.8212,127.2808,69.0301,26.1918,-16.451,-32.0339,-41.7935,3.1598,53.0463,60.011,11.6745,
0.37152,4.9288,-39.2831,-56.81,128.8032,61.996,26.0668,-17.3919,-35.8967,-44.1059,4.4163,42.6329,57.8564,6.636,
9.5078,7.0432,-35.4799,-58.704,135.175,60.6864,29.8049,-16.3489,-39.0455,-42.4239,-0.18703,43.9313,61.6158,9.1299,
11.1067,9.7543,-37.9306,-56.3868,141.1645,59.6965,29.7041,-16.0906,-43.2101,-41.0835,-2.3452,48.2851,57.1958,8.3413,
2.9687,9.4098,-42.1625,-50.8342,134.3818,52.9815,29.1269,-15.3664,-38.9305,-43.198,-1.4814,40.3265,51.5946,3.2613,
-1.066,9.8093,-43.4893,-45.8562,135.4777,51.7306,30.7535,-9.142,-31.2922,-42.0527,-2.3566,34.0503,50.9093,3.0654,
-1.484,5.3643,-39.4337,-47.9251,131.6879,47.6629,35.6572,-4.2547,-28.4504,-38.0832,1.6412,42.6126,43.9984,6.7379,
-4.0465,2.8733,-32.0065,-46.7373,123.5452,35.4031,37.1328,-4.2408,-28.913,-37.4855,3.7119,47.0453,36.7787,5.6103,
-3.0803,5.352,-33.701,-43.2097,126.0148,29.6635,34.6643,-2.2991,-29.3473,-40.78,0.83809,41.0895,39.1517,5.5151,
-0.48539,2.6208,-37.464,-47.366,132.4332,30.2938,35.9584,1.2133,-28.0684,-41.7076,3.1979,43.4444,42.1048,8.0762,
-0.4565,-0.9107,-34.734,-55.6111,135.5742,29.4403,31.8729,1.6226,-30.7229,-40.6512,4.4521,53.371,40.0607,8.0738,
-0.67007,-0.13315,-34.8191,-56.8541,135.8759,25.5047,28.2733,4.1764,-34.9051,-38.935,1.5339,53.7842,35.9698,5.4202,
-1.8349,6.3825,-40.6835,-49.8272,135.6773,19.3949,31.6384,6.5771,-36.4259,-39.7322,-1.2095,47.9062,31.6427,-0.44837,
-1.9658,9.615,-41.376,-47.5605,136.9367,15.0982,37.6938,5.9415,-36.4095,-39.5174,-6.1986,40.9341,27.0931,-4.5193,
-2.0888,7.3509,-34.3141,-50.2505,135.7099,12.5051,41.9401,7.2722,-35.4303,-38.3516,-8.4778,33.8987,24.7441,-3.0428,
-7.5069,5.7048,-34.4242,-51.815,128.7728,4.2827,38.2187,8.041,-38.3659,-44.9684,-9.6561,28.7315,25.9108,-8.4036,
-9.949,3.4343,-40.0715,-51.1162,124.9029,-6.5791,42.1921,9.4867,-36.5459,-47.091,-11.0049,21.2231,19.0535,-13.2021,
-11.7624,0.81787,-46.3446,-48.0495,120.301,-13.4154,49.7837,11.3279,-35.7996,-43.3014,-17.0938,8.3803,7.3052,-10.9639,
-13.7082,0.52784,-48.1432,-46.8537,118.1441,-16.7078,46.0733,10.8892,-39.1952,-46.7289,-19.6836,3.7797,6.1435,-12.9576,
-15.0544,-0.70913,-43.5674,-49.5861,116.5991,-20.767,44.9961,11.4411,-37.0845,-48.0225,-18.2611,5.2406,3.6062,-17.7233,
-19.4538,-1.6304,-42.3996,-49.503,109.1212,-23.8593,45.1889,16.0573,-37.7515,-43.6949,-20.5399,2.5156,-8.1798,-17.6243,
-19.4916,-0.80949,-40.5783,-50.1485,113.9024,-23.1509,44.1645,17.2628,-41.9941,-44.6889,-20.5126,-1.7325,-10.3398,-17.2899,
-10.8503,0.44391,-35.0106,-51.7189,121.1682,-28.7517,47.0583,13.0935,-37.3053,-46.5868,-18.077,-7.1722,-1.2838,-17.4574,
-5.861,3.3098,-30.4993,-44.7593,127.9981,-37.6315,52.9119,15.6828,-31.6925,-45.7198,-16.028,-8.67,7.9523,-19.3024,
-7.1963,4.3163,-24.0903,-36.5304,134.4182,-41.8813,60.1013,22.2134,-28.5859,-42.2535,-10.0049,-10.3192,9.6445,-19.3494,
-5.8005,4.5395,-20.7165,-37.7128,140.4531,-47.5633,58.4232,22.8086,-29.2811,-39.7185,-7.9586,-12.5924,5.6912,-18.6706,
-5.4527,3.303,-23.3301,-39.3062,146.126,-49.0481,55.3999,25.7786,-24.632,-38.2995,-10.3734,-10.3903,3.9037,-16.5862,
-7.0537,4.5511,-22.8942,-34.5377,141.5762,-42.7308,59.7887,31.4627,-19.2977,-36.4835,-9.269,-12.1775,1.2593,-17.0373,
-5.1844,7.6522,-24.8952,-30.0555,132.1176,-43.0592,60.058,30.5391,-21.9964,-35.7409,-9.677,-17.7136,-5.5654,-19.3893,
-5.8372,8.157,-20.509,-24.8777,122.7443,-48.1884,63.203,34.0094,-16.8202,-29.7396,-7.6501,-17.1327,-6.6772,-19.1898,
-7.6564,8.8731,-8.4324,-15.913,115.6208,-48.4304,64.4727,42.3329,-10.7491,-24.822,-5.0217,-13.4534,-4.5896,-19.2439,
-5.9919,8.0995,-8.6496,-18.5739,110.3705,-47.6939,61.327,40.0337,-14.2018,-26.4659,-6.8898,-11.9231,-7.4475,-17.8481,
-3.945,7.3723,-15.6022,-22.5209,101.097,-46.0374,60.7806,37.3909,-14.5547,-23.191,-8.6458,-9.0388,-8.2057,-16.536,
-5.6367,9.3403,-13.7024,-17.3135,94.0671,-42.7934,60.0261,45.7521,-12.2354,-19.3896,-8.6092,-6.0861,-3.3753,-17.9542,
-7.4677,9.0209,-11.6745,-16.5152,84.3257,-45.287,59.5585,47.5871,-11.2603,-21.3593,-9.2975,-8.8539,-6.3058,-17.1179,
-8.2249,6.3105,-17.482,-22.5146,69.3838,-45.7033,53.8153,37.2597,-14.2001,-24.1751,-12.837,-12.4205,-20.0274,-13.9217,
-7.0078,4.7268,-17.1562,-24.2965,59.6778,-40.3093,47.4532,32.3732,-13.5888,-24.4116,-10.3793,-10.9517,-26.4181,-11.8813,
-4.1774,7.3355,-9.3781,-18.9826,57.5427,-37.4091,53.2828,35.7332,-12.2918,-20.055,-5.9004,-11.2592,-22.4226,-14.0607,
-3.4449,10.2698,-8.8155,-15.9154,50.7157,-39.0209,54.9061,36.4813,-13.0006,-15.9592,-8.4389,-17.3325,-23.4879,-16.5916,
-5.8893,7.9664,-9.4914,-15.2015,38.7551,-39.8131,49.4431,31.6413,-7.6408,-13.3144,-5.7629,-18.4613,-25.6936,-13.9088,
-9.3923,6.0421,-4.5836,-10.9149,33.0554,-39.8345,49.3685,32.153,0.048508,-10.5874,0.36741,-14.4615,-17.8854,-11.628,
-8.1056,7.849,-0.69336,-7.1268,26.9745,-42.5059,50.504,36.7315,1.7326,-7.3008,-0.37777,-18.1734,-8.8583,-11.1716,
-4.4863,10.9935,4.8919,-2.1199,17.8842,-42.1247,49.161,41.5175,3.7978,-5.1755,-2.0423,-22.6266,-10.0141,-8.3321,
-4.6992,10.3336,2.6699,-0.064281,9.5805,-38.1512,46.2111,40.4725,-0.76862,-7.7573,-3.8482,-19.8229,-14.7161,-9.2782,
-3.4527,7.7857,-2.3103,-0.54259,5.1496,-36.3442,48.7409,39.9725,-1.6861,-5.8458,-4.5814,-19.1153,-14.3148,-8.2394,
2.0571,7.3185,2.649,3.8287,-2.8722,-39.9482,45.3349,42.3949,1.3075,-3.5669,-6.2343,-28.0913,-13.4559,-1.9604,
-0.95864,6.8792,4.9,4.5631,-14.7512,-38.5154,37.312,40.3329,0.26454,-4.317,-8.2706,-29.7805,-14.577,-0.87869,
-5.7218,6.9488,5.5703,1.3968,-21.5789,-33.7943,38.4477,39.8411,4.1051,2.691,-3.9179,-14.9782,-11.7742,-3.2361,
0.16509,8.2187,6.4409,1.072,-20.0432,-31.5257,34.4536,41.0661,6.5103,8.555,-0.54984,-1.3051,-1.6677,-3.2829,
3.0472,8.2079,7.5007,4.3822,-20.7688,-30.598,35.2785,43.9048,6.6016,8.5237,1.8933,-3.6373,3.735,-2.1221,
5.0338,13.2588,14.0403,15.9296,-26.5123,-29.9672,46.9003,49.2245,14.1595,12.1098,10.698,-9.9264,3.7521,-0.78967,
6.4188,13.6684,12.9572,16.6608,-28.5372,-25.5179,40.953,46.0298,12.1049,12.5883,8.3686,-7.1618,7.6241,-3.3936,
4.5878,4.1716,10.2516,10.3585,-32.6096,-21.0947,26.9267,43.268,10.8962,9.9048,1.1181,-6.2502,8.1309,-6.0821,
2.3841,3.4392,9.1543,16.4857,-43.1862,-23.2033,25.7932,45.4924,17.9554,11.2385,3.9433,-12.6239,1.8583,-2.3429,
3.2054,5.161,8.1226,16.4609,-49.2722,-22.7754,27.6196,40.8347,16.8781,10.5642,6.5987,-16.2048,-2.1096,-1.238,
3.9767,0.030867,11.4919,11.1347,-48.2443,-17.0703,24.0345,30.6716,12.0088,6.5561,3.3105,-16.1966,0.90927,-5.5023,
1.5692,-1.658,14.9,15.528,-54.7494,-19.6613,15.1209,29.5544,14.422,6.4039,-0.50329,-14.9836,3.0241,-1.557,
-0.21195,-0.3539,13.7648,17.2477,-63.7567,-24.9893,16.3825,32.8426,17.1718,11.5631,-2.6425,-14.8077,-1.2549,5.0442,
-1.8867,-3.4659,8.3594,13.0796,-63.5465,-18.4285,17.0866,28.7031,9.6338,8.6999,-3.2071,-17.0529,-3.831,-0.31992,
-1.5325,-5.4271,10.027,17.356,-61.4209,-12.2611,12.9284,27.2219,11.225,5.5268,1.0827,-14.3425,2.4249,-2.4699,
-2.1635,-2.9319,8.7025,18.4843,-68.0995,-16.5871,13.3579,29.204,12.2387,6.4005,-1.151,-15.1688,1.5561,-0.15254,
-1.5517,1.1,10.1085,16.4109,-71.2449,-13.6637,17.8587,28.4156,2.8273,8.9085,-8.7951,-19.5617,-6.2501,-2.0716,
0.4698,0.069866,19.1432,20.2467,-73.7189,-5.6133,19.6794,27.1929,6.5142,10.3024,-7.3033,-24.1724,-4.429,-7.2497,
2.1288,1.7529,19.6814,25.0575,-73.3931,-5.0351,15.8476,26.2842,15.5234,7.9971,-3.7316,-26.3375,6.201,-8.5019,
6.0985,2.853,16.3313,23.313,-62.9639,-7.3845,18.5121,24.4662,14.833,7.7582,0.58962,-28.3726,7.5162,-5.8227,
9.8297,0.51245,20.8953,22.1555,-60.3912,-8.6284,24.873,24.2033,20.4507,15.2467,5.1338,-29.8035,1.0394,-3.7863,
7.0707,0.72267,18.4363,22.9953,-66.1677,-7.3878,13.0163,21.0638,27.1774,16.0187,2.6561,-25.3642,-0.22822,-4.282,
4.4773,-0.52552,10.8222,16.072,-72.0796,-6.7036,5.2459,14.2564,20.0031,11.9245,0.80998,-16.8525,-4.7938,-4.2661,
9.5116,-2.9043,12.1013,12.2154,-75.9497,-7.7474,10.7159,12.9193,12.5367,15.0657,0.27921,-11.5028,-14.1469,-2.5641,
8.9404,-6.5865,11.8571,13.4106,-76.2135,-7.2826,10.5549,11.6622,17.0866,17.5357,-0.21947,-13.7052,-19.0831,1.4461,
2.3784,-5.9503,12.351,14.7751,-80.0763,-9.0152,6.7881,7.3466,19.6769,14.7963,0.034663,-18.9084,-22.9998,1.1184,
8.7437,1.3966,14.7434,18.9503,-76.477,-6.7866,9.5143,12.4494,16.3271,15.5958,-0.20838,-16.0867,-24.7529,-2.0822,
12.7986,-1.3385,12.6537,16.6082,-75.0217,-4.2105,10.6305,13.3899,11.7323,17.7938,-2.3653,-11.9882,-24.9552,-3.1623,
7.6921,-3.1867,15.2687,16.0934,-84.6204,-6.8502,7.5823,5.8378,12.9563,15.762,-1.7412,-15.607,-27.314,-1.0441,
10.1226,4.7173,20.1372,19.9486,-90.5099,-6.9211,9.5379,9.8259,17.9635,19.6366,1.7377,-17.0812,-27.1214,-0.49957,
16.7461,4.4343,17.4827,17.7873,-82.1868,-6.9878,6.0731,13.5747,19.2958,21.8328,2.1154,-17.9845,-29.8325,-7.7004,
18.3927,3.9275,16.193,18.4075,-76.5324,-7.2916,-1.7628,10.5912,15.9691,15.9433,0.78342,-14.736,-30.6938,-9.4073,
15.12,5.861,20.2826,22.8467,-81.8229,-6.6132,5.3324,13.5712,17.1802,18.6022,3.3875,-10.2364,-26.683,-0.88916,
13.2489,4.545,19.5476,26.2961,-85.1082,-6.6983,12.2433,15.649,20.4877,24.7169,5.1124,-11.5505,-26.5283,3.0206,
13.6588,3.067,18.6157,25.4413,-80.2427,-6.0554,5.0007,10.1303,20.4637,19.618,6.011,-8.2063,-23.2494,0.18779,
12.8393,2.8835,23.2838,23.4333,-75.9101,-5.6921,2.291,8.5586,20.2002,17.477,6.6147,-3.8576,-19.4438,0.17698,
11.3458,2.4692,21.6456,22.2681,-73.5249,-5.5918,1.9124,8.7682,17.3007,19.5621,-0.28993,-9.1695,-21.4109,1.8534,
12.3523,4.4903,18.6596,20.691,-72.2469,-3.0871,-0.85394,6.5549,16.5037,18.6294,-2.4422,-11.7528,-20.8492,1.0188,
12.3343,4.462,19.2275,18.2445,-72.4911,-3.6246,-5.3818,1.5826,15.7546,17.2704,-2.5364,-11.7708,-20.3214,-0.72932,
11.8352,2.989,20.2426,15.4626,-65.0086,-2.2022,-5.7822,0.28185,12.1578,14.065,-5.9996,-13.2337,-19.343,1.9655,
13.0535,0.88172,17.582,15.4989,-64.9642,-3.5161,-0.13286,1.2295,8.0541,10.3288,-10.4601,-22.0809,-20.1109,-0.080367,
19.5007,6.131,18.9376,22.7637,-74.5642,-5.2334,0.83943,2.1196,9.981,16.9395,-6.4585,-26.0587,-17.458,-2.4861,
18.0899,8.4149,23.3448,24.5316,-76.5976,-6.1244,0.54787,3.1975,15.8898,23.8771,-0.045219,-23.2896,-15.2054,1.2787,
12.9069,4.2944,25.5593,23.3004,-73.6892,-7.4444,8.469,6.1389,21.9261,22.6857,0.68062,-21.1691,-15.4982,3.8533,
14.3019,3.3136,26.1951,22.6255,-75.7756,-8.2028,7.7196,3.1192,20.3698,20.1195,-0.56528,-20.1402,-10.4707,-0.47549,
12.4794,1.1866,28.4798,20.3041,-79.9057,-8.6745,2.4362,-3.3344,19.6295,20.8405,-0.049427,-24.7163,-8.8786,-5.2672,
11.7309,2.0795,30.1452,26.7984,-73.6658,-6.708,6.6281,5.5425,25.2004,24.8925,3.3278,-26.608,-9.7919,-3.0232,
18.74,5.8113,29.783,34.3498,-70.6914,-5.3414,13.4615,14.8511,25.6168,26.7736,3.1283,-24.5289,-10.1685,1.0148,
20.7484,7.1496,31.6112,32.0476,-77.2964,-4.2978,12.895,10.3444,20.9461,23.9617,0.2893,-24.2627,-10.2815,0.71271,
19.0218,8.1667,30.6786,31.0889,-76.0328,-2.112,7.3004,6.3495,18.2433,23.4881,2.6823,-21.3609,-11.5926,-0.77609,
20.773,7.1948,29.3203,33.0799,-68.5783,-1.0209,7.8267,8.8611,20.5232,28.3457,4.4496,-15.7405,-14.7534,1.6806,
19.5264,8.6915,33.3454,32.0592,-67.8383,-1.4418,8.8031,8.3292,19.7739,28.573,-0.6379,-13.35,-10.494,2.0619,
14.9804,9.1339,34.7187,30.1357,-74.3733,-7.1399,7.793,4.455,20.5152,23.4841,-1.564,-18.816,-4.0798,-2.4006,
19.143,7.3808,35.2874,33.8709,-73.5261,-11.291,9.9767,5.3932,25.3101,24.2445,5.0376,-19.374,-4.5581,-0.56907,
17.9944,3.0815,26.9032,28.9466,-72.0071,-8.6854,5.0398,3.6234,19.9351,21.8255,1.8433,-18.2116,-4.2846,-0.53493,
13.2994,1.2094,23.6017,22.1481,-71.3021,-6.959,4.9784,0.7544,21.3906,20.275,1.0093,-17.8418,-0.89406,-2.1901,
8.6452,-3.2017,22.1859,22.2653,-69.9162,-13.2901,-1.1051,-6.0395,20.1069,19.0587,-0.015334,-17.2535,-3.7327,-0.61263,
3.3058,-8.3122,15.5521,17.5553,-72.4697,-13.457,-10.1979,-10.4974,11.1877,15.0227,-2.9065,-13.3257,-5.4369,1.3523,
3.3489,-3.2338,15.8242,16.743,-72.2189,-8.0699,-5.9706,-2.3958,13.168,15.3266,0.4014,-10.839,-3.9059,0.066352,
4.8349,1.5398,23.3107,24.1743,-63.7882,-7.8269,-1.5147,3.2918,18.8856,20.4328,2.0643,-9.4655,-2.9484,-0.66076,
4.0629,-3.3733,20.9477,22.7239,-60.4433,-12.178,-3.3521,-5.1009,17.2701,19.2068,0.4942,-7.9337,-5.6636,2.2709,
10.0857,-3.1709,14.3887,18.4679,-54.4061,-6.1446,-4.1153,-5.2767,14.3057,13.7156,-0.49932,-8.9039,-5.3237,2.1347,
11.4087,-1.5344,13.043,17.3598,-49.6959,-1.4376,-6.2785,-1.1042,13.9293,13.857,-0.95176,-13.6723,-2.1123,-0.88545,
10.4832,-4.0939,21.1784,21.8619,-52.7397,-4.4844,-0.35815,0.16734,21.0477,20.9793,3.6851,-17.9132,-1.2626,3.747,
15.639,0.0088203,24.2463,30.1913,-53.4315,-4.697,4.9662,2.0857,25.0877,25.0235,9.2488,-17.3206,0.74156,4.0043,
19.7619,4.5876,25.9245,33.9235,-47.5745,-1.2822,9.2475,7.0223,28.6437,29.5476,11.8269,-14.1122,3.8306,1.5949,
13.7555,0.45548,26.2973,29.4775,-48.0945,-4.5797,9.6565,4.1903,28.8533,30.1849,10.6353,-13.7474,4.0827,1.9811,
7.8685,-4.1511,23.5141,26.5035,-53.1626,-9.8486,4.0155,-3.051,24.4705,24.7584,8.7919,-14.6098,-1.224,3.5495,
12.2171,-1.9739,24.5139,32.1446,-56.2393,-8.7757,8.5953,3.3991,25.4129,29.5394,8.7464,-13.2513,-5.9708,3.8185,
16.546,1.2778,25.6944,32.3849,-55.5163,-6.5617,10.2489,9.2209,25.5751,31.3827,6.5346,-9.3229,-5.3718,1.4204,
16.5173,1.2014,24.6349,25.6218,-49.7749,-5.6858,5.7778,6.7392,22.5946,23.7153,5.1784,-9.7272,-5.0493,1.335,
17.6954,4.7447,23.8797,27.2175,-43.1735,-1.2473,8.5642,8.504,23.89,25.4255,6.5549,-11.3132,-4.9873,3.906,
16.1513,6.3878,20.0368,27.0302,-45.4038,-5.9932,7.086,6.5475,22.4566,26.3101,6.6436,-11.1163,-1.796,2.7077,
13.495,2.8715,24.8601,23.7217,-50.1509,-15.0336,3.5278,0.61107,21.3502,23.0442,7.9322,-13.5828,5.3016,0.37611,
9.7932,-2.1211,27.2249,25.1909,-55.8185,-15.0955,-1.5041,-3.2815,20.5515,20.2158,4.0823,-19.5163,4.9835,-3.5028,
11.1338,-3.4401,21.2531,23.679,-60.6646,-5.0312,-4.3064,-3.567,18.8361,18.5204,1.9087,-14.9713,-3.0282,1.0456,
13.8403,-0.82354,17.0854,17.9199,-63.2912,4.4297,-5.9762,-5.2812,12.8856,13.0709,2.7585,-7.8061,-4.2928,5.8036,
10.3583,0.43117,18.7118,15.1575,-64.5554,6.8155,-10.6793,-6.1692,8.979,10.5994,-0.058589,-15.2915,0.062114,0.87566,
8.7727,-2.487,19.5171,19.0685,-68.3951,1.5861,-6.1819,-0.97853,17.5995,16.7121,2.3553,-22.087,-3.3158,-0.62291,
8.0056,-2.579,19.0692,27.8066,-76.1013,-5.0168,-0.74955,1.7315,18.7125,19.325,2.9371,-21.9668,-12.0347,-1.3087,
6.32,2.6374,25.8788,29.2717,-73.7048,-2.5466,-0.94554,2.8325,13.9743,20.8166,3.9662,-21.3722,-10.1078,-4.8456,
5.4588,2.4792,25.7723,21.2484,-69.7645,-3.8401,-5.7095,0.25238,16.0284,16.6756,4.2101,-27.3202,-3.2344,-6.483,
11.6388,2.089,19.1643,18.7687,-66.3015,-4.815,-9.4643,-3.3782,16.7539,11.5772,1.306,-30.2608,-1.8355,-4.4068,
9.7356,0.27692,17.7734,18.3654,-63.5287,-2.8388,-10.1017,-5.3447,11.6513,12.5698,-1.9054,-30.1323,-2.4482,-7.7578,
4.3305,1.7059,17.6711,18.2276,-62.6093,-4.1145,-12.8703,-5.5061,13.3621,15.6718,0.13687,-26.8784,1.0729,-6.8107,
4.0709,4.9782,15.1648,17.6161,-61.2631,-4.3498,-12.0979,-3.7297,18.8272,12.8035,1.5751,-18.9989,1.4907,0.34712,
2.3807,2.2696,18.1116,17.5232,-63.8536,-6.0168,-4.6229,0.35066,18.1797,14.9281,0.034607,-14.9662,-3.4193,-1.1197,
2.9609,1.4103,23.0506,22.4976,-62.1917,-8.7891,0.23403,-0.87544,18.294,25.8423,2.6834,-16.7196,-4.4192,-0.81182,
0.6139,-2.29,16.6057,22.3528,-64.486,-14.2875,-2.9137,0.38215,19.8477,25.4968,2.7636,-21.2603,-13.5542,-0.52191,
2.2643,-1.9116,15.8503,23.6628,-61.8221,-9.3329,-3.9437,14.4592,19.8621,21.7978,3.3207,-16.8511,-12.982,-1.6959,
2.8516,-1.0738,15.1405,22.0018,-53.5333,-7.0859,-8.2866,27.6917,14.0908,17.8386,2.3983,-13.1888,-1.8389,-6.1737,
-0.21205,-1.4913,17.1241,20.1997,-53.6958,-11.9629,-10.682,40.1302,13.2454,20.6247,2.2544,-13.3618,-1.7286,-5.3213,
0.76477,2.9367,15.1326,19.9519,-52.402,-8.8348,-13.8972,51.8224,15.343,19.3874,3.5656,-7.2572,-4.9991,0.78279,
1.683,0.35019,8.4403,12.488,-45.4012,-4.4486,-14.0275,62.813,12.012,11.4755,2.8695,-3.4475,-1.8069,2.6642,
1.5822,-0.63492,11.7905,12.7033,-45.0875,-6.5916,-11.7398,70.9751,10.3272,8.8586,0.76939,-4.6867,-0.73437,1.0584,
-0.44089,1.3314,13.9751,17.7252,-47.6849,-10.0529,-15.8561,62.3778,9.2256,8.3271,-2.6517,-1.5134,-0.20837,-2.862,
-4.7532,-5.9794,7.834,11.359,-43.378,-12.3422,-21.1713,53.8144,7.2258,3.971,-4.9027,-2.387,1.2504,-6.5467,
-7.8422,-9.4768,4.4716,8.7495,-40.2927,-11.1196,-22.3113,47.2118,7.2745,3.2506,-4.1264,-8.992,0.6932,-5.1898,
-9.7818,-10.8368,8.0597,12.5629,-44.6241,-11.4162,-18.0801,43.4147,6.838,7.3939,-3.8788,-11.8274,0.65161,-1.5039,
-12.8106,-12.8375,12.6376,12.0503,-43.1517,-15.3108,-15.3083,39.1229,8.5966,4.7813,-3.4049,-15.6968,3.2638,-4.5469,
-13.9701,-11.5853,10.4335,10.8454,-36.7062,-9.5719,-17.7643,34.8473,7.5989,0.15568,-3.2006,-18.6114,5.4781,-6.2023,
-11.6857,-6.5518,9.3251,14.533,-37.8783,-1.2848,-14.2878,34.6847,5.2148,7.8596,-4.4548,-17.0127,0.32919,-1.4919,
-10.7433,-3.9893,11.4169,23.0612,-40.1851,-4.8229,-7.8872,37.665,9.4814,16.7878,0.392,-17.197,-4.2701,1.249,
-13.232,-7.8476,11.4551,21.4363,-38.4971,-10.0769,-8.619,33.2357,12.0458,10.7191,2.5379,-19.2985,-3.2907,-2.4412,
-4.9665,-5.2073,11.4909,17.4988,-32.0897,2.82,-10.7532,28.5903,8.6717,5.4964,-1.712,-14.0434,-4.2984,-1.0896,
1.8394,0.64874,8.1503,16.6899,-28.4771,16.7508,-12.7591,27.1163,5.5003,11.1922,-8.5991,-6.6929,-11.5123,3.5555,
-1.1637,1.0915,6.6968,15.2063,-31.107,16.3482,-11.9938,25.0067,6.1344,13.4129,-7.1191,-8.2197,-11.7861,1.4137,
3.2451,3.4368,11.1159,20.5607,-29.7228,14.4032,-10.3101,24.4708,6.7304,10.6802,0.53912,-3.388,-3.3655,2.293,
4.2553,0.097143,7.7974,17.6398,-30.5905,15.7081,-13.3069,20.351,4.1574,9.7984,-3.591,5.2514,-4.8508,2.8783,
0.14334,-4.2472,3.9553,11.7609,-34.0579,12.8377,-14.4364,16.2377,5.836,12.1028,-7.2317,5.418,-6.4881,0.77768,
1.34,-0.37698,4.4409,9.3681,-31.2911,12.3084,-18.6319,12.1299,2.8347,10.1713,-4.6287,7.2621,1.8549,4.346,
0.29554,-1.8004,2.7284,8.3243,-33.2698,9.1595,-22.3345,9.4742,1.7005,9.0793,-2.4225,5.3803,-2.1126,6.0136,
2.206,-1.6928,1.6004,11.1988,-36.0948,3.7893,-19.5486,3.1211,5.4549,9.498,-4.2058,-1.209,-10.181,1.7964,
4.4838,-0.62693,5.8431,11.0093,-35.3749,5.0082,-16.4471,-11.1661,7.0558,9.4105,-2.0253,-4.5109,-4.2675,-0.23954,
0.84028,-5.892,6.9384,9.8663,-36.1449,1.3332,-16.9065,-24.5962,7.1144,5.4714,-0.45751,-10.9892,-0.63696,-3.1177,
3.4416,-3.851,6.2813,13.8539,-33.2531,-2.8439,-15.169,-37.2204,8.375,5.8663,-1.6351,-12.0168,-2.2862,-5.0996,
5.1633,-2.1741,8.797,12.0588,-32.7037,-0.26314,-12.8126,-49.0872,9.8007,10.335,0.39118,-6.4751,-6.0054,-4.7936,
0.99693,-4.4536,9.2332,9.8892,-32.6699,2.6449,-16.3824,-54.0957,6.3203,11.6429,-2.0426,-2.7124,-8.055,1.2784,
-0.50892,-5.6329,5.3046,9.2956,-35.5302,-3.2986,-19.256,-54.7066,3.5308,9.4983,-4.3304,-6.4062,-7.09,2.6482,
0.72668,-5.5356,3.7812,9.461,-37.9779,-5.2696,-15.9313,-47.3266,8.8623,12.5436,0.026964,-8.6732,-3.5313,-0.16205,
-1.7275,-4.7215,5.9645,9.8572,-34.7354,-1.5794,-20.2781,-43.0412,7.3662,11.309,-0.93898,-4.2964,-0.90932,0.81154,
-4.0338,-5.4024,8.017,10.2303,-36.0255,-3.8945,-20.5074,-41.4223,5.4787,7.7382,-3.2925,-5.9666,-4.2285,3.1732,
0.78779,-3.8731,7.2948,12.7498,-38.4435,-2.4558,-16.6256,-36.7681,10.2114,6.0688,-1.8899,-9.2242,-2.7698,1.7778,
1.4632,-4.3639,4.6881,8.8511,-31.5573,-3.5135,-18.2794,-35.7671,9.3575,4.0172,0.39286,-7.4653,2.4579,-3.3904,
-1.7574,-4.8252,7.5401,8.5612,-27.4945,-7.8822,-14.5313,-35.308,12.8937,7.3919,5.9127,-6.2942,3.0335,-2.4638,
-5.7498,-4.2947,6.8467,8.7709,-29.9424,-8.6146,-19.2031,-37.2869,8.5046,4.7792,0.014301,-12.9064,2.6106,-3.0393,
-7.5737,-7.1703,0.41015,0.77261,-25.9767,-5.9283,-25.5229,-39.6292,-1.8878,-2.9796,-6.9762,-17.1935,5.5872,-7.9184,
-3.5039,-8.4273,-2.2656,0.48528,-17.4282,-4.3673,-21.34,-35.5647,-0.56926,-1.1136,-1.014,-14.4751,8.385,-10.5768,
-2.5707,-9.6089,2.9316,5.5178,-15.6596,-1.9361,-18.8548,-29.333,5.4904,2.5686,2.6622,-8.5449,8.1233,-6.3268,
-3.6218,-10.2372,10.228,6.3916,-19.7813,0.83113,-17.9644,-25.8858,5.8839,1.6916,-0.14858,-4.8987,7.8769,1.5246,
-5.3327,-9.623,2.3835,2.1517,-23.4151,2.2275,-20.2606,-28.189,1.6745,0.62579,-2.0679,-9.9075,9.8144,-0.01265,
-7.1816,-11.6969,-5.2316,-1.5926,-25.6254,-0.55745,-21.6963,-29.149,3.7434,3.2396,-1.7031,-13.4101,9.9487,-4.1095,
-7.2329,-11.4772,1.349,0.43095,-26.9802,-5.8264,-19.9128,-23.5439,6.893,5.9375,-0.15438,-8.2674,6.4594,-2.8988,
-7.0401,-8.6192,2.4732,4.9846,-28.0127,-5.2361,-17.9949,-19.48,10.0951,7.2687,0.57755,-3.6738,4.3844,-1.0379,
-8.5457,-10.0305,1.3607,5.6496,-29.2242,-4.9217,-14.0229,-20.2391,12.8636,8.2786,1.9889,-4.8994,2.6753,-1.4578,
-8.9973,-7.9824,5.1354,5.7926,-26.5067,-8.0009,-18.0018,-19.5072,10.1636,7.7819,2.8339,-6.0517,2.5148,-1.8522,
-7.7341,-7.2625,3.6225,7.1323,-28.0497,-7.7618,-22.9472,-18.0953,9.3128,9.0022,2.9049,-6.8939,0.67669,-2.464,
-6.5471,-9.9602,0.27163,5.4995,-27.5718,-5.1269,-19.4012,-15.8048,8.995,8.2211,3.4539,-6.7212,0.87706,-1.1109,
-10.0107,-9.3622,-4.083,-2.5433,-21.579,-3.855,-23.5398,-19.6767,2.6707,2.9071,3.2467,-4.8717,7.5733,-1.0442,
-10.6153,-5.6674,-6.4896,-4.5598,-21.4893,-2.4188,-23.8146,-15.845,6.1259,3.938,1.3647,-3.8565,8.8062,0.70566,
-7.0861,-5.3276,-7.0643,3.4263,-26.9488,-1.7915,-15.6371,-4.2893,7.2044,5.1477,-2.5738,0.23151,2.0111,2.1093,
-3.5275,-5.2484,-2.0607,6.8362,-21.7165,0.48511,-11.5654,-18.1319,1.7105,6.5261,-0.25025,8.1714,0.20316,3.1881,
-5.9669,-5.175,-0.7322,4.2568,-17.2802,-0.26689,-15.4512,-31.144,1.3669,10.2319,1.9339,6.4758,-3.9064,-0.61908,
-4.645,-1.9719,3.65,9.786,-20.0998,-0.25088,-15.9704,-43.3754,6.1056,11.0642,1.8179,2.7132,-5.1183,-0.099544,
-0.027785,-4.7459,7.2877,9.681,-21.7861,-1.1999,-12.1199,-54.8728,6.7033,6.0618,1.709,2.0683,-0.47261,2.7987,
-3.6415,-7.1123,-0.13901,7.4129,-21.2018,-3.2971,-17.4178,-65.6805,2.6857,5.4572,-3.4547,-3.5994,-0.20329,-1.9485,
-8.7257,-7.1679,-5.4333,9.8602,-21.8582,-5.0275,-18.3014,-75.3575,5.899,8.9861,-1.3197,-8.2042,-4.0475,-3.7602,
-6.9971,-9.8711,-1.9745,7.5816,-20.7879,-5.9313,-15.5163,-67.2208,7.2321,5.7956,3.8209,-7.4707,-1.1533,-0.40136,
-4.6491,-7.3506,-4.2662,0.37779,-12.7919,2.6193,-19.4056,-63.1876,0.049238,1.5915,-0.74664,-5.5767,2.7723,3.4791,
-7.5034,-1.8481,-7.1435,1.5602,-15.6396,9.4522,-18,-58.1913,1.2513,5.5936,-4.7994,-0.66211,-1.4916,5.4397,
-8.0173,-3.6652,-1.4124,9.6615,-25.7884,2.6183,-17.8841,-52.7714,3.1047,8.6322,-5.4756,-0.62261,-3.3301,-2.1172,
-0.064203,-8.5068,3.7342,10.2873,-14.8409,-3.5641,-18.9805,-47.4357,4.6059,7.3911,-4.4239,-11.9132,-3.8534,-7.0517,
5.724,-3.1759,5.4381,8.706,0.14954,0.50591,-8.6824,-41.6973,10.5958,7.4298,-1.2662,-14.5729,-5.0683,3.0122,
-0.16328,0.14794,3.9068,9.3882,2.189,-1.6938,-6.4744,-43.7754,6.3449,6.2609,-2.8772,-4.2985,-7.4159,3.5546,
-2.081,-3.2352,5.1189,11.2358,4.9504,-11.7149,-10.9064,-39.7024,3.0719,10.7057,-0.29421,-2.5941,-7.4527,-4.3712,
-1.2332,-6.1745,3.6064,10.8026,5.3763,-17.5199,-13.3855,-32.2586,4.5748,8.8581,0.92828,-10.8748,-5.8002,-6.7605,
-1.4004,-3.6347,4.1132,11.8414,-0.97182,-10.9249,-8.9668,-30.0823,6.9516,8.0859,-3.7065,-6.1247,-5.2115,-0.81105,
-2.0393,-1.7298,6.5175,9.9257,-0.67278,-5.2082,-7.2239,-31.4104,4.3649,10.2518,-6.6176,-5.9985,-8.5142,-1.9677,
0.011015,-0.18001,4.6804,6.4378,5.1522,-6.3417,-12.5753,-30.9723,0.72879,6.7444,-0.43617,-8.5308,-4.1467,-10.0446,
0.25155,-2.8201,1.2663,2.4364,0.26375,-9.0945,-15.436,-29.3547,4.3007,3.2065,2.2413,-3.9214,-0.76468,-9.2007,
-4.8255,-3.8564,-1.4614,3.0129,-6.26,-8.3081,-15.7149,-26.8707,3.3191,4.2192,-6.3291,-3.4454,-1.9239,-3.1053,
-7.428,-4.1069,-2.3376,4.2783,-4.9201,-6.3633,-19.5927,-27.6686,-5.0748,2.0378,-6.9132,-7.577,0.11976,-5.8115,
-1.9206,-6.0297,2.8643,3.7807,-1.0095,-8.6326,-14.3193,-27.6957,-4.0469,1.1927,1.4553,-11.2197,0.83547,-7.1495,
-1.3235,-5.6679,2.6925,0.66177,-0.94912,-9.5609,-14.9064,-27.4802,-1.394,1.603,-1.5245,-10.5468,0.30341,-2.8646,
-9.439,-8.7021,-3.2539,-7.0909,-4.2664,-5.613,-23.6532,-27.7594,-6.1308,-1.3854,-8.1817,-10.3959,4.6238,-5.1027,
-9.8365,-7.698,-1.6124,-4.2554,-3.5283,0.99072,-20.3058,-25.6119,-5.281,0.62588,-4.7983,-5.9158,3.382,-3.3502,
-5.3902,-3.8614,0.41276,1.7848,-3.3166,0.93105,-15.7128,-24.5569,-1.5895,4.4449,-3.0644,-4.1145,-0.67707,-0.25694,
-6.7538,-5.3172,2.075,2.4008,-6.7332,-4.6687,-15.9756,-23.8066,0.19287,3.9371,-0.22917,-15.678,1.0505,-4.821,
-7.0717,-4.757,0.74543,3.9438,-4.1598,-2.7011,-14.7758,-19.7269,1.8683,0.085179,-0.45661,-24.1373,1.7106,-8.1474,
-1.104,0.58989,0.45951,7.8047,-2.2232,6.8608,-5.9358,-12.036,7.2996,2.2495,-2.1162,-13.2891,-1.5252,-1.6328,
0.16756,2.7237,5.0112,9.9875,-11.0077,7.1725,-3.8924,-12.0367,10.477,10.0682,0.17992,-9.3585,-7.4597,0.63433,
-0.083463,2.8012,3.9877,11.5579,-10.5882,1.6804,-9.6839,-14.93,7.1973,8.7412,-1.5181,-19.1609,-8.6989,-1.5729,
2.3319,1.669,2.3024,11.8285,-3.204,3.508,-4.7648,-8.2494,7.7296,5.3245,-2.873,-18.0112,-7.2129,-2.4426,
4.12,1.5691,3.6102,9.1904,-8.3146,4.7436,-6.8893,-5.8264,5.8198,5.0048,-3.1828,-7.2896,-10.6367,-5.6703,
4.1137,2.1979,1.2245,5.5055,-17.6977,1.8074,-14.9116,-11.9843,2.819,3.9816,-6.1253,-4.683,-13.132,-6.0534,
1.6977,-0.10315,0.91004,10.2368,-19.7691,-0.95212,-13.294,-10.5424,10.1217,10.2502,-2.1424,-2.2329,-6.3181,-4.9669,
-0.091123,0.62616,4.4706,14.6841,-18.8241,-2.5822,-7.9168,-5.3303,15.5402,14.2147,4.9762,3.9269,-2.3238,-2.0175,
1.3604,0.10643,2.7564,8.0187,-21.0689,-1.9451,-11.298,-7.9028,9.7873,8.0594,0.33912,2.7271,-9.415,0.51388,
2.725,-1.3462,0.66278,3.6807,-18.8407,3.9559,-17.369,-7.4286,3.4155,5.1657,-4.9839,-0.81093,-10.2964,0.48259,
-0.57198,-0.54254,5.2023,9.0035,-15.5411,7.334,-13.6758,-1.4393,6.3436,7.0249,4.2328,2.371,-0.76051,3.1047,
-3.6709,1.1775,1.275,10.6327,-18.2238,5.207,-10.2035,-3.0399,8.1328,4.9164,5.6663,6.3265,2.4184,4.6059,
-1.5225,2.5531,-4.1042,8.5484,-16.6484,6.8227,-15.8582,-2.8575,6.1981,3.6571,0.023634,11.7313,0.34508,3.8476,
-0.46725,-0.49262,0.48086,7.0717,-10.3469,6.8953,-18.2812,0.68838,6.3086,7.776,4.361,10.5455,-1.1219,4.5811,
-1.4031,-1.4269,3.3445,10.9861,-10.208,3.1076,-15.7376,2.0933,4.9662,3.9354,5.5456,-0.69231,-2.0184,5.2701,
-1.5599,1.7917,-1.9178,15.8701,-16.1035,-0.21235,-14.0704,1.2444,-0.39343,1.0478,-2.2589,-5.7125,-3.1026,5.1948,
-3.1535,0.47937,-0.11553,14.195,-15.3782,-0.44058,-15.8778,-0.99945,-0.12885,5.0823,-0.91858,-2.2362,-4.6037,6.5704,
-5.3744,1.4145,1.8191,13.8253,-5.7787,1.996,-16.8533,0.024387,1.8071,7.1874,7.8136,-2.1023,0.01085,8.5863,
-5.052,1.3296,-0.70014,13.4777,-5.4319,3.3225,-14.3958,4.3617,1.6986,6.2743,5.4166,-4.3863,-3.3638,8.0711,
-2.0977,0.04454,0.54717,12.91,-8.7214,1.9178,-13.7731,5.3048,2.3196,4.2106,-4.7908,-5.8103,-12.08,4.9357,
-1.2487,-0.68126,4.1295,13.3404,-2.6548,1.5616,-11.2597,2.3352,4.3498,5.6449,-0.88767,-1.3643,-1.4735,3.9165,
-5.0304,-3.0503,1.4714,13.0222,-2.0131,-0.94201,-3.8354,1.7134,5.5349,5.7889,5.4323,-2.2464,6.8103,4.1636,
-3.2824,0.50696,3.7937,19.9536,-3.8205,-3.2958,-3.6053,6.9128,9.5416,7.3697,5.5883,-5.9682,3.5091,5.842,
-2.1212,-1.4515,8.3867,20.203,-5.5196,-7.4365,-6.7631,7.4622,12.8253,12.712,4.771,-3.6818,-1.5218,4.5273,
-1.2709,-1.1234,10.0523,21.642,-5.4295,-1.9288,0.1503,8.7018,15.189,16.5287,5.2077,2.5648,-2.1537,3.5326,
1.4567,0.1491,4.3877,19.6204,-8.237,5.6588,-5.4021,6.0103,8.7342,9.0293,-2.0944,-5.0609,-8.05,0.66936,
4.9847,-2.9933,-0.93724,7.5969,-15.2148,7.0062,-16.8886,0.1061,-1.1903,-1.3944,-9.9227,-16.0857,-13.5928,-2.9862,
9.2651,-1.1263,-4.9781,4.0078,-14.5426,10.2015,-19.0085,-2.0697,-5.6979,-1.552,-11.0145,-8.6126,-9.644,-3.5302,
5.8167,-2.9869,-8.5358,3.2854,-16.0802,10.5533,-20.2781,-5.3195,-5.356,-2.4227,-9.8715,-3.7573,-9.0649,-7.6567,
7.6371,-2.5669,2.3404,4.7753,-17.767,10.1613,-20.267,-1.867,-0.45516,-2.5185,-5.664,-7.6297,-8.2805,-6.4742,
8.8661,-1.6896,2.441,1.8372,-11.6393,9.7926,-20.7377,-2.9603,-2.1151,-2.6084,-6.5292,-4.0384,-6.0962,-2.4703,
1.8264,-2.3113,-7.1057,0.52193,-13.5922,8.4819,-19.2527,-7.3622,-4.1576,-1.2468,-8.3067,0.78342,-8.3818,-4.0095,
-0.21137,0.23748,-4.2693,6.7576,-20.0075,9.9012,-19.0614,-4.5103,-2.9438,0.75618,-6.8442,0.73641,-9.3251,-1.3588,
2.4526,-0.49944,1.0488,4.1827,-16.6377,9.5483,-16.7127,-0.62408,-3.4903,-4.3506,-3.782,-0.99477,-6.5962,2.3383,
5.4387,1.6995,7.4936,6.1012,-11.0601,7.2879,-10.6485,3.9929,1.7806,-3.8484,1.9883,1.2341,-3.0672,1.9569,
3.6664,0.15146,1.7416,2.8428,-10.8785,3.9584,-15.7939,-3.4773,-1.7005,-1.2076,-4.3977,1.16,-4.8111,-2.0167,
2.4821,-6.6065,-6.0757,-6.4868,-8.2973,2.2751,-20.1489,-10.0176,-7.383,-1.6171,-7.0257,4.4649,1.2621,0.03248,
3.056,-6.4511,-5.9526,-6.8209,-6.1127,1.8971,-21.5915,-5.3192,-8.6273,-7.0637,-2.9892,10.7045,9.1401,-0.2109,
2.6319,-1.0026,-1.0159,-3.2784,-3.5766,4.4346,-18.6086,-0.90243,-5.4583,-5.9167,-0.64043,10.3032,7.8686,-4.7773,
0.54584,-0.94243,-0.47257,-2.5993,-4.3261,1.2765,-12.6718,-5.1866,-3.2026,0.70479,-3.4945,2.4544,2.0938,-6.9008,
-3.3433,-5.2242,-1.8905,-3.4077,-3.1024,-0.72829,-17.6961,-5.3578,-6.8668,0.66251,-5.213,4.7172,5.8246,-4.559,
-3.6249,-5.8753,0.63285,-5.1317,-0.50614,1.7253,-20.009,0.74848,-5.0088,-3.2339,-2.008,9.7366,5.9573,-2.357,
4.0647,2.4316,2.7647,2.1663,5.5502,1.3811,-10.854,1.9086,1.7994,-1.8343,4.1383,3.6093,2.9485,-0.52816,
-0.035833,-0.60701,1.1524,2.5185,5.217,-4.4866,-13.0955,-5.9189,-2.1652,-3.1703,2.9259,-6.7306,4.2176,-7.7275,
-2.685,-2.2576,3.2521,-1.7302,7.0731,-0.60177,-16.4069,-6.7688,-5.1685,-4.6675,-2.3111,-4.1576,5.652,-10.3971,
2.0556,1.4935,4.2625,-2.3495,12.6745,7.8702,-16.1456,-2.2651,-2.2071,-1.7361,-2.4136,5.9742,1.6973,-2.7837,
2.1732,-0.28378,4.7297,0.92497,13.601,4.2645,-11.0796,-0.92437,0.094518,1.5015,0.38227,7.3025,-2.5019,0.51683,
0.59659,1.1795,3.964,4.7259,17.1235,2.0805,-8.9685,1.5417,-1.8393,-0.034839,-1.0865,3.9723,1.0226,-0.96044,
-0.16188,3.2781,1.5567,3.2372,17.3014,7.0171,-12.528,2.6542,-2.4517,-1.7197,-2.7083,4.9393,0.72009,1.2666,
-1.5987,-0.77518,-1.429,0.63265,12.4067,6.5963,-11.2941,-0.3973,-0.85853,-1.1349,-0.61782,4.6427,-3.6617,1.1904,
3.5587,1.9227,-1.102,3.7279,19.6163,5.4774,-10.8577,2.2779,-3.4583,-0.82557,1.5882,5.5692,0.65562,0.87774,
7.684,2.7716,-1.5178,1.5761,26.6342,6.1131,-12.6164,4.0694,-6.6253,-2.2223,-0.91723,10.5377,3.5088,4.2,
0.23306,-0.046227,-3.1144,-4.0621,20.9384,6.4687,-15.9567,-0.75453,-7.915,-2.8119,-3.5138,18.8233,-1.7634,5.1528,
-6.7708,1.1618,-5.5787,-5.0232,14.1389,6.804,-18.6147,-0.46783,-7.6811,-2.8841,-2.5796,26.13,-6.7193,7.9771,
-7.5696,-2.5231,-4.5208,-4.963,11.6034,-0.11198,-14.8465,2.6935,-4.0869,-3.9161,0.70846,19.5007,-9.9313,8.7036,
-4.4641,-5.5049,-3.0445,0.87815,15.0045,-7.5768,-9.8582,3.737,-3.6005,-1.0298,0.90715,14.2331,-6.2022,5.53,
-2.0269,-3.0057,-4.0669,4.923,18.2018,-5.4352,-7.0977,3.272,-3.1438,1.6833,0.12959,13.1382,-2.6968,3.0288,
-3.5927,-3.0661,-2.1354,5.8327,15.9044,-2.9397,-6.4307,5.2446,1.6244,-0.58711,2.2912,6.8063,-7.5964,4.5346,
-5.5463,-5.0518,-2.2487,4.7599,14.227,-5.4149,-7.2501,8.5454,-1.6066,-0.31092,1.4304,4.7107,-10.2741,6.4317,
-4.7314,-5.2306,-0.66732,4.474,19.1582,-7.018,-2.4766,8.9967,-4.402,3.5644,-0.10148,3.4639,-7.7293,5.5636,
-5.1706,-3.2295,-0.38608,5.8931,27.8907,-8.7661,-4.015,3.3955,-2.4509,-0.26516,1.1101,1.5691,-5.5781,5.9529,
-9.1987,-4.9639,-5.6656,0.23683,28.1454,-2.9377,-12.4512,1.7455,-5.1959,-6.0338,0.56113,9.6696,-4.2795,9.9341,
-7.4417,-5.3892,-10.3875,-4.3569,23.3232,11.3386,-15.8017,6.7022,-11.3923,-8.3231,-7.9084,13.669,-7.1564,8.6149,
-3.8617,-0.48614,-12.4154,-4.8184,18.7905,20.6607,-16.0584,6.541,-10.9497,-10.9572,-12.0132,2.0026,-15.1627,3.0368,
-6.0404,-0.4572,-9.2601,-5.9758,6.5759,21.3495,-12.2026,6.1488,-5.4723,-7.8894,-6.4719,-7.2766,-21.9657,1.8905,
-5.9192,-1.6348,-9.4276,-6.3399,-4.1825,28.9863,-13.1579,9.3951,-9.2411,-7.1749,-10.1812,-0.3323,-22.817,1.5358,
0.22057,2.3196,-10.3082,-4.9956,-3.9316,36.8881,-15.2605,11.7239,-10.1329,-10.1188,-12.4624,4.0262,-21.9301,3.3719,
-4.8541,-1.9167,-11.3767,-9.2754,-4.4188,31.0596,-15.068,7.4053,-10.248,-14.0912,-13.4021,-4.1691,-26.1577,5.8209,
-6.732,-1.5611,-6.1148,-4.1391,0.42583,28.4727,-3.7996,14.4323,-7.464,-6.2559,-8.5006,4.0348,-18.5627,7.6408,
-5.364,-1.4673,-8.1583,-0.51657,0.40028,22.4263,-2.1256,17.9049,-6.052,-4.4345,-6.0622,8.1315,-14.5566,1.8799,
-2.6318,4.4056,-8.1505,-0.48581,2.3045,23.4906,-9.2291,17.7947,-7.1349,-6.5788,-2.8061,6.679,-12.2372,2.2493,
-4.4021,2.695,-6.2157,-7.2051,6.5045,25.4556,-9.6393,14.7988,-11.5276,-10.0404,-2.1558,7.7245,-13.4309,6.4527,
-5.8252,-2.5284,-7.0476,-8.942,16.4783,20.7952,-5.9274,14.1519,-9.1487,-8.7147,1.5889,9.9122,-10.4559,10.1629,
-4.9938,-0.93042,-11.4454,-4.5491,19.8282,20.5114,-8.4643,18.1235,-7.6354,-5.7816,2.4579,8.8355,-6.4541,9.0712,
-3.73,-1.8391,-10.277,-4.2763,13.8178,24.1012,-10.8492,22.8204,-9.5877,-6.3993,-6.3669,10.2333,-14.2623,8.5267,
-3.9882,-1.2464,-7.7317,-1.6096,18.2914,25.0652,-8.7515,25.79,-8.5305,-3.1224,-6.9487,19.7427,-12.4422,12.8358,
-8.0876,-1.1716,-6.304,-2.4769,23.4606,22.1155,-3.8881,23.2782,-8.0186,-2.4531,0.21663,20.4863,-3.5005,13.0295,
-9.5304,-3.9936,-4.4792,-1.8461,19.6426,16.45,-1.2445,25.2558,-5.6091,-4.2343,2.614,12.9904,-8.1109,10.3198,
-9.9229,-8.0928,-9.0312,3.5668,17.9819,12.0886,-1.6522,27.1149,-1.8986,-2.534,-2.3636,9.3185,-13.4093,10.1825,
-14.3887,-12.1865,-10.1765,2.148,19.5543,8.2298,0.13418,23.3188,1.3488,-0.69474,-3.9085,7.5545,-8.5072,11.2588,
-18.5873,-13.1423,-5.4684,-2.0785,16.2119,6.5309,-2.5252,25.053,-1.8653,-4.7506,-1.5051,-0.37079,-7.2739,7.45,
-13.6154,-7.5333,-4.1762,0.93851,22.47,12.8878,-1.4091,34.1548,-4.1638,-4.4654,2.9238,-7.097,-13.1039,7.4852,
-9.4238,-6.1172,-4.8897,2.8106,28.8348,12.5967,4.9422,34.034,-2.9499,-4.1977,2.2666,-12.9377,-25.3329,5.59,
-7.1714,-2.6169,-3.3913,3.3651,38.4327,12.564,3.4401,33.197,-2.5317,-5.1509,1.8895,-5.6539,-22.6079,6.4597,
-5.2951,0.91434,-4.1519,-0.21148,50.1063,19.5227,2.2696,38.9177,-2.8619,-3.8777,3.2221,5.7725,-10.1644,9.4459,
-0.88026,3.0289,-5.1078,-0.92192,50.2331,22.9308,6.7129,41.6446,-3.4133,-2.44,-0.58686,6.6312,-10.2777,8.1564,
0.86001,5.4985,-1.6681,3.231,45.0502,22.7605,9.9258,42.2792,-4.8955,-3.4987,-0.30999,9.3671,-6.5273,6.462,
-1.8431,7.8196,4.4575,7.6164,46.4446,22.5997,13.9096,46.7318,-2.4327,-3.5297,7.18,18.6865,5.1923,9.2073,
-4.3832,6.1456,0.092728,5.9546,48.7196,17.6288,8.4957,45.1337,-2.5277,-3.077,3.1342,13.4684,3.6759,6.0038,
-2.9154,-0.73105,-4.9745,2.4638,43.1448,7.1711,5.8168,41.2203,-2.135,-1.6871,0.29459,0.84974,-1.6063,0.58232,
-3.4633,-2.3744,-2.0245,2.557,35.0125,3.6073,10.529,39.952,-2.2479,-2.7911,3.4104,-1.3704,-1.7511,1.2703,
-5.4249,2.3476,-2.1442,2.1624,35.5631,9.8981,8.2098,39.7242,-1.3899,-3.3468,2.9646,3.7733,-1.8872,3.8449,
-3.4122,2.4481,-6.1129,0.82778,41.8655,12.4377,5.0661,40.9562,-0.10121,0.46944,5.4378,3.7878,2.806,2.8913,
-1.7617,-0.59127,-4.3003,-2.5963,42.2456,6.3888,0.42384,38.9808,-4.9158,-0.52305,7.5217,2.5962,10.8319,-0.6566,
-4.0661,-1.0377,0.29646,-9.189,37.7827,4.0777,0.8808,33.7499,-2.6927,-4.3476,4.1783,8.2255,8.7362,-0.61674,
-8.1602,-1.4576,-4.0599,-9.1198,35.9979,3.8328,2.274,32.207,-0.60272,-6.0152,1.5177,13.5168,6.284,1.3482,
-5.9841,-3.5396,-5.0214,-3.5112,39.3814,3.8436,-2.4424,35.8175,-6.1104,-7.3417,2.6312,11.5003,11.9323,2.4724,
-7.0708,-4.7734,-0.38175,-3.7825,36.5366,3.1311,-3.7417,35.5971,-7.672,-6.9012,3.4377,10.8102,7.36,0.87779,
-10.9851,-0.63042,-4.215,-0.66322,33.3803,8.2456,-2.5531,32.0148,-5.7656,-6.4869,3.7136,14.9821,0.65163,5.6456,
-6.2284,3.9869,-5.6496,7.8125,42.7054,13.7767,-1.1948,37.084,-3.7322,-1.5182,7.5879,18.6627,11.459,13.7428,
-7.0598,-0.34988,-4.5875,7.1025,41.8305,5.9604,-3.7745,35.1002,-4.2314,-1.6683,4.4818,11.5176,13.9047,4.0004,
-10.9748,-2.2568,-5.2763,4.266,34.9822,-0.18202,-8.3685,25.7631,-3.0134,-7.3525,3.2483,7.4519,7.2856,-0.5782,
-11.5213,-4.2908,-5.2005,5.6975,31.6782,4.8908,-6.6613,21.0841,-2.5919,-5.7063,5.2228,12.0662,7.0897,8.8567,
-9.866,-2.5873,-2.9605,9.2118,31.2235,9.4178,-6.7438,21.265,-4.3643,-1.5078,1.5352,16.6451,9.5566,10.2533,
-6.8639,4.3168,-2.3009,9.6234,38.9911,9.3347,-8.7493,19.0253,-4.5844,-5.2737,2.407,16.6103,10.9114,4.8178,
-6.452,5.5036,-4.573,7.1178,40.9899,7.8103,-5.3323,16.9194,-1.8992,-4.4753,7.5652,10.793,11.2206,6.9389,
-6.0647,3.2454,-5.7446,8.6187,38.5308,8.3062,-4.5302,14.4582,-0.33924,-0.35021,5.6652,11.5919,12.9577,9.4148,
-7.388,2.3278,-4.6771,9.7888,38.8705,9.0127,-3.535,9.9753,-1.0418,-4.4265,4.12,15.958,10.493,4.7526,
-7.1859,2.9113,-8.4936,8.4784,38.7072,11.1233,-3.5641,9.1356,0.70771,-6.3299,4.596,14.2774,6.7302,2.7804,
-4.8266,3.7004,-13.287,6.0415,34.9385,7.5633,-4.7965,8.1055,2.1115,-2.5761,4.8021,11.9745,6.3264,5.9876,
-2.85,3.7196,-5.4997,10.2585,30.1908,-4.2184,-2.3393,6.4141,1.2617,-0.25215,5.7191,4.7483,4.2598,1.5308,
0.21328,5.4244,-2.7594,14.4635,26.9334,-2.5193,-0.75295,3.137,-1.2244,1.6909,3.448,8.802,-2.2625,-1.4534,
-2.4504,-0.92638,-13.9218,3.232,22.6665,0.76559,-3.8406,-6.9329,-4.2842,-1.5433,-3.7486,16.7098,-7.1882,-1.1245,
-2.5446,-4.0045,-12.3638,-1.5419,24.4398,-6.7524,-4.3337,-7.2405,-1.3758,-4.1025,-3.2829,13.0559,0.71463,-1.7806,
-4.561,-2.077,-8.0066,1.6841,21.7681,-7.0706,-1.9045,-1.7444,0.87592,-0.24092,0.047558,10.1033,4.7691,-2.8791,
-7.6618,-4.8445,-12.3469,-0.34511,16.6056,-2.3076,-3.2361,-6.4605,-0.6229,-0.22647,2.9372,10.9434,-0.33729,-2.2239,
0.26992,-2.8668,-7.9904,1.3631,24.0452,-1.446,-3.765,-8.2418,-0.34433,-6.2382,8.3044,10.0456,7.6369,1.5251,
2.9046,-1.9717,-1.0033,3.4502,28.1459,-5.9388,3.4505,-3.6501,0.8814,-6.1051,8.0473,4.3814,10.7939,4.0845,
0.80258,1.5211,-0.94308,5.1714,31.7597,-3.6542,9.5105,-1.5025,0.82851,-3.8106,8.0464,2.1903,10.6282,4.3218,
2.4412,5.0453,-1.1275,5.1021,36.844,0.18044,8.2165,-0.2075,1.0198,-6.7155,10.6971,0.37169,15.0522,1.8929,
-4.2128,-2.7293,-2.747,1.1805,29.0898,-3.9277,8.9288,-1.8823,2.6458,-6.0716,8.3681,-0.37397,5.7129,-0.38984,
-8.7807,-4.0118,-2.5822,-0.33611,28.3083,-2.7282,7.4287,-6.5896,0.55887,-1.8504,2.5633,7.8436,-1.3783,1.5617,
-2.9512,0.56725,1.911,-3.2085,40.7098,0.32754,7.4649,-7.6405,-1.8848,-1.7399,1.9271,7.855,7.381,2.4324,
-0.60522,3.1845,0.59131,-3.2571,44.1722,-0.89717,10.1503,-3.0849,-0.56664,-0.91233,5.9091,5.6962,15.856,3.0091,
-5.6299,1.7884,-6.4338,-0.40994,43.2094,-4.4585,10.7468,-3.1406,0.67242,-1.5803,7.7239,6.5599,11.7718,3.0702,
-4.0873,-2.4163,-5.8068,4.6759,45.1965,-4.432,16.6095,-7.5314,2.3193,-3.1727,7.9839,4.4791,-3.0345,2.6446,
-1.4314,-3.2351,-4.0121,6.3235,44.8949,-4.1661,18.0235,-10.9359,1.6982,-1.0541,8.9506,4.6923,-16.9524,2.4859,
-7.3716,-4.7283,-3.0485,-0.081438,41.4778,-9.9417,12.3623,-13.4133,-0.57284,-2.1962,10.5827,1.2777,-14.2485,0.16758,
-5.9649,-2.9988,1.9551,-0.076552,40.4354,-7.8989,11.1387,-11.6446,-1.0209,-7.367,7.5377,-1.6914,-6.1627,-3.6989,
3.0701,2.0019,1.3554,2.3382,46.6864,1.7341,15.773,-9.9816,-2.4054,-3.0686,6.6035,8.5329,2.8841,-0.58441,
0.71669,-2.2156,-2.8233,-3.8277,48.4645,-6.3242,16.0314,-13.962,-4.9126,1.6952,8.3764,10.6725,8.7366,0.65549,
3.0836,-0.15469,0.72035,-5.5264,53.2696,-7.8731,12.1773,-12.6426,-4.1357,-1.2992,8.356,9.55,14.9611,3.0265,
4.8268,1.3008,-3.6612,-10.0151,49.5915,1.7587,7.1083,-14.7761,-7.744,-6.5235,3.5163,12.3515,15.9916,-0.047137,
1.4039,0.017733,-3.6827,-8.2091,43.9642,-3.4087,12.2252,-16.5413,-7.5205,-3.9631,6.4381,7.5128,19.1297,-1.7318,
-2.2955,-3.5985,0.15389,-7.4754,43.0138,-17.3042,14.143,-17.2358,-8.7563,-7.8225,7.2574,-0.40955,26.4178,-5.7254,
-4.327,-9.4086,-1.5426,-15.9449,38.7458,-20.4838,6.305,-20.299,-11.8463,-14.8249,-0.64988,6.1225,27.0019,-9.9612,
-9.37,-11.7362,-10.1267,-24.1473,37.3854,-17.3265,-6.1248,-28.2396,-18.3664,-19.72,-7.3598,7.2014,26.8281,-10.8098,
-10.254,-11.9963,-10.4834,-24.6266,42.855,-17.7332,-4.3111,-30.4021,-20.1565,-19.9831,-2.0975,4.3592,31.9668,-7.7511,
-6.9877,-12.4818,-7.2033,-23.39,37.6322,-16.9102,1.9731,-26.4088,-16.296,-16.133,-0.76681,6.7487,26.4334,-8.4908,
-2.953,-10.5276,-11.3504,-19.3355,37.0615,-12.7621,-2.7246,-22.6547,-15.0773,-15.406,-5.3001,4.6566,23.1606,-7.7404,
1.0808,-10.8601,-12.5973,-19.139,44.479,-14.8887,-1.597,-22.7414,-13.6905,-18.8197,-3.0537,3.4131,28.5197,-5.83,
-1.3944,-10.6902,-7.021,-20.8834,37.9536,-18.3339,8.1396,-24.2697,-10.9406,-13.8344,1.95,13.3314,29.7008,-3.0698,
-6.8544,-12.7003,-9.2513,-19.8714,32.061,-17.9567,7.8922,-24.0188,-13.9001,-10.3532,-2.7467,10.3624,20.9289,-2.1627,
2.4745,-10.2511,-12.3116,-17.4743,44.2373,-9.408,6.2133,-19.4442,-13.307,-15.2756,-4.7511,0.34065,19.9141,-4.2021,
5.2188,-7.708,-12.0551,-22.6921,53.2727,-1.1305,1.9844,-21.1698,-17.811,-19.6615,-2.538,5.1407,28.8424,-8.7705,
-8.5919,-12.066,-13.7421,-32.9,35.9764,-1.5448,-3.9195,-29.0584,-25.9016,-18.4821,-8.1701,5.7964,21.327,-9.2083,
-3.0147,-7.2443,-11.2299,-24.418,19.7178,5.5377,0.41349,-21.7713,-18.8034,-14.2396,-9.8491,0.38689,13.5399,-3.5942,
8.0124,-1.266,-4.0487,-11.6247,32.6347,11.7134,10.2706,-10.1012,-8.7576,-9.2875,-0.34005,-0.84116,21.1632,-2.1737,
1.9878,-5.7696,0.29185,-12.1323,30.0744,6.913,11.8238,-8.772,-7.991,-5.115,5.2237,-1.5138,23.0271,-1.3201,
-0.54181,-6.3875,-4.5461,-12.8509,19.1112,2.1597,5.3295,-9.2098,-9.4395,-6.2541,0.57176,-2.3871,16.3426,-0.27683,
7.6859,-5.5223,-5.2377,-7.2591,29.0513,2.5125,11.2767,-4.8008,-3.5709,-7.3252,0.055524,0.16627,15.3621,-2.6703,
7.4657,-9.2883,-0.82609,-1.2799,34.78,5.0128,17.1076,-1.8612,-3.5976,-8.0909,1.257,1.8435,14.6813,-4.1974,
4.1257,-11.1411,-6.0787,-5.0595,32.2113,6.6403,10.7785,-3.6777,-10.6122,-7.1231,-3.6386,1.7329,11.8727,-3.9455,
8.2165,-9.5088,-8.6065,-4.756,32.2068,6.2418,14.9525,-4.4214,-7.5653,-2.8393,-0.52781,3.0752,16.4625,-5.155,
3.6257,-13.518,-10.2597,-1.3376,22.3206,5.144,14.2963,-6.3252,-11.2092,-6.2848,-0.73757,5.0598,12.8237,-7.0149,
-6.4738,-19.6964,-17.1155,-6.3185,6.8814,3.1486,6.9306,-5.2228,-18.9723,-10.969,-7.6827,4.5153,0.24367,-6.353,
4.0377,-10.3201,-8.376,-0.15508,12.6145,-0.41503,15.674,3.7674,-8.6752,-2.5983,0.0088468,1.834,9.3883,-3.5615,
12.4723,-6.3262,0.32147,4.1928,25.9577,-4.2463,20.036,3.0597,-3.8161,-1.4778,1.9367,2.6881,16.0556,-5.7582,
0.87798,-18.2389,-8.1337,-5.941,18.254,-4.7146,7.5054,-5.5598,-13.9512,-8.8612,-7.5797,7.5882,0.99229,-9.0279,
-3.5133,-17.6268,-15.3582,-10.405,9.4462,-0.57514,-2.1037,-3.7802,-18.4166,-9.7756,-8.089,9.5433,-4.0082,-7.5221,
0.071998,-14.1586,-9.1341,-10.7446,14.182,-2.4688,1.397,-4.0353,-17.7935,-9.671,-8.0856,5.5962,5.8737,-7.0708,
-3.5477,-16.4425,-2.5605,-11.7871,19.3567,-5.4542,4.4466,-7.8906,-17.4493,-11.7423,-9.7696,6.4658,8.6543,-7.8518,
-5.7452,-13.0456,-4.3353,-11.0801,19.1594,0.65742,2.2514,-5.0072,-17.3664,-11.5199,-7.2555,4.6313,4.2784,-5.9342,
-1.3032,-9.6118,-4.3161,-7.2818,22.5891,7.1259,9.5881,3.2469,-12.709,-8.6595,-4.651,-0.70777,4.7451,-0.51695,
-2.9122,-12.1686,-7.1907,-8.0502,28.7056,4.5287,12.1459,0.88297,-12.6698,-10.791,-8.9512,-0.42434,11.9317,-0.7269,
-4.9069,-14.5717,-7.9643,-9.7366,27.224,0.64182,5.3918,-4.7134,-14.0786,-10.3848,-10.1016,0.80618,12.9033,-1.8883,
0.44923,-11.5283,-0.014625,-3.6088,22.4575,6.6289,6.2731,2.0769,-10.5828,-5.6643,-8.2902,-3.3395,4.6573,2.3223,
3.3146,-6.9799,3.8429,-1.9458,25.4486,14.4261,10.7177,5.8089,-6.0912,-2.4317,-5.8648,-3.1394,5.8239,2.1832,
7.4545,-7.0435,2.648,-3.2753,35.0089,10.186,16.8231,2.5678,0.058872,2.5344,3.6461,-0.058515,17.0436,-0.84031,
14.9609,-7.8258,3.6944,1.501,38.452,2.5855,20.8754,0.727,3.1888,5.9978,6.5608,-4.1524,17.7087,-1.0309,
13.8223,-7.1152,4.678,1.6519,33.0114,8.4559,20.8281,0.44242,3.7204,2.9868,2.0698,-9.4468,9.1743,-0.72804,
10.3417,-4.5189,5.1205,2.7579,32.7182,14.4562,20.3016,0.17468,5.6666,4.4951,6.5251,-2.3723,10.7933,1.967,
7.793,-10.0324,-2.4176,-2.7103,26.8987,1.0558,10.4064,-7.5486,-3.3505,-0.11342,4.2054,4.0365,6.2888,-4.4176,
10.9408,-9.6714,-1.0677,-8.5732,28.8997,-5.0335,12.9155,-4.9265,-1.4623,-0.34758,3.2302,0.17893,-1.0784,-4.8759,
13.8998,-4.0299,2.6118,-7.8178,31.7455,0.81211,16.7198,-1.0155,2.2409,2.8068,3.2774,-10.1957,-1.2546,-2.8961,
11.6195,-6.1982,-1.8833,-5.4206,25.502,2.6916,8.0039,-5.2933,-3.1962,2.6379,0.1882,-1.3892,1.2308,-5.1325,
4.6556,-15.4675,-10.9295,-16.1823,22.0439,-9.0393,-1.6356,-13.6526,-11.1994,-3.3047,-4.6436,4.9609,-2.2173,-12.5375,
7.7507,-7.3086,-6.4169,-14.7295,25.0596,-10.9071,5.2114,-6.5665,-8.1168,-1.6602,-0.026642,1.2888,-2.0843,-7.4465,
10.178,-3.4959,-1.6938,-6.6151,9.456,-5.4322,10.2012,-0.87054,-1.8455,-0.115,1.421,-3.6095,-6.2978,0.23092,
10.5314,-8.5886,-6.4127,-7.1823,2.2604,-2.2139,3.3223,-3.7106,-2.2169,-1.5541,-1.5566,-2.4284,-4.4739,-1.7114,
10.8636,-9.0373,-7.4739,-12.0538,16.2248,-5.9373,-0.25122,-5.4159,-5.4581,-1.9426,-0.49861,-3.2468,-5.6515,-5.4648,
13.5862,-1.7462,6.4719,-3.6178,28.1463,-10.4017,13.7436,-0.27025,3.0645,4.4405,5.3159,0.80442,-15.4353,2.5758,
13.7352,-5.0161,6.5657,5.7586,23.5652,-16.5263,13.8831,-1.2181,6.7368,4.6562,1.1403,4.6128,-17.8834,3.3854,
16.7674,-10.4997,0.38719,6.3769,30.8284,-21.8013,9.6756,-0.18072,10.189,8.2332,7.3389,3.3717,-9.0976,-0.67413,
16.9665,-6.7365,4.4611,4.3073,28.7375,-22.6626,11.7464,4.4092,9.8189,7.9804,12.4419,0.036123,-8.7929,2.4996,
14.5022,-2.9578,6.1221,5.0127,22.6749,-17.9284,10.5597,4.1446,1.0346,2.6809,4.9465,-1.4123,-10.6755,4.7597,
18.9347,-3.2623,3.3442,6.6402,29.5091,-15.4064,13.3006,2.4502,1.4549,4.9306,1.7576,0.60063,-6.1786,1.5821,
18.522,-8.1282,-2.882,2.1444,26.0514,-18.0974,5.0307,-1.7942,1.6086,3.4295,-1.4813,2.7337,-7.0127,-0.682,
15.9644,-10.5326,-4.1554,-2.805,16.2936,-16.0477,-4.9125,-4.0971,-2.3443,-1.597,-4.2845,0.64153,-9.4845,1.2871,
25.1292,-1.2238,6.699,7.4865,24.4748,-8.8181,5.5054,2.8974,4.0626,5.2475,2.7208,-1.8073,-5.0592,2.6559,
29.1651,0.53687,8.4662,9.6888,29.0318,-7.5661,12.1649,1.5187,7.4343,7.1018,1.8347,-1.9398,-7.8887,1.7737,
27.1744,-3.5929,7.2351,5.9738,19.3359,-4.4608,5.4092,-0.74183,3.373,1.6143,-3.8188,-0.136,-13.9231,1.908,
36.6314,0.9612,11.14,12.8464,18.6584,-0.8185,3.6386,6.0514,4.1347,5.856,0.74887,-3.0201,-7.7853,0.34747,
45.5203,6.2062,14.328,17.8602,19.4671,-5.1082,16.4357,8.5808,9.1893,16.5918,9.863,-6.6953,-0.087333,-0.15532,
46.1633,0.53093,13.4681,13.8959,7.2116,-6.2477,17.3776,2.7631,8.6377,15.5961,8.7886,-6.7758,-2.9748,1.3,
49.9015,-1.6701,8.0803,8.0009,6.056,-4.6676,5.0067,-0.053804,8.3604,10.081,4.1639,-2.2719,-3.0369,0.016739,
55.8252,1.5634,8.801,8.7259,13.6462,-9.4494,7.3576,2.6007,14.8489,14.0557,6.0835,4.3722,8.4733,-1.6713,
60.6704,3.3978,12.6112,13.0231,11.8635,-11.2926,13.6651,2.9266,15.8857,14.6581,9.5748,2.1816,14.7138,-0.60712,
70.5282,4.6404,12.8187,11.76,13.0801,-6.2765,12.8454,2.2693,13.9689,10.8868,9.4825,-3.2517,15.7594,1.3577,
73.7681,4.1208,11.3264,7.4387,12.0541,-3.2486,6.0489,-2.4468,13.3715,9.5105,6.2622,-2.3334,16.5008,-4.2671,
68.3779,3.3914,8.7184,8.4384,6.028,-3.5358,4.7214,-5.1923,9.195,6.5295,6.8506,1.1808,17.9207,-5.9395,
70.0598,-0.18658,11.0878,11.3066,7.1126,-3.8056,12.6333,-1.5063,4.7869,7.1016,7.4034,-4.1927,17.3278,1.6477,
72.1228,-1.1392,9.9406,6.7713,1.8651,-3.0953,8.5009,-4.7904,0.64331,8.1218,-2.6817,-7.7975,10.5036,-0.37936,
71.1698,0.8573,8.3799,5.4012,-3.067,-2.9096,4.1344,-9.8056,1.0866,4.7424,-4.449,1.8294,7.4628,-3.2491,
76.7816,-3.7739,9.0824,11.1027,7.4809,-8.2786,14.2507,-7.0481,6.0831,5.6627,4.736,1.9606,10.6304,-1.3669,
86.2747,-1.3778,12.1528,14.0519,20.2888,-7.0586,16.5287,-1.0811,7.8873,12.7947,6.139,-2.2544,17.4644,-2.4898,
88.9317,-0.81323,9.9774,10.3167,10.8763,-4.2249,8.3066,-2.9445,6.9321,10.5812,1.9143,-5.0117,15.4527,-3.7866,
87.9341,-2.6926,8.4149,14.518,5.4035,-4.9358,9.7359,-4.6964,7.4801,6.5719,3.7277,-7.1211,15.0075,1.2608,
95.4327,-4.7,9.1151,15.3344,5.8024,-6.3266,12.2855,-3.2091,7.2725,9.7928,4.7091,-9.3452,14.3482,-0.019894,
96.9372,-3.9361,9.532,12.0042,-0.33029,-9.8034,14.4404,0.35786,12.1388,12.5797,1.5345,-11.6765,9.6309,-6.2852,
96.6645,-0.56688,7.2729,10.5606,3.3049,-10.9024,15.7431,-2.3152,13.0977,6.7632,0.71903,-12.6631,12.6685,-4.7028,
104.9647,-0.050471,5.8726,7.5168,5.0348,-0.60731,17.6911,-5.0683,9.9012,7.3218,3.0865,-5.1549,15.7648,0.88155,
107.7053,-1.4939,4.0742,8.0299,-8.2829,0.87516,13.2549,-4.7644,6.4149,10.2567,-2.8835,-2.9172,2.7676,-3.9918,
108.7148,1.7292,5.999,15.9838,-4.1705,-1.3465,11.7367,-0.38122,10.6097,11.8104,-1.0233,-5.3937,2.3601,-3.9933,
112.5563,0.4206,3.9518,12.3737,-4.6432,-1.5067,13.2021,-2.5275,12.6242,10.3789,5.0637,-7.7212,7.7626,-3.5123,
118.3357,-2.4974,4.6788,6.3284,-16.4164,-0.93412,8.071,-5.7505,10.9027,11.6841,3.7957,-1.4736,9.2248,-5.7123,
118.9485,-5.2398,7.2903,0.64624,-20.7333,-3.2884,4.2125,-7.8154,6.8743,9.0551,0.19377,2.4715,10.5997,-7.2976,
118.8013,-1.7922,7.5761,-1.0795,-15.8742,-4.7786,6.6111,-6.1414,6.2206,3.4499,1.3872,-1.7744,11.1683,-5.6546,
116.7351,-4.8179,3.9882,2.6004,-18.0554,-10.0352,4.5274,-5.5317,8.9806,3.4841,1.5447,-11.0677,6.883,-7.4848,
115.9977,-10.7953,3.7487,7.7473,-23.7203,-14.7356,2.3274,-4.7177,8.442,7.1317,0.97033,-13.2959,2.132,-11.8562,
117.9557,-0.74763,4.7288,9.9338,-21.092,-5.4155,4.839,2.0731,6.7305,8.3908,2.1172,-0.68783,4.173,-5.119,
116.663,4.5999,2.5169,5.4809,-23.201,-1.7161,5.995,1.9483,8.2548,7.8873,-2.3482,-2.0928,3.9226,-1.4374,
122.9193,0.70824,5.0172,2.9831,-25.9065,-6.1927,2.0201,-4.194,5.1082,5.2452,-5.3405,-11.8494,-3.3024,-5.9307,
129.6442,2.353,5.4396,1.1169,-22.1829,-0.7599,-4.6091,-3.2194,-2.6701,3.2432,-4.2972,-5.5948,-4.3096,-3.8876,
131.1453,5.5862,-1.1538,-0.87831,-17.9594,5.5527,-1.44,-0.61613,-0.58169,6.4226,-1.6293,1.0074,2.216,1.6483,
129.7843,7.9024,-1.3258,2.7896,-13.2667,2.5682,3.7078,-2.2662,4.0327,10.1348,0.63789,-0.25814,8.1084,2.7544,
131.1558,7.4282,3.0926,4.5504,-13.4345,0.96783,0.11092,-5.0227,1.8626,6.1523,0.11723,-4.581,4.2474,-2.2315,
130.5175,3.1259,0.014724,5.2415,-19.8595,3.8021,-4.2343,-6.1674,-0.17761,0.96268,-5.1922,-12.983,-3.72,-5.4719,
131.6045,4.6256,-1.1915,4.686,-19.8728,4.7792,-2.7749,-5.5564,2.4846,5.4847,-3.6754,-10.5168,-0.8457,-1.5281,
127.8054,4.1069,2.9776,-1.6209,-15.0652,-1.5333,-1.4034,-7.3924,3.5406,6.8426,0.64225,-8.1988,1.3744,-2.642,
127.1267,1.2094,2.0758,-0.3186,-8.1356,1.21,-3.0066,-5.7433,3.087,6.6732,-2.0476,-12.7683,3.4609,-4.1704,
129.8632,-0.55042,-0.70004,2.3518,-8.3706,3.7887,-4.0313,-6.1218,0.73235,3.1391,-6.5043,-16.0998,0.11999,-4.6433,
127.3743,0.4467,5.6087,0.7647,-8.8324,-2.7053,-1.3791,-9.1292,1.1706,-0.90539,-2.2574,-12.7234,-2.2976,-6.7751,
117.0805,-2.2314,3.1028,-6.7528,-7.5793,-0.37362,-7.3221,-10.7504,-0.58666,-0.12793,-2.3627,-6.4166,0.974,-5.645,
105.7171,-4.9894,-8.6523,-14.0606,-15.8015,6.8794,-11.2209,-10.1051,-1.0336,2.772,-4.6313,-6.5134,-2.9406,-1.4502,
102.5071,1.817,-5.4821,-8.6377,-16.0587,8.1539,-9.8247,-8.7764,-0.73064,0.43609,-5.5587,-7.8102,-9.2726,-5.9429,
100.4547,3.3955,-1.0556,-7.3963,-10.5156,3.5671,-6.5839,-11.3826,-5.2663,-3.6872,-6.9122,-5.6542,-8.9569,-13.0579,
97.8017,2.2276,-1.9563,-8.8805,-14.2232,4.3171,-3.7785,-6.8435,-1.0937,1.8364,-5.0514,-4.3508,-7.4554,-4.5614,
91.6924,2.8171,-4.4903,-8.1064,-18.9132,6.7094,-10.0595,-6.1917,-0.7869,1.4855,-3.5433,-8.6693,-7.7312,-2.1188,
83.7807,-1.6902,-1.8107,-10.0302,-20.1886,3.8967,-11.8661,-11.6048,-3.6322,-4.3882,-4.2945,-14.8976,-8.7132,-12.1146,
79.9592,-4.7223,-1.9431,-11.598,-30.7878,3.9039,-11.3955,-10.1856,-2.6914,-2.9201,-8.6166,-13.7628,-13.252,-13.5569,
79.259,-3.2337,-2.5494,-10.1788,-36.4124,9.6952,-10.9528,-4.9947,-1.8065,-0.57524,-7.3763,-3.537,-17.0367,-6.7179,
73.0572,-6.8961,0.013719,-7.6398,-32.7814,4.7752,-10.2951,-10.9615,-5.0726,-7.7716,-5.4874,-11.5195,-18.4246,-13.0633,
69.3969,-4.7953,1.6999,1.7364,-34.4297,0.39108,-9.4367,-14.8838,-5.4914,-12.8491,-13.1121,-24.9283,-19.0061,-19.7515,
73.669,2.4825,10.5162,12.9606,-41.2817,6.3934,-2.3628,-5.0725,-1.5462,-6.5343,-14.0124,-31.0251,-25.8197,-15.9151,
81.2999,9.082,23.9852,26.283,-43.1436,4.0816,8.3838,1.9803,3.3668,1.5705,-6.9052,-28.1995,-33.9115,-13.032,
82.9299,13.1164,36.6461,38.806,-52.3651,-9.9016,17.7632,2.1025,14.9749,3.1635,-10.1063,-32.0512,-40.3129,-16.8294,
78.6772,7.7501,48.5473,50.5777,-63.3232,-19.6716,20.7945,0.77125,17.6921,-0.64195,-16.9719,-44.2281,-51.9942,-23.2916,
88.0566,13.0697,59.7345,61.643,-54.3419,-10.7788,24.8497,8.9199,12.292,3.7351,-8.2406,-42.1768,-54.7794,-17.5556,
96.8732,13.4906,61.2114,70.2362,-38.3071,-10.8552,24.5638,9.5898,10.8313,4.2341,-7.5054,-38.4414,-54.6261,-21.5639,
90.5784,2.558,56.5749,65.0582,-49.988,-23.2191,20.6798,1.3016,14.0378,0.1237,-15.7317,-48.6682,-60.5073,-32.8034,
83.6977,3.8506,54.6264,63.5646,-52.2916,-20.3799,20.4027,-0.22251,13.6777,-0.36588,-12.3777,-51.5326,-55.4311,-27.4609,
84.2194,3.8607,46.2876,55.1714,-39.7536,-16.9877,21.3482,1.96,11.6518,0.86136,-8.0196,-49.1636,-47.5255,-22.1976,
84.9508,-2.6377,31.9407,43.6664,-33.0301,-21.2711,13.8003,-1.0501,10.4707,1.2916,-8.0206,-42.3576,-41.2997,-24.7224,
92.8694,0.89528,26.6505,35.744,-29.6018,-12.7638,6.2241,-0.022555,8.8784,2.1782,-3.6828,-30.1747,-34.483,-17.9362,
95.492,4.2156,19.2664,25.8862,-30.7182,2.1021,0.065571,0.46073,5.9356,-1.3269,-7.3184,-25.4722,-34.8246,-14.4501,
86.8704,-2.3039,4.0105,12.7638,-37.5522,7.6398,-10.5432,-5.3515,0.75872,-4.6213,-13.6278,-23.4617,-38.0375,-17.9214,
85.5145,-3.6117,-8.161,0.91078,-33.3709,12.966,-13.767,-5.9947,-5.0714,-3.3802,-12.8103,-13.3771,-33.8271,-14.9179,
87.855,-0.26173,-12.2506,-9.0258,-21.4867,26.288,-19.9308,-2.5016,-12.7208,-4.8646,-15.1747,-2.2104,-26.2538,-8.479,
85.9584,-0.72796,-16.3361,-15.7149,-12.4845,37.3647,-26.9299,-1.8693,-6.6552,-2.6443,-13.3001,5.635,-17.9299,-0.73967,
83.9342,0.038617,-20.4174,-21.7621,-0.88941,31.5072,-26.0373,-1.5164,-1.1944,-3.2088,-7.4407,7.948,-6.49,-0.45455,
92.9981,12.0876,-16.3003,-18.5277,13.264,43.1146,-18.6904,11.1081,-4.4967,2.7683,2.1648,21.5711,7.9994,8.2498,
93.3235,12.5677,-21.3478,-23.4416,21.2659,54.6277,-22.1483,12.6107,-3.986,7.6639,5.6503,34.3768,19.6912,20.5293,
74.7085,3.6187,-34.1669,-35.0507,18.0616,50.5062,-33.8351,2.6953,-2.3008,1.9012,4.8291,36.6528,25.2584,21.2255,
56.2467,-10.0958,-46.2169,-47.0477,25.1726,34.4604,-45.905,-4.6973,-11.3218,-7.8538,-0.76326,29.6334,34.8301,6.9365,
51.1844,-12.6233,-57.5439,-58.3248,33.5444,46.4928,-53.394,-0.80024,-17.6321,-3.7669,-1.4406,41.9554,44.0688,11.1003,
34.6162,-24.3996,-68.1913,-68.9253,29.1214,53.4649,-64.2904,-13.7674,-30.6742,-16.0746,-8.5848,48.7173,47.209,18.1469,
18.5595,-35.4691,-78.1998,-78.8898,41.4741,49.7746,-74.533,-24.5105,-39.3185,-26.1974,-9.034,53.0251,58.4764,19.4682,
14.7948,-30.207,-87.6078,-88.2564,53.0856,60.8881,-84.161,-16.5324,-40.5744,-16.1894,-4.3942,63.9436,69.0679,30.5926,
3.0609,-34.4206,-96.4513,-97.061,64.0005,71.3348,-93.2113,-14.8176,-46.0941,-13.5308,-1.4794,74.207,79.0238,42.0134,
-11.1023,-46.4554,-104.7643,-105.3374,74.2605,81.1548,-101.7187,-24.5331,-55.8617,-19.9496,1.5016,83.8546,88.3824,44.795,
-18.8721,-52.9474,-112.5784,-113.1171,83.9048,90.3855,-109.7155,-31.9794,-66.61,-22.3683,2.6166,92.9233,97.1794,48.1331,
-25.6932,-52.9038,-119.9237,-120.4301,92.9705,99.0623,-117.2326,-36.5684,-67.3134,-23.6775,8.9673,101.4479,105.4487,57.0555,
-25.8393,-49.0066,-126.8283,-127.3043,101.4923,107.2186,-124.2986,-38.4716,-65.4438,-30.693,12.5266,109.461,113.2217,60.6216,
-16.094,-31.9662,-133.3186,-133.766,109.5028,108.9807,-120.9383,-30.8609,-61.5174,-33.6714,6.4726,116.9934,120.5284,49.2717,
-6.9335,-15.9483,-130.1399,-135.9837,88.8326,88.3418,-99.582,-16.9579,-43.7263,-31.6514,-6.4495,95.8738,99.1967,32.2154,
7.5826,-0.89138,-108.2315,-113.7247,69.4027,68.9413,-79.5071,-1.8405,-27.0028,-15.6523,-0.27768,76.0213,79.1449,16.1825,
21.2276,13.2621,-87.6377,-92.8012,51.1385,50.7048,-60.6367,12.37,-11.2826,-0.61314,10.3443,57.3601,60.2962,1.1116,
34.0539,26.5664,-68.2794,-73.1331,33.9702,33.5625,-42.8985,18.8584,3.4944,-10.6995,-4.3764,39.8185,42.5785,-13.0551,
46.1107,32.8054,-50.0826,-54.6451,17.832,17.4488,-26.2246,24.9577,17.3847,-4.2729,-18.2138,23.3294,25.9237,-26.3718,
57.4441,27.4631,-32.9777,-37.2664,2.6621,2.3019,-10.5511,23.9426,30.4416,-4.4985,-26.7619,7.8296,10.2683,-38.8895,
68.0974,33.5281,-16.899,-20.9304,-11.5977,-11.9363,4.182,26.3625,37.2922,-1.3363,-22.7461,-6.7402,-4.4478,-50.5357,
78.1116,36.8186,-1.7851,-5.5746,3.1982,-25.3201,18.0311,27.6728,27.8238,-4.6306,-24.2738,-20.4358,-18.2809,-51.8423,
87.5249,29.789,12.422,8.8599,17.1063,-37.9009,31.0492,14.4433,14.1033,-18.4527,-35.3507,-33.3096,-31.2841,-53.0701,
96.3734,35.7147,25.7767,22.4283,30.1799,-28.5169,29.7887,4.8998,4.5798,-25.42,-33.2296,-45.411,-43.507,-43.1372,
104.691,44.659,38.3301,35.1826,42.4691,-12.7059,24.6273,8.9446,1.8953,-19.0741,-23.5229,-56.7864,-54.9966,-35.7283,
112.5095,53.7898,50.1303,47.1716,54.021,2.1564,21.4623,15.8795,2.0224,-15.2783,-19.9423,-67.4792,-65.7968,-28.5229,
119.859,63.3369,47.0018,53.862,64.8797,16.1271,17.5234,16.1316,3.5882,-13.6387,-15.1304,-58.0076,-61.3671,-14.5195,
126.7674,59.2955,30.0817,36.5303,75.0869,29.2594,5.1436,1.0637,-7.4735,-21.7383,-14.9457,-61.9987,-48.2848,-19.6741,
133.2614,66.825,14.1768,20.2385,84.6817,41.6039,-1.9139,-4.4233,-13.2916,-26.7009,-10.6745,-68.4021,-35.7467,-23.7963,
139.3657,76.9155,15.7365,13.7213,93.7008,53.2076,5.4322,7.8937,-10.0836,-21.724,-10.034,-50.8002,-30.2275,-11.2808,
145.1037,86.4005,17.2027,11.452,102.1788,64.1152,11.855,14.6507,-8.9968,-17.0463,-11.3604,-33.6522,-26.9678,-1.9275,
150.4975,95.3165,17.1348,6.9085,110.148,74.3683,13.5538,6.0588,-10.3852,-21.3262,-8.2682,-31.7535,-21.4934,-10.9705,
155.5677,103.6975,25.7475,11.3145,117.6392,84.0062,20.9355,6.1775,-10.2438,-23.4208,-9.7005,-38.5252,-25.0242,-15.6147,
160.3336,111.5757,35.5308,22.4457,124.6808,93.0658,29.5613,11.8324,-10.3525,-22.7389,-16.1084,-48.0243,-35.3329,-10.5804,
164.8136,114.1606,38.7014,24.4737,131.3,101.5819,34.0544,5.82,-10.2136,-27.6411,-20.9262,-59.2428,-47.3129,-22.9612,
169.0248,102.4903,35.4155,23.9691,137.522,109.5869,31.5292,-8.027,-17.3135,-37.552,-29.794,-69.7882,-58.5742,-35.6836,
172.9833,89.8332,32.5674,23.2541,143.3706,117.1117,29.8782,-20.3196,-28.567,-43.2527,-42.1064,-79.7009,-69.1597,-47.6426,
176.7043,85.6485,30.3724,22.0998,148.8684,124.185,33.1471,-24.1621,-33.8428,-47.1652,-50.0646,-89.0189,-79.1101,-58.884,
180.202,86.2944,27.104,22.2199,154.0363,130.8339,33.0867,-19.8196,-33.7402,-54.9404,-52.845,-97.7777,-88.4635,-69.451,
183.4899,82.5625,25.9597,20.4047,158.8941,137.0839,40.7425,-18.1485,-31.2339,-58.8748,-59.7975,-106.0111,-97.2557,-79.3839,
186.5805,87.009,23.1971,20.3855,163.4605,142.9589,51.5541,-23.5673,-25.7442,-56.5473,-59.825,-113.7504,-105.5204,-81.972,
189.4857,95.8885,20.8411,20.1265,167.7528,148.4813,59.0659,-25.0456,-20.3434,-54.1188,-51.8972,-121.0254,-103.8894,-79.464,
192.2165,104.2351,20.3136,18.196,171.7877,153.6724,51.9065,-18.4816,-27.0765,-60.7536,-56.2552,-127.8639,-95.4866,-83.1321,
194.7836,112.081,16.9256,19.2734,175.5804,158.5521,41.8027,-11.3467,-35.3339,-64.0978,-66.9799,-134.292,-81.3213,-86.5798,
197.1965,119.4562,15.4279,18.5991,179.1456,163.139,53.3946,-2.9534,-32.7319,-59.7703,-68.384,-130.5731,-70.6577,-85.2416,
199.4647,126.3888,21.2509,10.7345,182.4969,167.4506,64.2909,11.3238,-32.6962,-62.9327,-63.799,-119.8462,-52.3182,-87.358,
201.5969,132.9055,24.3146,5.7517,185.647,171.5036,74.5334,24.7444,-30.2525,-56.7464,-57.0785,-102.0503,-35.0791,-80.6702,
203.6011,139.0311,21.6505,6.6119,188.6082,175.3134,84.1614,37.3597,-22.8937,-43.9418,-50.5208,-81.8273,-18.8744,-66.4303,
205.485,144.7893,21.5565,5.0101,191.3917,178.8946,93.2118,49.2182,-30.9201,-51.6692,-55.9252,-81.8586,-11.8368,-69.916,
207.2559,150.2019,26.5298,-1.5573,194.0082,182.2609,101.7191,60.3651,-43.1649,-62.6691,-66.5492,-91.0471,-14.5009,-79.8211,
208.9205,155.2898,29.5176,-6.0433,196.4677,185.4252,109.7159,70.8432,-42.6239,-65.2964,-70.0283,-99.6843,-19.1746,-81.9012,
210.4853,160.0724,29.6747,-7.6089,198.7797,188.3997,117.233,80.6926,-38.138,-61.3784,-67.7546,-95.1495,-18.5061,-76.9871,
211.9562,164.5681,29.5812,-8.8394,200.9529,191.1957,124.299,89.951,-44.7676,-71.7957,-67.3047,-103.5405,-21.9752,-86.1062,
213.3388,168.794,30.6989,-11.2015,202.9957,193.824,130.941,98.654,-50.7586,-81.5879,-72.9074,-111.4281,-20.6567,-92.509,
214.6385,172.7663,36.8109,-18.4834,204.916,196.2946,137.1846,106.8347,-51.8105,-90.7926,-82.633,-118.8424,-23.0325,-94.9124,
215.8602,176.5004,38.9406,-21.7127,206.721,198.6169,143.0535,114.5246,-57.8609,-99.4451,-91.775,-125.8119,-35.7506,-103.3177,
217.0086,180.0103,34.6759,-18.4818,208.4178,200.7999,148.5703,121.7532,-65.9584,-107.5784,-97.3557,-132.3632,-46.9826,-108.0851,
218.0881,183.3097,34.2826,-19.0601,210.0127,202.8519,153.7561,128.548,-65.6163,-100.7622,-95.1298,-138.5214,-41.0302,-103.7694,
219.1028,186.4111,36.8049,-22.4958,211.5119,204.7808,158.6307,134.9351,-66.2588,-89.655,-94.4837,-138.164,-34.9534,-105.9792,
220.0566,189.3265,36.766,-23.3154,212.9212,206.5939,163.2129,140.939,-68.3089,-82.1061,-93.8759,-121.4381,-29.7225,-101.3074,
220.9532,192.0669,32.8728,-20.2293,214.2459,208.2983,167.5201,146.5826,-64.9335,-71.1542,-91.3768,-113.9108,-28.1801,-88.2393,
221.796,194.6429,35.239,-23.3541,215.4912,209.9004,171.5689,151.8877,-60.0734,-56.7618,-87.3402,-111.8967,-31.3098,-82.945,
222.5883,197.0643,41.0784,-29.9066,216.6617,211.4064,175.3748,156.8744,-60.0841,-45.4024,-84.7511,-113.1366,-30.6365,-92.0683,
223.333,199.3404,38.1318,-27.6302,217.762,212.822,178.9523,161.562,-66.1203,-34.9655,-85.9328,-115.9896,-27.834,-100.6442,
224.033,201.48,36.5668,-26.6953,218.7963,214.1527,182.3151,165.9682,-67.2148,-18.7675,-84.3923,-109.2714,-25.441,-91.4723,
224.691,203.4912,42.0855,-32.8064,219.7685,215.4035,185.4762,170.1101,-64.146,-3.5415,-79.3287,-92.592,-18.13,-78.7531,
225.3095,205.3817,40.2835,-31.5611,220.6824,216.5793,188.4477,174.0035,-66.3228,10.771,-72.3996,-83.903,-8.1244,-80.5356,
225.891,207.1588,35.2152,-27.0161,221.5415,217.6845,191.2408,177.6633,-66.9229,24.2248,-71.6713,-90.1972,-12.2164,-85.5856,
226.4375,208.8293,36.4767,-28.7696,222.349,218.7235,193.8663,181.1035,-67.7282,31.6891,-80.3864,-82.8572,-17.7499,-77.0763,
226.9513,210.3995,40.5549,-33.3102,223.108,219.7001,196.3344,184.3373,-67.5207,33.162,-80.8657,-69.2087,-12.8288,-64.7387,
227.4342,211.8756,40.2908,-33.4807,223.8215,220.6181,198.6543,187.3771,-61.7822,42.5009,-73.8443,-76.3844,-16.6384,-64.9517,
227.8881,213.263,38.1143,-31.7129,224.4923,221.481,200.835,190.2345,-61.2088,48.8685,-72.0652,-79.7553,-20.2193,-65.1522,
228.3148,214.5673,42.8173,-36.8,225.1227,222.2921,202.8849,192.9204,-66.936,46.6597,-76.177,-73.7647,-14.4269,-62.4481,
228.716,215.7932,45.0687,-39.4124,225.7154,223.0546,204.8118,195.4452,-62.9201,43.8599,-74.4989,-76.5696,-11.1509,-61.1116,
229.093,216.9456,42.1234,-36.8065,226.2724,223.7713,206.6231,197.8185,-52.155,55.3283,-62.5569,-70.2882,-6.8662,-57.6856,
229.4474,218.0289,41.7654,-37.7314,226.7961,224.445,208.3257,200.0493,-52.6411,66.1086,-59.0447,-59.5632,-6.2135,-58.3221,
229.7806,219.0472,43.1159,-39.8063,227.2883,225.0783,209.9262,202.1464,-62.4979,59.9729,-68.9994,-64.1841,-11.1433,-63.0175,
230.0937,220.0043,45.1084,-41.9974,227.751,225.6736,211.4306,204.1176,-64.2918,51.795,-72.8134,-69.2514,-14.5723,-61.888,
230.3881,220.9041,43.607,-47.4315,228.186,226.2332,212.8448,205.9705,-67.424,47.4823,-77.3624,-69.6756,-25.5079,-62.2721,
230.6648,221.7498,40.2677,-51.0931,228.5948,226.7592,214.1741,207.7123,-69.8862,45.3562,-78.7462,-66.2182,-33.3774,-63.5972,
230.9249,222.5448,40.2615,-54.2943,228.9791,227.2537,215.4237,209.3496,-68.5854,40.225,-69.6831,-68.0297,-20.2878,-62.1917,
231.1694,223.2921,44.3538,-58.026,229.3404,227.7184,216.5982,210.8886,-70.4958,29.8577,-66.7072,-76.2402,-5.8141,-64.0036,
231.3993,223.9946,43.3795,-57.6782,229.6799,228.1553,217.7023,212.3353,-63.1328,27.8251,-64.8739,-69.0144,-11.973,-63.7788,
231.6153,224.6549,36.9206,-55.6635,229.9992,228.566,218.7402,213.6952,-58.8629,30.0117,-56.6432,-50.8943,-19.4495,-56.0959,
231.8184,225.2756,35.9104,-57.3852,230.2992,228.9521,219.7158,214.9735,-59.9102,27.006,-49.6289,-43.2609,-12.2568,-49.5967,
232.0093,225.8591,37.6122,-54.4244,230.5812,229.3149,220.6328,216.175,-49.5671,21.5292,-44.7232,-42.5937,-12.0038,-47.5852,
232.1887,226.4076,36.0784,-43.6867,230.8464,229.656,221.4949,217.3045,-40.0856,19.5146,-34.568,-25.938,-11.0421,-32.9195,
232.3574,226.9231,35.1187,-42.753,231.0956,229.9767,222.3052,218.3663,-42.26,10.3897,-27.9144,-10.2818,-6.282,-22.5086,
232.516,227.4077,33.2528,-47.6598,231.3299,230.2781,223.0669,219.3643,-44.3039,-4.3337,-31.7834,-14.4853,-6.1463,-28.148,
232.665,227.8633,27.8834,-39.9793,231.5501,230.5614,223.7829,220.3024,-41.1635,-11.4247,-26.5017,0.48379,-2.4033,-15.8536,
232.8051,228.2915,23.0769,-36.3752,231.7571,230.8277,224.4559,221.1843,-40.3805,-24.8393,-18.4039,14.5548,0.8744,-0.80238,
232.9368,228.694,20.7282,-41.4238,231.9516,231.078,225.0885,222.0132,-41.8147,-37.4489,-19.2281,9.3429,1.786,-6.9007,
233.0606,229.0723,19.0023,-46.6514,232.1345,231.3134,225.6832,222.7924,-38.8237,-49.302,-15.1821,-0.85861,2.161,-10.3431,
233.177,229.428,17.6212,-40.2364,232.3065,231.5346,226.2422,223.5249,-31.9145,-50.8029,-5.8351,7.629,2.2723,-4.1786,
233.2863,229.7623,14.877,-30.8326,232.4681,231.7425,226.7677,224.2134,-23.9738,-51.8523,-2.3517,13.6788,3.823,-5.6152,
233.3892,230.0766,12.7793,-32.5983,232.62,231.9379,227.2616,224.8606,-22.2947,-46.0898,-2.4518,9.2426,4.7987,-2.145,
233.4858,230.372,10.566,-38.3549,232.7628,232.1217,227.7259,225.469,-26.2594,-42.3603,-3.2688,8.6881,5.9572,4.2505,
233.5767,230.6497,9.9323,-33.1613,232.897,232.2944,228.1624,226.0408,-23.7198,-43.1929,-4.5187,11.0593,5.5996,2.0672,
233.6621,230.9107,10.3005,-28.7613,233.0232,232.4567,228.5726,226.5784,-21.8144,-39.6373,-4.7295,9.9138,4.2995,-0.94909,
233.7423,231.156,5.3441,-37.6409,233.1418,232.6093,228.9583,227.0837,-24.8443,-34.367,-6.3742,20.406,8.3799,5.8565,
233.8178,231.3867,7.1924,-38.0338,233.2533,232.7527,229.3208,227.5587,-21.6662,-32.5462,-3.8225,30.0277,5.7081,12.0126,
233.8887,231.6035,13.5098,-25.1465,233.3581,232.8876,229.6615,228.0051,-12.1715,-28.6647,3.1557,24.8518,-1.3833,14.1844,
233.9554,231.8073,13.9042,-22.915,233.4566,233.0143,229.9818,228.4248,-3.9697,-19.9552,4.6534,17.3349,-2.5053,14.0562,
234.0181,231.9988,10.6596,-21.0579,233.5492,233.1335,230.2829,228.8193,-1.8031,-12.9731,6.3026,17.2591,0.055351,11.7668,
234.077,232.1789,10.9844,-11.5993,233.6363,233.2455,230.566,229.1902,-1.2127,-8.3388,17.0117,27.3106,-0.9123,17.3276,
234.1324,232.3482,12.0123,-8.7344,233.7181,233.3507,230.832,229.5388,7.296,-4.7047,20.0883,37.4823,-2.5446,29.5443,
234.1844,232.5073,9.3634,-8.6923,233.795,233.4497,231.0821,229.8664,9.2683,-8.2788,12.6163,33.3052,-0.46369,26.3254,
234.2334,232.6568,9.7657,-6.2428,233.8673,233.5427,231.3172,230.1745,7.266,-11.1568,15.7157,23.1119,-1.4,13.6586,
