AF3,AF4,F3,F4,F7,F8,FC5,FC6,O1,O2,P7,P8,T7,T8,Frontal,Temporal,Parietal,Occipital,Fronto-central,Participant,Game,Emotion,satisfaction,boredom,horrible,calm,funny,gender,arousal,valence
89.0373,46.3741,108.5149,-28.7519,96.4571,-17.6222,-7.4198,-22.2593,-46.3741,-14.8396,109.4422,7.4198,71.416,-8.3479,49.00155,31.53405,58.431,-30.60685,-14.83955,S22,G2,Satisfaction,0.8555277382080453,-0.3236488890015773,-0.5,0.9836448809953706,1.1801936887041646,M,0.0201976967103713,2.9874874587011124
77.2035,43.5916,93.657,-29.8094,98.0903,-22.1293,-13.4671,-35.0238,-51.9386,-16.7318,90.8187,8.83,63.4212,-8.7743,43.43395,27.32345,49.82435,-34.3352,-24.24545,S22,G2,Satisfaction,0.8555277382080453,-0.3236488890015773,-0.5,0.9836448809953706,1.1801936887041646,M,0.0201976967103713,2.9874874587011124
58.4712,26.8761,82.9364,-42.1208,88.031,-34.9015,1.4409,-47.0223,-62.9223,-26.3944,73.7759,-2.3663,46.1668,-20.7688,29.88206666666667,12.699000000000002,35.7048,-44.65835,-22.7907,S22,G2,Satisfaction,0.8555277382080453,-0.3236488890015773,-0.5,0.9836448809953706,1.1801936887041646,M,0.0201976967103713,2.9874874587011124
64.4254,12.4666,89.5535,-33.841,77.6475,-37.2573,9.5142,-38.2608,-68.234,-26.2016,83.4493,-9.1805,57.4968,-14.421,28.832449999999994,21.5379,37.1344,-47.2178,-14.3733,S22,G2,Satisfaction,0.8555277382080453,-0.3236488890015773,-0.5,0.9836448809953706,1.1801936887041646,M,0.0201976967103713,2.9874874587011124
69.371,25.8186,84.6443,-17.7106,87.0886,-20.9219,3.8422,-21.8651,-50.04,-14.8903,92.5423,-4.4557,68.147,-0.10754,38.04833333333334,34.01973,44.0433,-32.46515,-9.01145,S22,G2,Satisfaction,0.8555277382080453,-0.3236488890015773,-0.5,0.9836448809953706,1.1801936887041646,M,0.0201976967103713,2.9874874587011124
51.1087,37.0669,69.8273,-14.053,84.4582,-5.5665,-0.56232,-12.393,-39.8055,-12.6055,78.731,-2.797,60.4374,4.0729,37.14026666666667,32.25515,37.967,-26.2055,-6.47766,S22,G2,Satisfaction,0.8555277382080453,-0.3236488890015773,-0.5,0.9836448809953706,1.1801936887041646,M,0.0201976967103713,2.9874874587011124
42.6646,23.2491,67.9554,-22.9482,65.9425,-19.3326,-3.7744,-25.7494,-51.5172,-22.5157,67.9778,-5.8759,46.1447,7.0743,26.255133333333333,26.6095,31.05095,-37.01645,-14.7619,S22,G2,Satisfaction,0.8555277382080453,-0.3236488890015773,-0.5,0.9836448809953706,1.1801936887041646,M,0.0201976967103713,2.9874874587011124
48.9163,13.0426,57.85,-34.0927,64.305,-31.3449,-0.30167,-36.075,-51.0206,-29.0482,52.3058,-10.6241,39.2025,3.4036,19.77938333333333,21.30305,20.84085,-40.034400000000005,-18.188335,S22,G2,Satisfaction,0.8555277382080453,-0.3236488890015773,-0.5,0.9836448809953706,1.1801936887041646,M,0.0201976967103713,2.9874874587011124
47.8367,15.9709,42.3221,-28.3364,53.0269,-15.3642,0.64368,-20.9246,-40.5396,-27.3053,37.1106,-4.4214,28.5033,2.2721,19.24266666666667,15.3877,16.3446,-33.92245,-10.14046,S22,G2,Satisfaction,0.8555277382080453,-0.3236488890015773,-0.5,0.9836448809953706,1.1801936887041646,M,0.0201976967103713,2.9874874587011124
44.9665,19.6497,44.4199,-21.9991,50.7725,-0.34236,0.60506,-15.9601,-46.4543,-23.8124,31.1741,-2.3016,18.4452,2.1358,22.91119,10.2905,14.43625,-35.13335,-7.67752,S22,G2,Satisfaction,0.8555277382080453,-0.3236488890015773,-0.5,0.9836448809953706,1.1801936887041646,M,0.0201976967103713,2.9874874587011124
56.3685,20.7889,55.2034,-25.7808,61.8262,-8.5815,5.6695,-24.7404,-49.6959,-15.4275,26.9846,-4.4825,21.512,-3.0931,26.63745,9.20945,11.25105,-32.5617,-9.53545,S22,G2,Satisfaction,0.8555277382080453,-0.3236488890015773,-0.5,0.9836448809953706,1.1801936887041646,M,0.0201976967103713,2.9874874587011124
56.5086,15.368,44.9351,-27.4793,51.4364,-22.1666,6.7211,-20.9378,-46.2505,-14.9655,20.2648,-4.6772,11.4106,-4.2993,19.76703333333333,3.5556500000000004,7.793800000000001,-30.608,-7.10835,S22,G2,Satisfaction,0.8555277382080453,-0.3236488890015773,-0.5,0.9836448809953706,1.1801936887041646,M,0.0201976967103713,2.9874874587011124
39.0181,4.7072,28.7903,-24.4397,34.2502,-22.5034,6.7815,-15.5081,-46.7218,-20.0965,18.5852,-6.7156,-3.374,-4.505,9.97045,-3.9395,5.9348,-33.40915,-4.363300000000001,S22,G2,Satisfaction,0.8555277382080453,-0.3236488890015773,-0.5,0.9836448809953706,1.1801936887041646,M,0.0201976967103713,2.9874874587011124
22.577,8.5987,39.5838,-13.2349,37.0205,-13.2702,4.056,-13.1863,-34.1801,-5.4425,24.4258,-2.1387,-0.2017,-3.7706,13.545816666666669,-1.98615,11.14355,-19.811300000000003,-4.565149999999999,S22,G2,Satisfaction,0.8555277382080453,-0.3236488890015773,-0.5,0.9836448809953706,1.1801936887041646,M,0.0201976967103713,2.9874874587011124
23.4522,10.865,41.8455,-10.5859,48.7111,-15.2562,-10.2874,-12.3946,-18.0293,6.0142,28.5251,7.2644,13.7223,-1.6894,16.505283333333335,6.016450000000001,17.89475,-6.00755,-11.341,S22,G2,Satisfaction,0.8555277382080453,-0.3236488890015773,-0.5,0.9836448809953706,1.1801936887041646,M,0.0201976967103713,2.9874874587011124
11.8427,5.5759,30.0605,-13.6606,31.6884,-15.2681,-23.7701,-10.7237,-6.9333,1.0162,36.0888,4.974,11.0444,0.26646,8.373133333333334,5.65543,20.5314,-2.95855,-17.2469,S22,G2,Satisfaction,0.8555277382080453,-0.3236488890015773,-0.5,0.9836448809953706,1.1801936887041646,M,0.0201976967103713,2.9874874587011124
19.4796,13.5888,42.1687,-5.4208,29.048,-3.2219,-8.2439,-7.2981,-15.792,2.8102,40.4155,-5.5273,15.9466,4.8881,15.9404,10.41735,17.4441,-6.4909,-7.771,S22,G2,Satisfaction,0.8555277382080453,-0.3236488890015773,-0.5,0.9836448809953706,1.1801936887041646,M,0.0201976967103713,2.9874874587011124
16.9195,9.5268,40.1027,-10.1967,25.9138,-9.0571,6.3507,-20.3084,-23.6547,-10.8067,23.8906,-14.0059,17.3084,-3.2891,12.2015,7.00965,4.942349999999999,-17.2307,-6.97885,S22,G2,Satisfaction,0.8555277382080453,-0.3236488890015773,-0.5,0.9836448809953706,1.1801936887041646,M,0.0201976967103713,2.9874874587011124
4.311,12.2015,26.1032,3.8629,22.9672,-8.9781,6.8974,-14.9164,-14.352,-19.8971,17.08,-3.4276,14.879,-2.6281,10.07795,6.12545,6.826199999999999,-17.12455,-4.009499999999999,S22,G2,Satisfaction,0.8555277382080453,-0.3236488890015773,-0.5,0.9836448809953706,1.1801936887041646,M,0.0201976967103713,2.9874874587011124
13.7907,12.8607,17.5813,5.0224,20.1988,-13.5398,5.0922,-0.57232,-21.3747,-18.2392,13.7367,-6.4678,5.1752,-1.0791,9.319016666666665,2.04805,3.63445,-19.80695,2.25994,S22,G2,Satisfaction,0.8555277382080453,-0.3236488890015773,-0.5,0.9836448809953706,1.1801936887041646,M,0.0201976967103713,2.9874874587011124
19.4563,-1.8228,14.6715,-9.3789,11.5666,-21.0749,1.0764,-8.8854,-30.2942,-16.2171,-1.1875,-8.8619,3.937,2.696,2.2363,3.3165,-5.0247,-23.25565,-3.904500000000001,S22,G2,Satisfaction,0.8555277382080453,-0.3236488890015773,-0.5,0.9836448809953706,1.1801936887041646,M,0.0201976967103713,2.9874874587011124
4.1889,-13.3072,9.6172,-22.9162,7.6268,-23.9843,-2.234,-22.4523,-36.3604,-26.8378,-8.812,-6.9398,1.3822,5.78,-6.462466666666667,3.5811,-7.8759,-31.5991,-12.34315,S22,G2,Satisfaction,0.8555277382080453,-0.3236488890015773,-0.5,0.9836448809953706,1.1801936887041646,M,0.0201976967103713,2.9874874587011124
-10.1625,-6.4798,7.6485,-19.3104,4.8502,-20.2263,-6.2735,-21.8452,-29.078,-25.6912,5.1654,-9.7688,-1.947,9.6068,-7.28005,3.8299,-2.3017000000000003,-27.3846,-14.059349999999998,S22,G2,Satisfaction,0.8555277382080453,-0.3236488890015773,-0.5,0.9836448809953706,1.1801936887041646,M,0.0201976967103713,2.9874874587011124
-1.7575,2.2564,10.8999,-5.1672,8.2686,-7.8835,-10.5347,-6.4345,-13.2333,-19.513,0.2179,-7.3277,4.6619,13.6679,1.1027833333333332,9.1649,-3.5549,-16.373150000000003,-8.4846,S22,G2,Satisfaction,0.8555277382080453,-0.3236488890015773,-0.5,0.9836448809953706,1.1801936887041646,M,0.0201976967103713,2.9874874587011124
6.2313,-6.6905,12.5649,-8.1034,2.6717,-21.5104,0.76343,-14.1199,-16.8001,-29.9355,-13.2439,-10.1343,1.1368,2.1818,-2.4727333333333337,1.6593,-11.6891,-23.367800000000003,-6.678235,S22,G2,Satisfaction,0.8555277382080453,-0.3236488890015773,-0.5,0.9836448809953706,1.1801936887041646,M,0.0201976967103713,2.9874874587011124
-6.199,-11.8539,15.5204,-19.6737,-9.5451,-34.3198,14.8176,-24.402,-25.0668,-31.8488,-12.4488,-19.7282,-10.9888,-8.1511,-11.01185,-9.56995,-16.0885,-28.4578,-4.7922,S22,G2,Satisfaction,0.8555277382080453,-0.3236488890015773,-0.5,0.9836448809953706,1.1801936887041646,M,0.0201976967103713,2.9874874587011124
-5.8275,-2.7952,12.7343,-6.4368,5.1277,-18.1606,3.5385,-11.8086,-17.9989,-16.0261,-13.5568,-20.4003,-5.6928,-1.1699,-2.559683333333333,-3.43135,-16.978550000000002,-17.0125,-4.13505,S22,G2,Satisfaction,0.8555277382080453,-0.3236488890015773,-0.5,0.9836448809953706,1.1801936887041646,M,0.0201976967103713,2.9874874587011124
8.6221,4.7923,13.8256,4.1518,18.92,-2.971,-7.8035,2.9999,-2.8189,-0.96449,-7.179,-5.0763,8.7488,10.0299,7.890133333333334,9.38935,-6.12765,-1.891695,-2.4018,S22,G2,Satisfaction,0.8555277382080453,-0.3236488890015773,-0.5,0.9836448809953706,1.1801936887041646,M,0.0201976967103713,2.9874874587011124
4.6704,0.33079,11.6048,-10.1973,16.9449,0.9176,-1.3068,-7.1061,-7.9387,6.7886,-10.9213,-0.78548,10.3548,3.3997,4.045198333333333,6.87725,-5.85339,-0.5750500000000001,-4.20645,S22,G2,Satisfaction,0.8555277382080453,-0.3236488890015773,-0.5,0.9836448809953706,1.1801936887041646,M,0.0201976967103713,2.9874874587011124
4.3906,4.9485,16.4733,-9.8614,1.8282,1.7893,8.9735,-3.8976,-21.5624,14.7288,-15.8309,-13.723,-4.1784,-7.0063,3.261416666666666,-5.59235,-14.77695,-3.4168000000000003,2.5379499999999995,S22,G2,Satisfaction,0.8555277382080453,-0.3236488890015773,-0.5,0.9836448809953706,1.1801936887041646,M,0.0201976967103713,2.9874874587011124
15.7205,10.6796,26.1501,3.2508,-12.3815,5.8555,11.6814,1.437,-7.56,11.5261,-2.3605,-14.2913,5.8111,-9.8322,8.2125,-2.0105500000000003,-8.3259,1.98305,6.5592,S22,G2,Satisfaction,0.8555277382080453,-0.3236488890015773,-0.5,0.9836448809953706,1.1801936887041646,M,0.0201976967103713,2.9874874587011124
8.7488,0.30139,13.9155,1.6654,-3.8434,-8.5958,8.6619,-12.7492,6.9936,-3.2655,11.8811,-6.4773,14.2735,-6.9237,2.031981666666667,3.6749,2.7019,1.86405,-2.0436500000000004,S22,G2,Satisfaction,0.8555277382080453,-0.3236488890015773,-0.5,0.9836448809953706,1.1801936887041646,M,0.0201976967103713,2.9874874587011124
5.9044,-5.746,8.9066,1.1014,10.4872,-22.1801,5.8236,-20.1436,20.674,0.82889,25.2683,2.7216,18.5174,-4.1897,-0.254416666666667,7.163849999999999,13.99495,10.751445,-7.16,S22,G2,Satisfaction,0.8555277382080453,-0.3236488890015773,-0.5,0.9836448809953706,1.1801936887041646,M,0.0201976967103713,2.9874874587011124
12.5072,0.62763,22.4722,7.0642,12.4524,-6.7493,2.228,-6.4135,26.9425,14.8792,37.8522,6.7327,16.9437,-0.69203,8.062388333333335,8.125835,22.29245,20.91085,-2.09275,S22,G2,Satisfaction,0.8555277382080453,-0.3236488890015773,-0.5,0.9836448809953706,1.1801936887041646,M,0.0201976967103713,2.9874874587011124
-2.3433,-2.6563,22.7915,0.61143,-2.3947,-8.0111,-7.6445,-12.0576,11.2259,16.5805,21.481,11.4295,1.827,1.6685,1.332921666666666,1.74775,16.45525,13.9032,-9.85105,S22,G2,Satisfaction,0.8555277382080453,-0.3236488890015773,-0.5,0.9836448809953706,1.1801936887041646,M,0.0201976967103713,2.9874874587011124
-9.4352,-13.1625,7.324,-13.5253,-11.338,-16.3416,-12.287,-16.4354,-3.5476,1.4856,6.0922,7.4979,-12.0076,4.8142,-9.4131,-3.5967,6.79505,-1.031,-14.3612,S22,G2,Satisfaction,0.8555277382080453,-0.3236488890015773,-0.5,0.9836448809953706,1.1801936887041646,M,0.0201976967103713,2.9874874587011124
5.2309,-5.8807,15.8838,-9.2798,1.3996,-2.3756,-4.1296,-2.4637,6.3149,2.0487,-4.1998,-2.2267,-3.867,6.3803,0.8297000000000002,1.25665,-3.21325,4.1818,-3.29665,S22,G2,Satisfaction,0.8555277382080453,-0.3236488890015773,-0.5,0.9836448809953706,1.1801936887041646,M,0.0201976967103713,2.9874874587011124
5.1934,6.9936,27.4514,5.377,9.1999,1.9405,-9.9107,0.92946,5.4724,-1.3205,-4.4115,-0.70222,5.1766,12.0264,9.3593,8.6015,-2.55686,2.07595,-4.49062,S22,G2,Satisfaction,0.8555277382080453,-0.3236488890015773,-0.5,0.9836448809953706,1.1801936887041646,M,0.0201976967103713,2.9874874587011124
-9.2182,-2.238,14.2105,5.7944,-4.8012,-12.2759,-4.2149,-9.7919,-8.956,-12.835,-18.2468,-4.834,-9.234,6.2036,-1.4214,-1.5152,-11.5404,-10.8955,-7.0034,S22,G2,Satisfaction,0.8555277382080453,-0.3236488890015773,-0.5,0.9836448809953706,1.1801936887041646,M,0.0201976967103713,2.9874874587011124
-9.4046,-15.552,6.4022,2.2009,-18.6131,-21.5541,10.138,-11.523,-5.4483,-11.6008,-16.9643,-17.0641,-14.9848,-3.907,-9.420116666666669,-9.4459,-17.014200000000002,-8.52455,-0.6924999999999999,S22,G2,Satisfaction,0.8555277382080453,-0.3236488890015773,-0.5,0.9836448809953706,1.1801936887041646,M,0.0201976967103713,2.9874874587011124
0.43392,-19.256,4.1636,8.5605,-19.6272,-19.3336,11.6606,-14.5415,8.9786,-16.4692,-12.2357,-18.8229,-8.5204,0.9646,-7.509796666666666,-3.7779,-15.5293,-3.7453,-1.4404499999999991,S22,G2,Satisfaction,0.8555277382080453,-0.3236488890015773,-0.5,0.9836448809953706,1.1801936887041646,M,0.0201976967103713,2.9874874587011124
4.5818,-5.5796,8.0868,16.858,-4.3496,-18.6368,-3.139,-3.9306,14.2807,-15.0178,-5.4731,-3.5935,-14.0385,15.0067,0.1601000000000005,0.4840999999999997,-4.5333,-0.3685499999999999,-3.5348,S22,G2,Satisfaction,0.8555277382080453,-0.3236488890015773,-0.5,0.9836448809953706,1.1801936887041646,M,0.0201976967103713,2.9874874587011124
0.13298,-8.4907,6.2103,11.6725,-6.1308,-21.6925,-8.3274,-4.1589,-0.024403,-12.7254,-11.174,-6.3482,-27.2962,9.2815,-3.049703333333333,-9.00735,-8.761099999999999,-6.3749015,-6.24315,S22,G2,Satisfaction,0.8555277382080453,-0.3236488890015773,-0.5,0.9836448809953706,1.1801936887041646,M,0.0201976967103713,2.9874874587011124
-3.1213,-16.7928,8.1567,7.7259,-19.863,-13.4348,6.2723,-4.373,7.8605,-18.9181,-19.3142,-13.8508,-23.6158,-1.0142,-6.221550000000001,-12.315,-16.5825,-5.5288,0.94965,S22,G2,Satisfaction,0.8555277382080453,-0.3236488890015773,-0.5,0.9836448809953706,1.1801936887041646,M,0.0201976967103713,2.9874874587011124
-13.136,-13.9303,2.1016,5.4074,-13.3832,-13.5564,2.4615,-8.7482,6.4611,-25.2032,-16.3004,-12.0929,-19.4167,-2.8083,-7.749483333333333,-11.1125,-14.19665,-9.37105,-3.1433500000000003,S22,G2,Satisfaction,0.8555277382080453,-0.3236488890015773,-0.5,0.9836448809953706,1.1801936887041646,M,0.0201976967103713,2.9874874587011124
-4.464,-3.3561,7.0776,-0.017359,1.5198,-15.9889,-2.7874,-14.2517,3.7549,-9.591,-1.2224,1.1545,-21.4975,2.4614,-2.5381598333333333,-9.51805,-0.0339499999999999,-2.91805,-8.519549999999999,S22,G2,Satisfaction,0.8555277382080453,-0.3236488890015773,-0.5,0.9836448809953706,1.1801936887041646,M,0.0201976967103713,2.9874874587011124
1.8319,-9.1836,8.0438,-7.9006,-12.6714,-25.6965,0.62614,-18.4974,0.28335,-13.8408,-13.3941,-13.0147,-30.8737,-0.93253,-7.596066666666666,-15.903115,-13.2044,-6.778725,-8.93563,S22,G2,Satisfaction,0.8555277382080453,-0.3236488890015773,-0.5,0.9836448809953706,1.1801936887041646,M,0.0201976967103713,2.9874874587011124
-3.3788,-14.6606,-0.32224,-3.2531,-26.0111,-27.4009,0.12494,-12.2868,-2.9799,-27.1104,-23.2565,-26.3338,-22.9932,2.3688,-12.504456666666664,-10.3122,-24.79515,-15.04515,-6.08093,S22,G2,Satisfaction,0.8555277382080453,-0.3236488890015773,-0.5,0.9836448809953706,1.1801936887041646,M,0.0201976967103713,2.9874874587011124
-15.233,-14.7083,-6.7954,-4.9124,-19.1606,-25.756,1.9728,-12.4768,-1.873,-26.6869,-8.8761,-25.3057,-15.1202,0.37217,-14.427616666666664,-7.374015,-17.0909,-14.27995,-5.252000000000001,S22,G2,Satisfaction,0.8555277382080453,-0.3236488890015773,-0.5,0.9836448809953706,1.1801936887041646,M,0.0201976967103713,2.9874874587011124
-13.3917,-5.4787,1.0321,1.8749,-3.911,-27.9205,0.92633,-10.801,11.2236,-10.9857,1.858,-9.6873,-17.9238,-1.5047,-7.965816666666666,-9.71425,-3.91465,0.1189499999999998,-4.937335,S22,G2,Satisfaction,0.8555277382080453,-0.3236488890015773,-0.5,0.9836448809953706,1.1801936887041646,M,0.0201976967103713,2.9874874587011124
-1.9231,-2.8319,6.0709,4.0805,-13.6037,-29.4916,-3.3028,-3.1968,11.941,-2.6309,-4.2824,-4.1939,-12.6749,2.7591,-6.283149999999999,-4.9579,-4.23815,4.65505,-3.2498,S22,G2,Satisfaction,0.8555277382080453,-0.3236488890015773,-0.5,0.9836448809953706,1.1801936887041646,M,0.0201976967103713,2.9874874587011124
6.0766,-11.4726,7.0984,2.4448,-9.5403,-13.6221,2.9243,-0.68594,2.4139,0.77325,5.7143,-6.2604,2.1856,-1.5799,-3.1692,0.3028499999999999,-0.27305,1.593575,1.11918,S22,G2,Satisfaction,0.8555277382080453,-0.3236488890015773,-0.5,0.9836448809953706,1.1801936887041646,M,0.0201976967103713,2.9874874587011124
18.6966,-6.1467,15.9472,11.5729,5.1321,1.2953,16.8488,7.7018,11.5438,0.72641,19.4714,5.2444,11.6051,-6.1227,7.749566666666667,2.7412,12.3579,6.135104999999999,12.2753,S22,G2,Satisfaction,0.8555277382080453,-0.3236488890015773,-0.5,0.9836448809953706,1.1801936887041646,M,0.0201976967103713,2.9874874587011124
21.2851,-3.9229,17.7735,15.5161,7.4191,6.8711,29.9379,8.1683,17.3441,-7.6638,15.3328,11.4227,11.8374,-15.9573,10.823666666666668,-2.05995,13.37775,4.84015,19.0531,S22,G2,Satisfaction,0.8555277382080453,-0.3236488890015773,-0.5,0.9836448809953706,1.1801936887041646,M,0.0201976967103713,2.9874874587011124
13.9787,-6.0061,19.0248,20.6136,12.0743,10.6319,38.4318,4.4315,21.4047,4.3898,16.7314,13.056,24.5754,-23.811,11.719533333333333,0.3821999999999992,14.8937,12.89725,21.43165,S22,G2,Satisfaction,0.8555277382080453,-0.3236488890015773,-0.5,0.9836448809953706,1.1801936887041646,M,0.0201976967103713,2.9874874587011124
8.0392,-6.1094,22.9849,14.2751,25.4498,24.094,26.3871,6.4837,28.9311,12.0089,23.6109,12.7362,24.4918,-22.8468,14.788933333333333,0.8224999999999998,18.17355,20.47,16.4354,S22,G2,Satisfaction,0.8555277382080453,-0.3236488890015773,-0.5,0.9836448809953706,1.1801936887041646,M,0.0201976967103713,2.9874874587011124
7.5564,-6.6705,15.1129,5.072,16.7785,17.3585,10.7039,1.4571,16.0651,2.0137,11.0641,12.8997,10.0376,-30.7507,9.2013,-10.35655,11.9819,9.0394,6.080500000000001,S22,G2,Satisfaction,0.8555277382080453,-0.3236488890015773,-0.5,0.9836448809953706,1.1801936887041646,M,0.0201976967103713,2.9874874587011124
8.0307,-10.9079,1.2215,-0.79715,1.6718,2.4052,-1.8075,-12.7303,1.0012,0.96604,1.1256,16.7633,10.3631,-43.0057,0.2706916666666666,-16.3213,8.94445,0.98362,-7.2689,S22,G2,Satisfaction,0.8555277382080453,-0.3236488890015773,-0.5,0.9836448809953706,1.1801936887041646,M,0.0201976967103713,2.9874874587011124
0.59316,-9.7893,-0.24313,8.989,15.2079,7.3621,-2.1632,-15.9514,15.0411,15.0081,15.158,15.2935,23.8413,-48.1211,3.686621666666666,-12.1399,15.22575,15.0246,-9.0573,S22,G2,Satisfaction,0.8555277382080453,-0.3236488890015773,-0.5,0.9836448809953706,1.1801936887041646,M,0.0201976967103713,2.9874874587011124
-13.5424,-12.4478,-0.69173,16.3335,22.1793,-2.818,5.8505,-15.4584,28.2387,28.2076,28.3486,3.7103,36.5108,-39.2045,1.5021450000000005,-1.34685,16.02945,28.22315,-4.80395,S22,G2,Satisfaction,0.8555277382080453,-0.3236488890015773,-0.5,0.9836448809953706,1.1801936887041646,M,0.0201976967103713,2.9874874587011124
-22.7446,-23.2947,-3.896,10.2523,7.4003,-13.3145,19.5994,-27.051,33.3128,30.3128,21.171,16.9359,25.1337,-45.6633,-7.599533333333333,-10.2648,19.05345,31.812800000000003,-3.7258,S22,G2,Satisfaction,0.8555277382080453,-0.3236488890015773,-0.5,0.9836448809953706,1.1801936887041646,M,0.0201976967103713,2.9874874587011124
-27.4079,-29.7804,-17.111,6.3909,-7.1437,1.5843,6.1784,-35.1667,17.214,14.3941,7.3802,30.0197,9.5257,-57.0235,-12.244633333333333,-23.7489,18.69995,15.80405,-14.49415,S22,G2,Satisfaction,0.8555277382080453,-0.3236488890015773,-0.5,0.9836448809953706,1.1801936887041646,M,0.0201976967103713,2.9874874587011124
-22.9813,-13.8936,-22.5764,14.3549,-2.3535,15.5893,-3.467,-21.9275,16.8329,14.1822,9.7196,34.9866,5.8951,-46.4587,-5.310099999999999,-20.2818,22.3531,15.507549999999998,-12.69725,S22,G2,Satisfaction,0.8555277382080453,-0.3236488890015773,-0.5,0.9836448809953706,1.1801936887041646,M,0.0201976967103713,2.9874874587011124
-31.3407,-14.6394,-34.6709,-0.60637,7.5261,19.8429,1.8422,-34.7119,7.9391,1.7375,-4.3118,30.5688,-4.1969,-35.7873,-8.981395000000001,-19.9921,13.1285,4.8383,-16.43485,S22,G2,Satisfaction,0.8555277382080453,-0.3236488890015773,-0.5,0.9836448809953706,1.1801936887041646,M,0.0201976967103713,2.9874874587011124
-30.8521,-21.6444,-29.3444,-1.31,-7.0255,6.1309,15.8317,-43.5716,5.1438,-11.8154,-9.1547,30.1255,-14.6112,-35.9591,-14.007583333333336,-25.28515,10.485399999999998,-3.3358000000000003,-13.86995,S22,G2,Satisfaction,0.8555277382080453,-0.3236488890015773,-0.5,0.9836448809953706,1.1801936887041646,M,0.0201976967103713,2.9874874587011124
-27.6092,-17.0995,-19.7003,5.7248,-20.7039,9.9375,5.4189,-30.2903,7.1541,-11.5701,-4.4319,22.29,-21.6179,-40.7577,-11.5751,-31.1878,8.92905,-2.208,-12.4357,S22,G2,Satisfaction,0.8555277382080453,-0.3236488890015773,-0.5,0.9836448809953706,1.1801936887041646,M,0.0201976967103713,2.9874874587011124
-20.8514,-5.4079,-23.6186,12.3379,-5.3617,21.8622,-5.5718,-25.2271,19.2459,3.2241,4.6451,32.5463,-18.9295,-24.2122,-3.506583333333334,-21.57085,18.5957,11.235,-15.39945,S22,G2,Satisfaction,0.8555277382080453,-0.3236488890015773,-0.5,0.9836448809953706,1.1801936887041646,M,0.0201976967103713,2.9874874587011124
-14.9632,-13.4305,-28.6949,10.6695,9.06,14.0579,-1.5276,-37.8135,10.6714,17.1306,3.4391,41.7223,-24.2863,-10.4262,-3.883533333333333,-17.35625,22.5807,13.901,-19.67055,S22,G2,Satisfaction,0.8555277382080453,-0.3236488890015773,-0.5,0.9836448809953706,1.1801936887041646,M,0.0201976967103713,2.9874874587011124
-13.6022,-22.363,-18.1613,5.8562,-5.5836,18.3157,5.5198,-27.4731,7.7125,21.2927,2.7687,39.6831,-23.2932,-9.3366,-5.923033333333332,-16.3149,21.225900000000003,14.5026,-10.97665,S22,G2,Satisfaction,0.8555277382080453,-0.3236488890015773,-0.5,0.9836448809953706,1.1801936887041646,M,0.0201976967103713,2.9874874587011124
-26.8861,-30.76,-23.1005,1.3305,-19.3486,21.3902,6.5795,-23.5066,11.4233,17.6961,-4.3536,31.2732,-19.5766,-6.4582,-12.89575,-13.0174,13.4598,14.5597,-8.46355,S22,G2,Satisfaction,0.8555277382080453,-0.3236488890015773,-0.5,0.9836448809953706,1.1801936887041646,M,0.0201976967103713,2.9874874587011124
-36.2144,-25.6677,-35.1627,5.4246,-4.0877,9.4412,12.214,-33.6891,7.492,22.6628,-0.84565,36.3534,-11.4454,8.0293,-14.377783333333332,-1.70805,17.753875,15.0774,-10.737550000000002,S22,G2,Satisfaction,0.8555277382080453,-0.3236488890015773,-0.5,0.9836448809953706,1.1801936887041646,M,0.0201976967103713,2.9874874587011124
-32.1866,-22.2727,-34.9079,0.46153,2.8378,-5.2252,-2.6188,-35.3781,3.3322,19.4481,-0.79535,25.8247,-12.6136,18.954,-15.215511666666666,3.1702000000000004,12.514675,11.39015,-18.99845,S22,G2,Satisfaction,0.8555277382080453,-0.3236488890015773,-0.5,0.9836448809953706,1.1801936887041646,M,0.0201976967103713,2.9874874587011124
-18.1981,-17.2269,-18.7134,13.4184,-11.4325,9.1874,-6.9111,-19.1554,11.4797,8.0792,1.1073,23.3475,-2.5829,25.2361,-7.160849999999999,11.3266,12.2274,9.77945,-13.03325,S22,G2,Satisfaction,0.8555277382080453,-0.3236488890015773,-0.5,0.9836448809953706,1.1801936887041646,M,0.0201976967103713,2.9874874587011124
-23.1351,-24.0767,-18.2424,11.2225,-21.2244,10.0279,-5.1056,-13.0925,2.9075,-6.5055,-4.0599,26.1211,-7.5287,17.6939,-10.9047,5.082599999999999,11.0306,-1.7989999999999997,-9.09905,S22,G2,Satisfaction,0.8555277382080453,-0.3236488890015773,-0.5,0.9836448809953706,1.1801936887041646,M,0.0201976967103713,2.9874874587011124
-20.8197,-17.9949,-15.2933,11.4764,-11.6039,2.0065,-7.5819,-10.4525,11.0801,-6.3911,0.82084,36.6107,-8.0043,24.9793,-8.704816666666666,8.487499999999999,18.71577,2.3445,-9.0172,S22,G2,Satisfaction,0.8555277382080453,-0.3236488890015773,-0.5,0.9836448809953706,1.1801936887041646,M,0.0201976967103713,2.9874874587011124
-29.7725,-19.6974,-16.2307,11.7155,-23.8923,-1.8243,-13.6191,-8.8976,20.6173,-3.2255,-7.5759,39.0517,-4.7418,31.828,-13.283616666666664,13.5431,15.737899999999998,8.6959,-11.25835,S22,G2,Satisfaction,0.8555277382080453,-0.3236488890015773,-0.5,0.9836448809953706,1.1801936887041646,M,0.0201976967103713,2.9874874587011124
-34.0151,-20.8346,-19.4303,16.1133,-28.4877,-4.9611,-2.1359,-10.6819,17.9894,-5.3509,-5.7296,29.7524,-3.9937,22.9622,-15.26925,9.48425,12.011400000000002,6.31925,-6.4089,S22,G2,Satisfaction,0.8555277382080453,-0.3236488890015773,-0.5,0.9836448809953706,1.1801936887041646,M,0.0201976967103713,2.9874874587011124
-22.699,-29.7869,-23.8289,14.2193,-21.214,-13.0104,-9.4275,-13.7518,3.925,-0.39186,2.9612,13.8673,-13.0283,7.4844,-16.053316666666667,-2.77195,8.41425,1.76657,-11.58965,S22,G2,Satisfaction,0.8555277382080453,-0.3236488890015773,-0.5,0.9836448809953706,1.1801936887041646,M,0.0201976967103713,2.9874874587011124
-13.4541,-38.6653,-18.2261,8.2649,-7.4202,-5.2741,-3.7606,-11.5353,6.008,6.5874,3.2467,9.9762,-11.7834,4.9036,-12.462483333333331,-3.4399,6.6114500000000005,6.2977,-7.64795,S22,G2,Satisfaction,0.8555277382080453,-0.3236488890015773,-0.5,0.9836448809953706,1.1801936887041646,M,0.0201976967103713,2.9874874587011124
-22.8484,-41.9107,-14.3499,4.9864,-16.2493,-4.9577,10.565,-13.625,5.6484,-7.9079,-7.1496,12.1603,-16.6408,17.5945,-15.888266666666668,0.4768500000000006,2.5053499999999995,-1.12975,-1.5300000000000002,S22,G2,Satisfaction,0.8555277382080453,-0.3236488890015773,-0.5,0.9836448809953706,1.1801936887041646,M,0.0201976967103713,2.9874874587011124
-21.9416,-33.3667,-9.3149,7.0066,-27.7953,-9.7605,12.9892,1.2925,15.9751,5.2753,3.0177,21.169,-14.2511,17.0028,-15.862066666666667,1.375850000000001,12.09335,10.6252,7.14085,S22,G2,Satisfaction,0.8555277382080453,-0.3236488890015773,-0.5,0.9836448809953706,1.1801936887041646,M,0.0201976967103713,2.9874874587011124
-18.3065,-33.6842,-12.93,5.1949,-18.2437,-10.5662,-1.8901,11.2288,18.2624,19.0588,11.6478,30.5654,-10.1502,13.6641,-14.75595,1.7569499999999998,21.1066,18.6606,4.66935,S22,G2,Satisfaction,0.8555277382080453,-0.3236488890015773,-0.5,0.9836448809953706,1.1801936887041646,M,0.0201976967103713,2.9874874587011124
-19.5262,-36.7639,-12.6178,7.2014,-28.7424,-19.671,-10.8637,-2.8927,4.6462,5.6702,4.92,21.7753,-10.932,20.7277,-18.353316666666668,4.897849999999999,13.347650000000002,5.158200000000001,-6.8782,S22,G2,Satisfaction,0.8555277382080453,-0.3236488890015773,-0.5,0.9836448809953706,1.1801936887041646,M,0.0201976967103713,2.9874874587011124
-24.8476,-47.5426,-13.7157,-4.3599,-41.1178,-32.5908,-6.5016,-15.7038,-6.7618,-8.77,-6.5044,6.3688,-12.1311,23.1943,-27.3624,5.531599999999999,-0.0678,-7.7659,-11.1027,S22,G2,Satisfaction,0.8555277382080453,-0.3236488890015773,-0.5,0.9836448809953706,1.1801936887041646,M,0.0201976967103713,2.9874874587011124
-22.4291,-37.2699,-16.6022,-5.9533,-24.5508,-28.5922,-7.0392,-0.66154,1.9905,-10.8379,-12.6062,2.4645,-5.8384,30.1493,-22.56625,12.15545,-5.07085,-4.4237,-3.85037,S22,G2,Satisfaction,0.8555277382080453,-0.3236488890015773,-0.5,0.9836448809953706,1.1801936887041646,M,0.0201976967103713,2.9874874587011124
-15.0549,-20.9337,-19.78,4.1422,-8.9777,-12.7767,-12.6453,13.4782,4.1896,-7.869,-16.9511,11.1277,-2.2422,28.8044,-12.230133333333336,13.2811,-2.9117,-1.8397,0.4164499999999993,S22,G2,Satisfaction,0.8555277382080453,-0.3236488890015773,-0.5,0.9836448809953706,1.1801936887041646,M,0.0201976967103713,2.9874874587011124
-9.0499,-8.7361,-15.347,4.3573,-14.1916,2.0899,-20.6981,16.9312,-3.017,-21.4969,-15.4704,-3.64,-10.9184,20.12,-6.8129,4.6008,-9.5552,-12.25695,-1.88345,S22,G2,Satisfaction,0.8555277382080453,-0.3236488890015773,-0.5,0.9836448809953706,1.1801936887041646,M,0.0201976967103713,2.9874874587011124
5.5931,2.9173,-6.0796,6.8781,-20.7603,16.0645,-13.8914,29.8272,-3.7637,-34.3071,-13.6154,-12.9722,-20.4661,29.1147,0.7688499999999999,4.324299999999999,-13.2938,-19.0354,7.9679,S22,G2,Satisfaction,0.8555277382080453,-0.3236488890015773,-0.5,0.9836448809953706,1.1801936887041646,M,0.0201976967103713,2.9874874587011124
3.6785,5.9885,-18.2353,-2.3452,-22.761,29.2006,-17.2314,34.9937,-15.1312,-31.8728,-26.8984,-4.3105,-28.9761,20.4117,-0.7456499999999989,-4.2822,-15.60445,-23.502,8.881149999999998,S22,G2,Satisfaction,0.8555277382080453,-0.3236488890015773,-0.5,0.9836448809953706,1.1801936887041646,M,0.0201976967103713,2.9874874587011124
-8.136,7.0205,-18.5325,4.7512,-35.4953,41.5486,-30.2975,33.3573,-15.6146,-20.2221,-26.9509,4.7592,-17.4991,15.0139,-1.4739166666666663,-1.2425999999999997,-11.09585,-17.91835,1.5299000000000014,S22,G2,Satisfaction,0.8555277382080453,-0.3236488890015773,-0.5,0.9836448809953706,1.1801936887041646,M,0.0201976967103713,2.9874874587011124
-17.3866,7.0629,-14.1743,13.2776,-47.4656,53.1557,-37.5667,23.4724,-8.6497,-8.3427,-28.5801,1.2274,-16.9128,19.2139,-0.9217166666666672,1.150549999999999,-13.67635,-8.4962,-7.047149999999999,S22,G2,Satisfaction,0.8555277382080453,-0.3236488890015773,-0.5,0.9836448809953706,1.1801936887041646,M,0.0201976967103713,2.9874874587011124
-9.8509,14.9862,-9.614,13.4082,-58.7177,40.0282,-21.2127,31.3393,5.9692,6.2578,-24.0835,11.3562,-17.7534,25.4808,-1.6266666666666676,3.8637,-6.363650000000001,6.1135,5.0633,S22,G2,Satisfaction,0.8555277382080453,-0.3236488890015773,-0.5,0.9836448809953706,1.1801936887041646,M,0.0201976967103713,2.9874874587011124
-10.6503,17.3337,-13.2102,6.5753,-41.0946,26.0328,-5.84,35.4874,4.033,15.433,-22.1745,23.1958,-11.587,23.4888,-2.5022166666666656,5.950900000000001,0.51065,9.733,14.8237,S22,G2,Satisfaction,0.8555277382080453,-0.3236488890015773,-0.5,0.9836448809953706,1.1801936887041646,M,0.0201976967103713,2.9874874587011124
-19.7505,14.9023,-13.8098,4.7894,-24.5289,36.9918,-19.5896,26.4015,-3.1656,8.4777,-23.1626,23.1954,-2.0807,32.745,-0.2342833333333326,15.33215,0.016399999999999,2.6560500000000005,3.405949999999999,S22,G2,Satisfaction,0.8555277382080453,-0.3236488890015773,-0.5,0.9836448809953706,1.1801936887041646,M,0.0201976967103713,2.9874874587011124
-16.2464,11.6901,-6.9523,9.6028,-34.4632,48.8723,-23.7026,28.0646,3.9805,11.2162,-14.8167,25.9772,5.0003,30.3167,2.083883333333334,17.6585,5.58025,7.59835,2.180999999999999,S22,G2,Satisfaction,0.8555277382080453,-0.3236488890015773,-0.5,0.9836448809953706,1.1801936887041646,M,0.0201976967103713,2.9874874587011124
-14.808,8.6697,-10.7087,8.5631,-46.4954,52.2448,-19.9624,33.336,3.278,-3.5568,-12.5368,26.7375,5.1639,14.3977,-0.4224166666666669,9.7808,7.100350000000001,-0.1393999999999999,6.6868,S22,G2,Satisfaction,0.8555277382080453,-0.3236488890015773,-0.5,0.9836448809953706,1.1801936887041646,M,0.0201976967103713,2.9874874587011124
-19.9489,4.9028,-12.3847,2.0208,-29.6057,35.661,-28.503,25.3074,-0.16536,-17.4434,-19.6684,15.3941,4.39,7.2295,-3.2257833333333323,5.809749999999999,-2.137149999999999,-8.80438,-1.5977999999999994,S22,G2,Satisfaction,0.8555277382080453,-0.3236488890015773,-0.5,0.9836448809953706,1.1801936887041646,M,0.0201976967103713,2.9874874587011124
-18.2874,2.2905,2.4584,8.8557,-13.7294,21.0008,-14.2714,20.5427,8.6561,-22.0499,-17.0966,0.37042,7.3729,10.042,0.4314333333333333,8.70745,-8.36309,-6.6969,3.13565,S22,G2,Satisfaction,0.8555277382080453,-0.3236488890015773,-0.5,0.9836448809953706,1.1801936887041646,M,0.0201976967103713,2.9874874587011124
-10.6981,2.1526,15.5714,16.671,-20.9767,16.0304,0.68492,19.3097,22.2367,-25.3653,-9.5787,-13.7518,17.1325,-1.6907,3.1251,7.7209,-11.66525,-1.5643000000000011,9.99731,S22,G2,Satisfaction,0.8555277382080453,-0.3236488890015773,-0.5,0.9836448809953706,1.1801936887041646,M,0.0201976967103713,2.9874874587011124
-13.3029,-4.9323,7.6805,10.5704,-25.7466,7.1856,11.1213,7.4855,29.5255,-33.5809,-12.2498,-12.5504,26.771,-2.9805,-3.0908833333333328,11.89525,-12.4001,-2.0276999999999994,9.3034,S22,G2,Satisfaction,0.8555277382080453,-0.3236488890015773,-0.5,0.9836448809953706,1.1801936887041646,M,0.0201976967103713,2.9874874587011124
-18.5328,-15.3024,-4.3736,6.6899,-27.448,10.928,5.3532,5.6455,28.2176,-17.466,-13.8338,-0.20411,23.7739,11.2983,-8.006483333333334,17.5361,-7.018955,5.3758,5.49935,S22,G2,Satisfaction,0.8555277382080453,-0.3236488890015773,-0.5,0.9836448809953706,1.1801936887041646,M,0.0201976967103713,2.9874874587011124
-22.0584,-18.0945,-4.1107,10.9261,-39.713,15.8371,3.1771,19.4067,23.7423,-2.3181,-11.1488,13.9081,16.7826,18.3165,-9.535566666666666,17.54955,1.3796499999999998,10.7121,11.2919,S22,G2,Satisfaction,0.8555277382080453,-0.3236488890015773,-0.5,0.9836448809953706,1.1801936887041646,M,0.0201976967103713,2.9874874587011124
-29.0819,-16.0807,-8.5012,10.2705,-26.2006,0.7869,0.20384,18.0542,13.9708,11.921,-12.3344,24.9433,11.1385,19.072,-11.467833333333331,15.10525,6.30445,12.9459,9.12902,S22,G2,Satisfaction,0.8555277382080453,-0.3236488890015773,-0.5,0.9836448809953706,1.1801936887041646,M,0.0201976967103713,2.9874874587011124
-26.8734,-16.5077,-12.1656,3.6254,-10.5285,-13.3603,1.5825,6.3049,12.668,25.3058,-14.8406,20.1996,1.6586,19.3186,-12.635016666666669,10.4886,2.6795,18.9869,3.9437,S22,G2,Satisfaction,0.8555277382080453,-0.3236488890015773,-0.5,0.9836448809953706,1.1801936887041646,M,0.0201976967103713,2.9874874587011124
-21.5506,-8.097,-2.16,8.9727,-23.9968,1.5413,2.4152,16.1295,20.2554,34.1654,-20.4423,19.9162,0.63144,10.7401,-7.5484,5.68577,-0.2630499999999998,27.2104,9.27235,S22,G2,Satisfaction,0.8555277382080453,-0.3236488890015773,-0.5,0.9836448809953706,1.1801936887041646,M,0.0201976967103713,2.9874874587011124
-17.0122,-2.5104,5.853,19.1004,-32.7599,15.5488,-1.9032,23.9724,9.3013,27.0147,-25.2446,10.8369,4.7671,6.8495,-1.963383333333334,5.8083,-7.203849999999999,18.158,11.0346,S22,G2,Satisfaction,0.8555277382080453,-0.3236488890015773,-0.5,0.9836448809953706,1.1801936887041646,M,0.0201976967103713,2.9874874587011124
-6.7163,-8.8523,3.6464,7.7519,-16.6943,2.5585,3.7763,8.434,-5.1691,11.2938,-33.0051,-3.9133,-9.4313,1.8014,-3.051016666666667,-3.81495,-18.4592,3.0623499999999995,6.10515,S22,G2,Satisfaction,0.8555277382080453,-0.3236488890015773,-0.5,0.9836448809953706,1.1801936887041646,M,0.0201976967103713,2.9874874587011124
7.7867,1.4176,17.5276,12.3885,-1.5926,8.4339,17.6497,7.652,8.5897,-3.4838,-37.0528,-17.7785,-13.0389,-12.4067,7.660283333333335,-12.7228,-27.41565,2.55295,12.65085,S22,G2,Satisfaction,0.8555277382080453,-0.3236488890015773,-0.5,0.9836448809953706,1.1801936887041646,M,0.0201976967103713,2.9874874587011124
18.2614,11.0714,30.2006,23.2385,-13.0021,13.0287,20.1129,21.2929,21.523,-17.3748,-33.4388,-30.8118,0.26486,-23.5315,13.79975,-11.63332,-32.1253,2.0741,20.7029,S22,G2,Satisfaction,0.8555277382080453,-0.3236488890015773,-0.5,0.9836448809953706,1.1801936887041646,M,0.0201976967103713,2.9874874587011124
4.1811,8.5521,19.1138,18.1347,-20.5695,-1.6649,4.9934,22.1462,18.3767,-25.0439,-26.7949,-33.0367,5.8138,-11.9177,4.62455,-3.05195,-29.9158,-3.333600000000001,13.5698,S22,G2,Satisfaction,0.8555277382080453,-0.3236488890015773,-0.5,0.9836448809953706,1.1801936887041646,M,0.0201976967103713,2.9874874587011124
-6.7358,5.72,9.1555,24.0019,-5.2353,-11.3038,18.1425,14.7885,17.7377,-18.4405,-24.7235,-37.0834,3.146,-4.2465,2.6004166666666664,-0.5502500000000001,-30.90345,-0.3513999999999999,16.4655,S22,G2,Satisfaction,0.8555277382080453,-0.3236488890015773,-0.5,0.9836448809953706,1.1801936887041646,M,0.0201976967103713,2.9874874587011124
-14.6791,-8.7232,6.7512,22.5622,9.1788,-9.6979,23.546,15.7562,25.9482,-12.6965,-17.6753,-37.6406,3.8849,-16.9763,0.8986666666666668,-6.545699999999999,-27.65795,6.62585,19.6511,S22,G2,Satisfaction,0.8555277382080453,-0.3236488890015773,-0.5,0.9836448809953706,1.1801936887041646,M,0.0201976967103713,2.9874874587011124
-14.262,-16.8232,11.4478,16.1068,-5.4719,-6.7979,11.4672,9.71,29.4921,-4.9786,-2.5148,-21.2822,14.3178,-20.1321,-2.6334,-2.907150000000001,-11.8985,12.25675,10.5886,S22,G2,Satisfaction,0.8555277382080453,-0.3236488890015773,-0.5,0.9836448809953706,1.1801936887041646,M,0.0201976967103713,2.9874874587011124
-8.3055,-5.1469,11.2245,21.1693,-19.2436,-20.49,20.518,7.7366,20.7673,0.4218,-1.6243,-5.9052,16.705,-13.8225,-3.4653666666666663,1.4412499999999993,-3.76475,10.59455,14.1273,S22,G2,Satisfaction,0.8555277382080453,-0.3236488890015773,-0.5,0.9836448809953706,1.1801936887041646,M,0.0201976967103713,2.9874874587011124
-7.8072,-6.6935,3.1313,15.262,-15.7704,-33.3606,12.7944,5.417,19.5212,5.9609,-15.6269,-17.056,6.4276,-24.1228,-7.539733333333333,-8.8476,-16.341450000000002,12.74105,9.1057,S22,G2,Satisfaction,0.8555277382080453,-0.3236488890015773,-0.5,0.9836448809953706,1.1801936887041646,M,0.0201976967103713,2.9874874587011124
1.4724,-6.7559,7.1165,19.4466,-0.72418,-23.5634,-2.0733,5.556,32.45,19.7032,-5.6905,-29.4817,8.3605,-26.8494,-0.5013299999999999,-9.24445,-17.586100000000002,26.0766,1.74135,S22,G2,Satisfaction,0.8555277382080453,-0.3236488890015773,-0.5,0.9836448809953706,1.1801936887041646,M,0.0201976967103713,2.9874874587011124
6.9489,-8.2055,10.3998,24.7728,-14.7807,-22.1491,5.1949,3.3677,44.603,15.0871,-1.6387,-28.6396,3.2222,-27.0934,-0.5023000000000005,-11.9356,-15.13915,29.84505,4.2813,S22,G2,Satisfaction,0.8555277382080453,-0.3236488890015773,-0.5,0.9836448809953706,1.1801936887041646,M,0.0201976967103713,2.9874874587011124
0.039834,-18.8429,8.8481,15.8662,-27.9939,-32.8775,6.7382,1.3107,37.3774,3.9799,-8.9606,-20.4292,-5.3186,-31.0326,-9.160027666666666,-18.1756,-14.6949,20.67865,4.02445,S22,G2,Satisfaction,0.8555277382080453,-0.3236488890015773,-0.5,0.9836448809953706,1.1801936887041646,M,0.0201976967103713,2.9874874587011124
-8.7732,-22.813,2.2892,7.959,-12.2143,-25.8037,-2.4768,5.4056,35.5984,4.2047,-1.4668,-10.3919,-6.3904,-23.1418,-9.892666666666663,-14.7661,-5.92935,19.90155,1.4644,S22,G2,Satisfaction,0.8555277382080453,-0.3236488890015773,-0.5,0.9836448809953706,1.1801936887041646,M,0.0201976967103713,2.9874874587011124
-12.8844,-20.517,-3.4138,-2.7214,1.5037,-36.3128,-2.3286,-3.2662,23.2596,-10.1476,-11.5808,-18.1158,-15.2826,-21.7537,-12.390949999999998,-18.51815,-14.8483,6.555999999999999,-2.7974,S22,G2,Satisfaction,0.8555277382080453,-0.3236488890015773,-0.5,0.9836448809953706,1.1801936887041646,M,0.0201976967103713,2.9874874587011124
-2.8366,-5.186,6.9938,7.6438,-12.6866,-29.4965,2.4487,4.35,20.0091,-12.1337,-15.5235,-12.3922,-12.5107,-13.0283,-5.928016666666667,-12.7695,-13.95785,3.9377,3.39935,S22,G2,Satisfaction,0.8555277382080453,-0.3236488890015773,-0.5,0.9836448809953706,1.1801936887041646,M,0.0201976967103713,2.9874874587011124
-4.5214,1.43,3.792,17.3881,-21.012,-13.6267,4.1567,18.189,28.0842,2.6944,-0.49211,2.4513,-1.5572,0.73804,-2.758333333333333,-0.4095799999999999,0.979595,15.3893,11.17285,S22,G2,Satisfaction,0.8555277382080453,-0.3236488890015773,-0.5,0.9836448809953706,1.1801936887041646,M,0.0201976967103713,2.9874874587011124
-16.3074,-6.076,-4.783,13.5617,-9.5493,1.2909,4.835,23.4016,29.1813,16.6327,13.6374,6.7537,-1.4642,2.5487,-3.643850000000001,0.5422500000000001,10.19555,22.907,14.1183,S22,G2,Satisfaction,0.8555277382080453,-0.3236488890015773,-0.5,0.9836448809953706,1.1801936887041646,M,0.0201976967103713,2.9874874587011124
-1.4167,6.3463,6.6337,22.0232,-1.5565,2.693,-1.9476,21.9984,27.4304,27.3172,17.0809,14.6964,12.7237,7.9611,5.787166666666667,10.3424,15.88865,27.3738,10.0254,S22,G2,Satisfaction,0.8555277382080453,-0.3236488890015773,-0.5,0.9836448809953706,1.1801936887041646,M,0.0201976967103713,2.9874874587011124
2.3782,5.9656,6.2356,20.7018,-15.5631,2.5314,-4.6125,14.1859,18.3648,16.403,16.9842,4.5403,21.0477,9.3379,3.70825,15.192799999999998,10.762250000000002,17.383899999999997,4.7867,S22,G2,Satisfaction,0.8555277382080453,-0.3236488890015773,-0.5,0.9836448809953706,1.1801936887041646,M,0.0201976967103713,2.9874874587011124
-11.8645,-3.668,-8.2385,9.2577,-28.7293,2.3791,-0.62631,7.7691,7.9882,1.3188,5.7623,-9.8321,5.6848,8.7781,-6.810583333333333,7.231450000000001,-2.0349000000000004,4.6535,3.571395,S22,G2,Satisfaction,0.8555277382080453,-0.3236488890015773,-0.5,0.9836448809953706,1.1801936887041646,M,0.0201976967103713,2.9874874587011124
-19.3124,-1.5925,-17.7585,-1.5002,-12.9056,3.1636,-8.0085,5.4484,5.6536,6.0649,-8.6834,-14.6202,-8.7562,4.5415,-8.3176,-2.10735,-11.6518,5.859249999999999,-1.2800499999999997,S22,G2,Satisfaction,0.8555277382080453,-0.3236488890015773,-0.5,0.9836448809953706,1.1801936887041646,M,0.0201976967103713,2.9874874587011124
-4.0537,12.603,-2.7806,3.227,1.9687,17.0738,-1.0355,19.2215,12.7341,14.9753,-22.2624,0.35702,-11.5658,7.0508,4.673033333333333,-2.2575,-10.95269,13.8547,9.093,S22,G2,Satisfaction,0.8555277382080453,-0.3236488890015773,-0.5,0.9836448809953706,1.1801936887041646,M,0.0201976967103713,2.9874874587011124
8.0588,25.9469,0.16795,6.7432,-6.4968,30.1494,-2.8287,27.1548,-1.0141,-0.023203,-31.681,-13.7644,-12.7264,6.6277,10.761575,-3.04935,-22.7227,-0.5186515,12.16305,S22,G2,Satisfaction,0.8555277382080453,-0.3236488890015773,-0.5,0.9836448809953706,1.1801936887041646,M,0.0201976967103713,2.9874874587011124
21.6753,35.6075,1.5492,1.2374,7.993,42.4404,-2.1949,16.7144,-15.0533,-14.1218,-37.664,-27.0385,-17.064,5.7669,18.41713333333333,-5.64855,-32.35125,-14.58755,7.25975,S22,G2,Satisfaction,0.8555277382080453,-0.3236488890015773,-0.5,0.9836448809953706,1.1801936887041646,M,0.0201976967103713,2.9874874587011124
28.5341,37.645,-2.7177,-9.5024,21.6134,29.1285,12.0368,5.046,-27.8747,-27.3745,-49.5041,-39.5162,-22.0686,-8.6792,17.45015,-15.3739,-44.51015,-27.6246,8.5414,S22,G2,Satisfaction,0.8555277382080453,-0.3236488890015773,-0.5,0.9836448809953706,1.1801936887041646,M,0.0201976967103713,2.9874874587011124
35.1695,38.1685,-3.4824,-10.7872,25.5051,13.2808,20.8648,8.4526,-12.1022,-28.8784,-43.0999,-34.9149,-17.9623,-15.855,16.30905,-16.90865,-39.0074,-20.4903,14.6587,S22,G2,Satisfaction,0.8555277382080453,-0.3236488890015773,-0.5,0.9836448809953706,1.1801936887041646,M,0.0201976967103713,2.9874874587011124
43.2618,31.2413,-2.3453,-9.2127,36.9608,-1.6161,5.5129,0.5266,-1.3618,-27.1457,-26.4139,-43.9488,-6.6821,-18.6127,16.381633333333333,-12.6474,-35.18135,-14.25375,3.01975,S22,G2,Satisfaction,0.8555277382080453,-0.3236488890015773,-0.5,0.9836448809953706,1.1801936887041646,M,0.0201976967103713,2.9874874587011124
49.4771,34.468,7.5338,-7.2686,20.6431,-10.8816,-2.5132,-12.0269,-15.3801,-39.6169,-12.4958,-55.4119,-1.18,-21.6699,15.661966666666665,-11.42495,-33.95385,-27.4985,-7.270049999999999,S22,G2,Satisfaction,0.8555277382080453,-0.3236488890015773,-0.5,0.9836448809953706,1.1801936887041646,M,0.0201976967103713,2.9874874587011124
55.7832,46.4999,17.2837,-4.9776,27.4756,0.9005,11.7376,1.6802,-24.0075,-31.0233,-21.948,-46.7987,-3.8914,-13.8776,23.82755,-8.8845,-34.37335,-27.5154,6.7089,S22,G2,Satisfaction,0.8555277382080453,-0.3236488890015773,-0.5,0.9836448809953706,1.1801936887041646,M,0.0201976967103713,2.9874874587011124
52.8999,52.3324,14.8558,-1.4327,39.9271,-6.1097,25.1334,7.6074,-12.8291,-15.0619,-34.7311,-29.8908,-6.9042,-2.3789,25.412133333333333,-4.6415500000000005,-32.31095,-13.9455,16.3704,S22,G2,Satisfaction,0.8555277382080453,-0.3236488890015773,-0.5,0.9836448809953706,1.1801936887041646,M,0.0201976967103713,2.9874874587011124
55.7543,42.2368,19.0657,1.8991,51.6315,-19.8431,29.7416,-3.5146,-24.5804,-12.491,-46.7473,-31.9954,-11.5911,6.5749,25.12405,-2.5081,-39.37135,-18.5357,13.113499999999998,S22,G2,Satisfaction,0.8555277382080453,-0.3236488890015773,-0.5,0.9836448809953706,1.1801936887041646,M,0.0201976967103713,2.9874874587011124
57.5107,27.182,16.5309,-3.3156,62.6336,-32.7525,19.1465,-17.4037,-30.0608,-25.8415,-56.088,-44.1756,-10.432,5.7168,21.298183333333338,-2.3576,-50.1318,-27.95115,0.8713999999999995,S22,G2,Satisfaction,0.8555277382080453,-0.3236488890015773,-0.5,0.9836448809953706,1.1801936887041646,M,0.0201976967103713,2.9874874587011124
51.7406,20.4499,8.5824,1.0564,66.6586,-44.8874,24.0261,-30.4595,-14.1572,-38.391,-38.6227,-55.6251,-0.067774,3.0552,17.26675,1.493713,-47.123900000000006,-26.2741,-3.2166999999999994,S22,G2,Satisfaction,0.8555277382080453,-0.3236488890015773,-0.5,0.9836448809953706,1.1801936887041646,M,0.0201976967103713,2.9874874587011124
37.507,10.8754,8.067,-4.5718,48.5591,-56.2941,31.8593,-30.1119,0.79227,-43.1319,-33.2468,-57.4766,2.7185,-9.1855,7.3571,-3.2335,-45.3617,-21.169815,0.8737000000000013,S22,G2,Satisfaction,0.8555277382080453,-0.3236488890015773,-0.5,0.9836448809953706,1.1801936887041646,M,0.0201976967103713,2.9874874587011124
32.4739,7.4403,16.8582,2.195,36.5585,-67.0165,35.5121,-17.1751,6.3974,-42.399,-23.8322,-56.8102,16.4677,-12.3442,4.751566666666669,2.06175,-40.321200000000005,-18.0008,9.168499999999998,S22,G2,Satisfaction,0.8555277382080453,-0.3236488890015773,-0.5,0.9836448809953706,1.1801936887041646,M,0.0201976967103713,2.9874874587011124
21.7153,-7.1061,7.9637,3.4546,48.465,-77.0955,23.6439,-30.2446,12.9692,-39.391,-8.3023,-54.7925,24.2907,-25.7036,-0.4338333333333324,-0.7064500000000002,-31.5474,-13.2109,-3.30035,S22,G2,Satisfaction,0.8555277382080453,-0.3236488890015773,-0.5,0.9836448809953706,1.1801936887041646,M,0.0201976967103713,2.9874874587011124
15.7743,-20.7798,2.8488,-7.8823,59.6571,-86.5698,19.4427,-42.5299,14.0465,-35.1726,-2.8906,-43.1579,20.9788,-38.2613,-6.158616666666667,-8.64125,-23.02425,-10.56305,-11.5436,S22,G2,Satisfaction,0.8555277382080453,-0.3236488890015773,-0.5,0.9836448809953706,1.1801936887041646,M,0.0201976967103713,2.9874874587011124
21.3204,-23.3307,11.9521,-9.2639,41.9777,-95.4756,25.6959,-39.1387,10.421,-24.7152,-0.8627,-27.5838,16.9374,-30.4886,-8.803333333333333,-6.775600000000001,-14.22325,-7.1471,-6.721399999999999,S22,G2,Satisfaction,0.8555277382080453,-0.3236488890015773,-0.5,0.9836448809953706,1.1801936887041646,M,0.0201976967103713,2.9874874587011124
5.9412,-31.206,9.3796,-11.4907,53.559,-103.847,28.7913,-32.1528,11.6503,-12.1026,1.9717,-20.3639,15.9212,-26.8048,-12.943983333333334,-5.4418,-9.1961,-0.2261500000000005,-1.6807499999999995,S22,G2,Satisfaction,0.8555277382080453,-0.3236488890015773,-0.5,0.9836448809953706,1.1801936887041646,M,0.0201976967103713,2.9874874587011124
-8.5153,-43.4336,-5.2832,-15.9024,64.4455,-111.7162,24.7452,-36.2525,11.4153,-10.9128,6.9546,-31.6631,16.3572,-36.7898,-20.067533333333333,-10.2163,-12.35425,0.2512499999999997,-5.753649999999999,S22,G2,Satisfaction,0.8555277382080453,-0.3236488890015773,-0.5,0.9836448809953706,1.1801936887041646,M,0.0201976967103713,2.9874874587011124
-19.2227,-54.9276,-9.8797,-22.3681,57.233,-119.1132,14.9126,-32.2224,8.875,-13.9679,13.9571,-35.3281,9.8105,-33.6552,-28.04638333333333,-11.922350000000002,-10.6855,-2.54645,-8.654900000000001,S22,G2,Satisfaction,0.8555277382080453,-0.3236488890015773,-0.5,0.9836448809953706,1.1801936887041646,M,0.0201976967103713,2.9874874587011124
-14.3595,-62.8499,-0.011746,-23.8086,39.6991,-126.0664,22.3649,-21.942,19.4722,-12.2026,15.9023,-19.1084,7.3665,-17.7236,-31.232841,-5.17855,-1.6030499999999996,3.6348,0.2114499999999992,S22,G2,Satisfaction,0.8555277382080453,-0.3236488890015773,-0.5,0.9836448809953706,1.1801936887041646,M,0.0201976967103713,2.9874874587011124
-23.2358,-63.2519,-0.47467,-15.424,46.3163,-132.0152,33.5453,-24.7986,23.4055,-18.4257,20.0498,-4.701,11.0989,-19.906,-31.347545,-4.403549999999999,7.6744,2.4899000000000004,4.373349999999999,S22,G2,Satisfaction,0.8555277382080453,-0.3236488890015773,-0.5,0.9836448809953706,1.1801936887041646,M,0.0201976967103713,2.9874874587011124
-28.7978,-61.7758,-10.185,-7.5424,57.6374,-126.4133,37.5606,-33.0495,24.3202,-27.059,29.512,-3.028,14.6065,-26.5955,-29.51281666666667,-5.9945,13.242,-1.3694000000000006,2.2555499999999995,S22,G2,Satisfaction,0.8555277382080453,-0.3236488890015773,-0.5,0.9836448809953706,1.1801936887041646,M,0.0201976967103713,2.9874874587011124
-21.9687,-58.5329,-9.1098,-12.191,47.4993,-120.2193,27.4231,-31.5297,26.1068,-37.9564,30.988,-4.2372,10.4843,-35.6653,-29.08706666666667,-12.590500000000002,13.3754,-5.924800000000001,-2.0532999999999983,S22,G2,Satisfaction,0.8555277382080453,-0.3236488890015773,-0.5,0.9836448809953706,1.1801936887041646,M,0.0201976967103713,2.9874874587011124
-18.7957,-57.8031,-2.0703,-13.3145,53.9241,-112.0785,19.2856,-17.581,18.0483,-31.0415,29.1283,-0.27309,7.073,-47.6254,-25.023,-20.2762,14.427605,-6.496599999999999,0.8522999999999996,S22,G2,Satisfaction,0.8555277382080453,-0.3236488890015773,-0.5,0.9836448809953706,1.1801936887041646,M,0.0201976967103713,2.9874874587011124
-24.1605,-53.4077,-7.5113,-6.0231,48.8333,-103.4993,18.1285,-5.3965,22.5298,-15.079,26.4533,6.2354,8.5031,-58.8679,-24.294766666666664,-25.1824,16.34435,3.725400000000001,6.366,S22,G2,Satisfaction,0.8555277382080453,-0.3236488890015773,-0.5,0.9836448809953706,1.1801936887041646,M,0.0201976967103713,2.9874874587011124
-22.2468,-43.2471,-1.0322,-6.1258,31.8033,-95.898,13.7941,-0.89915,31.8445,-0.074226,20.6922,6.3249,1.0364,-69.4358,-22.7911,-34.1997,13.50855,15.885137,6.447475,S22,G2,Satisfaction,0.8555277382080453,-0.3236488890015773,-0.5,0.9836448809953706,1.1801936887041646,M,0.0201976967103713,2.9874874587011124
-15.3476,-41.58,9.2322,-11.3226,43.9951,-82.7243,16.6772,-3.6274,20.6587,5.5829,14.8135,-0.54714,-7.3729,-79.3697,-16.2912,-43.3713,7.133179999999999,13.1208,6.5249,S22,G2,Satisfaction,0.8555277382080453,-0.3236488890015773,-0.5,0.9836448809953706,1.1801936887041646,M,0.0201976967103713,2.9874874587011124
-20.9188,-41.8678,1.258,-4.1512,55.4554,-70.3411,13.8207,-8.0478,10.1444,-5.8822,16.7069,-0.51431,-4.1483,-88.7075,-13.427583333333333,-46.4279,8.096295000000001,2.1311,2.88645,S22,G2,Satisfaction,0.8555277382080453,-0.3236488890015773,-0.5,0.9836448809953706,1.1801936887041646,M,0.0201976967103713,2.9874874587011124
-24.7644,-28.6892,-10.4108,1.1986,38.0281,-64.7293,-1.1085,-8.0281,9.9994,8.5707,15.2408,13.6165,-6.2175,-95.4307,-14.8945,-50.8241,14.42865,9.28505,-4.5683,S22,G2,Satisfaction,0.8555277382080453,-0.3236488890015773,-0.5,0.9836448809953706,1.1801936887041646,M,0.0201976967103713,2.9874874587011124
-16.7865,-12.8679,-7.0039,-8.148,21.8345,-46.7456,-15.142,-1.9816,11.2544,22.1565,6.9062,26.8996,-16.0473,-81.3578,-11.61956666666667,-48.70255,16.9029,16.70545,-8.5618,S22,G2,Satisfaction,0.8555277382080453,-0.3236488890015773,-0.5,0.9836448809953706,1.1801936887041646,M,0.0201976967103713,2.9874874587011124
-13.4607,-0.69022,-4.2651,0.22473,34.6244,-29.8408,-0.13347,2.3108,6.406,6.7271,4.1732,19.3449,-25.7501,-82.5048,-2.234615,-54.12745,11.759049999999998,6.566549999999999,1.088665,S22,G2,Satisfaction,0.8555277382080453,-0.3236488890015773,-0.5,0.9836448809953706,1.1801936887041646,M,0.0201976967103713,2.9874874587011124
-16.3634,-4.3587,-12.3558,9.486,18.447,-18.6874,13.9745,-5.2476,12.5137,10.7733,18.0228,24.6772,-21.4229,-91.6545,-3.97205,-56.5387,21.35,11.6435,4.36345,S22,G2,Satisfaction,0.8555277382080453,-0.3236488890015773,-0.5,0.9836448809953706,1.1801936887041646,M,0.0201976967103713,2.9874874587011124
-29.4816,-18.1972,-25.7144,-5.1832,3.2402,-31.6662,-0.96393,-19.0327,15.0092,22.6479,31.0415,28.2973,-16.8912,-97.5609,-17.83373333333333,-57.22605,29.6694,18.82855,-9.998315,S22,G2,Satisfaction,0.8555277382080453,-0.3236488890015773,-0.5,0.9836448809953706,1.1801936887041646,M,0.0201976967103713,2.9874874587011124
-41.8127,-31.2053,-36.0417,-9.3216,11.1168,-43.8662,-15.0061,-31.9908,27.5564,27.3175,41.7882,26.1359,-1.7778,-79.1867,-25.18845,-40.48225,33.962050000000005,27.43695,-23.49845,S22,G2,Satisfaction,0.8555277382080453,-0.3236488890015773,-0.5,0.9836448809953706,1.1801936887041646,M,0.0201976967103713,2.9874874587011124
-31.972,-40.5514,-32.4879,-2.7339,21.1154,-42.2502,-12.3386,-39.4343,31.0043,37.2717,46.2366,18.5392,4.6333,-79.5362,-21.480000000000004,-37.45145,32.3879,34.138000000000005,-25.88645,S22,G2,Satisfaction,0.8555277382080453,-0.3236488890015773,-0.5,0.9836448809953706,1.1801936887041646,M,0.0201976967103713,2.9874874587011124
-25.4161,-43.6827,-37.0307,-5.3521,5.7485,-39.7147,-7.8879,-42.6326,15.044,36.8908,42.5356,20.2091,-6.7739,-78.474,-24.2413,-42.62395,31.37235,25.9674,-25.26025,S22,G2,Satisfaction,0.8555277382080453,-0.3236488890015773,-0.5,0.9836448809953706,1.1801936887041646,M,0.0201976967103713,2.9874874587011124
-37.9911,-38.7427,-38.9819,-5.495,-8.6964,-23.2318,-17.153,-29.4086,19.4307,32.3588,39.5194,19.4606,0.58821,-59.6655,-25.52315,-29.538645,29.49,25.89475,-23.2808,S22,G2,Satisfaction,0.8555277382080453,-0.3236488890015773,-0.5,0.9836448809953706,1.1801936887041646,M,0.0201976967103713,2.9874874587011124
-34.5967,-32.2451,-32.4699,-0.064088,5.9254,-7.7379,-4.531,-17.9062,32.3649,39.2284,38.5396,13.1918,8.4368,-41.9856,-16.864714666666668,-16.7744,25.8657,35.79665,-11.2186,S22,G2,Satisfaction,0.8555277382080453,-0.3236488890015773,-0.5,0.9836448809953706,1.1801936887041646,M,0.0201976967103713,2.9874874587011124
-31.5932,-37.7301,-37.0142,-0.060243,14.1059,-21.3736,2.2334,-27.9615,16.323,39.6573,22.1272,12.4003,-6.1694,-45.4071,-18.9442405,-25.78825,17.263749999999998,27.99015,-12.86405,S22,G2,Satisfaction,0.8555277382080453,-0.3236488890015773,-0.5,0.9836448809953706,1.1801936887041646,M,0.0201976967103713,2.9874874587011124
-43.7976,-37.7849,-34.3298,-2.3756,-0.84045,-18.888,-6.7112,-24.8925,9.7788,30.3217,6.6996,16.757,-19.8993,-42.2191,-23.002725,-31.0592,11.7283,20.05025,-15.801849999999998,S22,G2,Satisfaction,0.8555277382080453,-0.3236488890015773,-0.5,0.9836448809953706,1.1801936887041646,M,0.0201976967103713,2.9874874587011124
-41.9091,-34.1263,-21.6037,3.796,-8.95,-11.7261,7.7914,-22.0074,23.292,25.2559,16.8756,6.9407,-8.1273,-26.237,-19.08653333333333,-17.18215,11.90815,24.27395,-7.1080000000000005,S22,G2,Satisfaction,0.8555277382080453,-0.3236488890015773,-0.5,0.9836448809953706,1.1801936887041646,M,0.0201976967103713,2.9874874587011124
-33.8299,-45.9912,-21.235,5.4234,-5.6306,-24.9346,20.584,-32.7445,24.0249,36.725,14.0083,1.8869,-7.6399,-22.8081,-21.03298333333333,-15.224,7.9476,30.37495,-6.080250000000001,S22,G2,Satisfaction,0.8555277382080453,-0.3236488890015773,-0.5,0.9836448809953706,1.1801936887041646,M,0.0201976967103713,2.9874874587011124
-45.9001,-52.5065,-34.0609,-4.1771,-17.3497,-25.2935,5.249,-35.417,8.4834,43.7966,-0.93215,4.5559,-14.6013,-31.642,-29.8813,-23.12165,1.811875,26.14,-15.084,S22,G2,Satisfaction,0.8555277382080453,-0.3236488890015773,-0.5,0.9836448809953706,1.1801936887041646,M,0.0201976967103713,2.9874874587011124
-41.1035,-35.2561,-29.0469,5.3486,-2.2087,-9.6759,-9.1659,-19.192,7.2349,37.4589,5.804,9.8478,-2.5955,-18.6138,-18.65708333333333,-10.60465,7.8259,22.3469,-14.17895,S22,G2,Satisfaction,0.8555277382080453,-0.3236488890015773,-0.5,0.9836448809953706,1.1801936887041646,M,0.0201976967103713,2.9874874587011124
-35.8546,-21.2715,-27.3041,10.5921,-16.1762,5.0047,-17.5149,-10.8088,15.1487,21.1114,14.73,4.6198,-8.0051,-6.3669,-14.168266666666666,-7.186,9.6749,18.13005,-14.16185,S22,G2,Satisfaction,0.8555277382080453,-0.3236488890015773,-0.5,0.9836448809953706,1.1801936887041646,M,0.0201976967103713,2.9874874587011124
-36.0224,-27.8786,-26.1299,13.2024,-29.3056,7.5748,-18.7826,-14.3338,9.1386,14.9312,-0.25376,12.2256,-15.4077,3.7535,-16.426550000000002,-5.8271,5.98592,12.0349,-16.5582,S22,G2,Satisfaction,0.8555277382080453,-0.3236488890015773,-0.5,0.9836448809953706,1.1801936887041646,M,0.0201976967103713,2.9874874587011124
-24.1222,-16.4675,-13.8961,12.8748,-19.0121,11.2939,-19.9746,-4.6627,5.344,21.9187,-6.5429,6.3913,-9.3825,8.6295,-8.221533333333332,-0.3765,-0.0758,13.63135,-12.31865,S22,G2,Satisfaction,0.8555277382080453,-0.3236488890015773,-0.5,0.9836448809953706,1.1801936887041646,M,0.0201976967103713,2.9874874587011124
-8.5749,-1.3795,-1.4681,13.4932,-3.7714,24.7162,-4.6761,9.0658,10.1241,19.2127,4.5157,-5.5859,1.8465,18.7777,3.8359166666666673,10.3121,-0.5350999999999999,14.668400000000002,2.19485,S22,G2,Satisfaction,0.8555277382080453,-0.3236488890015773,-0.5,0.9836448809953706,1.1801936887041646,M,0.0201976967103713,2.9874874587011124
-16.1317,-1.9483,-7.8728,10.8289,-4.1966,30.0015,9.7044,8.5216,12.2991,6.9301,-0.39261,-6.1782,3.5909,24.1434,1.7801666666666671,13.86715,-3.2854050000000004,9.6146,9.113,S22,G2,Satisfaction,0.8555277382080453,-0.3236488890015773,-0.5,0.9836448809953706,1.1801936887041646,M,0.0201976967103713,2.9874874587011124
-22.5838,-7.3964,-12.0378,5.5418,-18.0448,15.2166,-0.06432,-3.1196,14.3436,0.94923,-9.6444,-1.1702,3.3752,24.5495,-6.5507333333333335,13.96235,-5.407299999999999,7.646415,-1.59196,S22,G2,Satisfaction,0.8555277382080453,-0.3236488890015773,-0.5,0.9836448809953706,1.1801936887041646,M,0.0201976967103713,2.9874874587011124
-7.3163,-3.2425,-4.8232,13.5561,-31.0621,13.3765,14.0395,6.3425,11.6282,5.5301,-16.4849,-0.17251,3.1725,31.4242,-3.2519166666666663,17.29835,-8.328705,8.57915,10.191,S22,G2,Satisfaction,0.8555277382080453,-0.3236488890015773,-0.5,0.9836448809953706,1.1801936887041646,M,0.0201976967103713,2.9874874587011124
7.2227,9.9369,2.8857,26.6557,-15.0984,26.674,27.2972,20.062,7.2204,11.6906,-20.1332,4.4752,2.9828,39.741,9.712766666666663,21.3619,-7.828999999999999,9.4555,23.6796,S22,G2,Satisfaction,0.8555277382080453,-0.3236488890015773,-0.5,0.9836448809953706,1.1801936887041646,M,0.0201976967103713,2.9874874587011124
7.0651,9.8047,-2.3877,17.1725,-0.092515,34.624,11.5593,20.0617,10.0339,17.0176,-23.0991,8.3806,-5.08,35.0379,11.031014166666669,14.97895,-7.35925,13.52575,15.8105,S22,G2,Satisfaction,0.8555277382080453,-0.3236488890015773,-0.5,0.9836448809953706,1.1801936887041646,M,0.0201976967103713,2.9874874587011124
-7.2707,7.3615,-11.5192,5.9402,0.37688,22.3445,-3.2342,10.5109,6.6497,15.9965,-20.7855,10.66,-14.05,35.7179,2.872196666666667,10.83395,-5.062749999999999,11.3231,3.63835,S22,G2,Satisfaction,0.8555277382080453,-0.3236488890015773,-0.5,0.9836448809953706,1.1801936887041646,M,0.0201976967103713,2.9874874587011124
-20.9345,8.7743,-20.1032,-3.6914,-13.7457,10.8015,-1.6489,11.7348,-3.9517,10.3996,-17.6839,7.2378,-10.4243,41.9223,-6.4831666666666665,15.749,-5.223050000000001,3.2239499999999994,5.04295,S22,G2,Satisfaction,0.8555277382080453,-0.3236488890015773,-0.5,0.9836448809953706,1.1801936887041646,M,0.0201976967103713,2.9874874587011124
-33.4034,8.2478,-18.8974,5.8048,-27.021,8.298,2.1595,10.103,5.5592,12.5574,-16.6224,4.0213,-5.1622,40.3337,-9.4952,17.58575,-6.300549999999999,9.0583,6.13125,S22,G2,Satisfaction,0.8555277382080453,-0.3236488890015773,-0.5,0.9836448809953706,1.1801936887041646,M,0.0201976967103713,2.9874874587011124
-19.8055,8.2166,-4.3154,19.5565,-11.2997,17.5389,8.9865,9.0332,19.3257,15.9779,-17.0164,5.1713,0.24878,43.0154,1.6485666666666672,21.63209,-5.922550000000001,17.6518,9.00985,S22,G2,Satisfaction,0.8555277382080453,-0.3236488890015773,-0.5,0.9836448809953706,1.1801936887041646,M,0.0201976967103713,2.9874874587011124
-7.0237,18.3899,1.9722,26.5427,-18.7813,27.1528,1.491,17.3025,25.3984,5.2807,-12.7493,1.615,14.3339,54.5344,8.0421,34.43415,-5.56715,15.33955,9.39675,S22,G2,Satisfaction,0.8555277382080453,-0.3236488890015773,-0.5,0.9836448809953706,1.1801936887041646,M,0.0201976967103713,2.9874874587011124
1.7452,31.3865,6.4915,26.8051,-31.7544,11.6113,9.749,30.1767,21.0923,3.1089,-5.4918,-4.9744,13.75,51.5381,7.714200000000001,32.64405,-5.2331,12.1006,19.96285,S22,G2,Satisfaction,0.8555277382080453,-0.3236488890015773,-0.5,0.9836448809953706,1.1801936887041646,M,0.0201976967103713,2.9874874587011124
0.71282,28.3879,20.202,24.2695,-15.7492,25.0147,23.2641,26.5111,23.5367,16.8346,-11.6549,2.7438,-1.175,40.0988,13.806286666666669,19.4619,-4.45555,20.18565,24.8876,S22,G2,Satisfaction,0.8555277382080453,-0.3236488890015773,-0.5,0.9836448809953706,1.1801936887041646,M,0.0201976967103713,2.9874874587011124
-1.1849,14.6273,20.6571,16.3204,-0.8919,37.6138,27.2453,16.573,17.4869,10.2597,-22.0852,9.0717,-13.9014,36.7651,14.523633333333333,11.431849999999995,-6.50675,13.8733,21.90915,S22,G2,Satisfaction,0.8555277382080453,-0.3236488890015773,-0.5,0.9836448809953706,1.1801936887041646,M,0.0201976967103713,2.9874874587011124
-5.7512,-0.35037,5.3177,5.1385,-14.7509,49.457,11.5106,1.6661,2.5252,-4.4558,-18.905,-3.5302,-13.9948,24.3566,6.510121666666667,5.1809,-11.2176,-0.9653,6.58835,S22,G2,Satisfaction,0.8555277382080453,-0.3236488890015773,-0.5,0.9836448809953706,1.1801936887041646,M,0.0201976967103713,2.9874874587011124
-15.1444,-8.0248,-9.1014,-4.9077,-27.9659,60.5895,-3.28,-12.5339,-2.7271,-15.5939,-17.307,-15.8389,-13.6188,15.9395,-0.7591166666666661,1.1603500000000002,-16.57295,-9.1605,-7.906949999999999,S22,G2,Satisfaction,0.8555277382080453,-0.3236488890015773,-0.5,0.9836448809953706,1.1801936887041646,M,0.0201976967103713,2.9874874587011124
-21.656,3.5863,-15.1363,-5.5405,-33.0564,71.0542,11.0168,-6.4925,-5.3461,-15.5864,-26.471,-13.0341,-2.5992,21.4752,-0.1247833333333332,9.438,-19.75255,-10.46625,2.26215,S22,G2,Satisfaction,0.8555277382080453,-0.3236488890015773,-0.5,0.9836448809953706,1.1801936887041646,M,0.0201976967103713,2.9874874587011124
-23.6025,-3.585,-23.0383,-10.3093,-28.7544,80.8909,-3.7442,4.5631,-7.3439,-24.3895,-23.4914,-11.7879,0.80255,19.7231,-1.399766666666667,10.262825,-17.63965,-15.866700000000002,0.4094500000000001,S22,G2,Satisfaction,0.8555277382080453,-0.3236488890015773,-0.5,0.9836448809953706,1.1801936887041646,M,0.0201976967103713,2.9874874587011124
-28.2148,-17.4699,-28.6122,-13.8642,-18.2176,90.1375,-14.7372,-2.6668,-1.8016,-18.7522,-17.9084,-10.617,-5.2736,11.584,-2.706866666666665,3.1552,-14.2627,-10.2769,-8.702,S22,G2,Satisfaction,0.8555277382080453,-0.3236488890015773,-0.5,0.9836448809953706,1.1801936887041646,M,0.0201976967103713,2.9874874587011124
-25.5946,-11.1328,-15.7658,-6.5399,-12.4874,98.8292,0.24699,-6.2167,-3.5489,-18.5548,-18.6884,-9.0523,-5.8853,12.7439,4.55145,3.4293,-13.870350000000002,-11.05185,-2.984855,S22,G2,Satisfaction,0.8555277382080453,-0.3236488890015773,-0.5,0.9836448809953706,1.1801936887041646,M,0.0201976967103713,2.9874874587011124
-29.6238,-3.9723,-17.6024,-10.7855,-16.3753,106.9995,-10.1579,6.2132,-17.436,-31.5415,-15.7126,-12.2195,-7.3867,12.9065,4.773366666666668,2.7599,-13.96605,-24.48875,-1.97235,S22,G2,Satisfaction,0.8555277382080453,-0.3236488890015773,-0.5,0.9836448809953706,1.1801936887041646,M,0.0201976967103713,2.9874874587011124
-41.7587,-15.7913,-23.9661,-13.8482,-27.4506,114.6795,-23.6485,10.478,-17.1294,-22.0415,-12.9145,-6.8488,-6.9435,16.7693,-1.3558999999999983,4.9129000000000005,-9.88165,-19.58545,-6.585249999999999,S22,G2,Satisfaction,0.8555277382080453,-0.3236488890015773,-0.5,0.9836448809953706,1.1801936887041646,M,0.0201976967103713,2.9874874587011124
-32.7602,-6.4964,-16.0356,-10.2347,-25.8027,121.8987,-8.1296,1.5023,-6.8265,-6.8063,-14.9223,5.6195,-5.5997,17.6185,5.094850000000001,6.0094,-4.6514,-6.8164,-3.31365,S22,G2,Satisfaction,0.8555277382080453,-0.3236488890015773,-0.5,0.9836448809953706,1.1801936887041646,M,0.0201976967103713,2.9874874587011124
-19.2017,5.4867,-15.5375,-5.4467,-10.1545,128.6848,3.9511,4.658,-11.5181,-16.1367,-11.7084,6.6737,-7.5822,11.4602,13.971849999999998,1.939,-2.5173499999999995,-13.8274,4.30455,S22,G2,Satisfaction,0.8555277382080453,-0.3236488890015773,-0.5,0.9836448809953706,1.1801936887041646,M,0.0201976967103713,2.9874874587011124
-25.4689,-1.3346,-22.9523,-3.2654,-2.7772,135.0637,-10.386,10.871,-17.3195,-15.1681,3.0942,7.2005,-7.1273,15.4101,13.210883333333337,4.1414,5.147349999999999,-16.2438,0.2425000000000006,S22,G2,Satisfaction,0.8555277382080453,-0.3236488890015773,-0.5,0.9836448809953706,1.1801936887041646,M,0.0201976967103713,2.9874874587011124
-29.042,-5.428,-22.9665,-11.8805,-16.7106,134.2571,-23.8628,4.1903,-15.8163,-3.5924,8.7493,6.3053,-11.8009,14.0219,8.038250000000003,1.1105,7.5273,-9.70435,-9.83625,S22,G2,Satisfaction,0.8555277382080453,-0.3236488890015773,-0.5,0.9836448809953706,1.1801936887041646,M,0.0201976967103713,2.9874874587011124
-18.9525,6.0269,-17.8786,-5.6024,-29.808,113.2166,-8.3311,2.0835,-11.1574,-1.5219,8.2243,7.7815,-14.8027,8.543,7.8336666666666686,-3.12985,8.0029,-6.339650000000001,-3.1238,S22,G2,Satisfaction,0.8555277382080453,-0.3236488890015773,-0.5,0.9836448809953706,1.1801936887041646,M,0.0201976967103713,2.9874874587011124
-27.5537,3.3467,-19.1249,7.2543,-27.6445,101.322,-14.1356,-7.7799,-2.6046,-13.0243,20.2523,1.2857,-11.5955,6.6391,6.266649999999999,-2.4782,10.769,-7.81445,-10.95775,S22,G2,Satisfaction,0.8555277382080453,-0.3236488890015773,-0.5,0.9836448809953706,1.1801936887041646,M,0.0201976967103713,2.9874874587011124
-31.0019,-9.3753,-15.6582,1.7176,-28.3046,81.7942,-12.8236,-12.4145,4.5072,-26.3428,23.21,-9.4573,-13.219,11.3418,-0.1380333333333325,-0.9386,6.87635,-10.9178,-12.61905,S22,G2,Satisfaction,0.8555277382080453,-0.3236488890015773,-0.5,0.9836448809953706,1.1801936887041646,M,0.0201976967103713,2.9874874587011124
-17.5478,-7.4213,-12.4003,0.22386,-27.0698,84.771,-9.735,1.7793,4.7015,-33.8489,12.0797,-3.7884,-14.7442,15.7627,3.425943333333334,0.5092500000000006,4.14565,-14.5737,-3.97785,S22,G2,Satisfaction,0.8555277382080453,-0.3236488890015773,-0.5,0.9836448809953706,1.1801936887041646,M,0.0201976967103713,2.9874874587011124
-17.4226,-8.8309,-11.6563,-0.71683,-11.3456,88.9591,-8.2236,2.6002,4.4194,-31.8179,5.7896,-0.77891,-13.8596,15.7442,6.497811666666668,0.9422999999999996,2.505345,-13.69925,-2.8117,S22,G2,Satisfaction,0.8555277382080453,-0.3236488890015773,-0.5,0.9836448809953706,1.1801936887041646,M,0.0201976967103713,2.9874874587011124
-16.3773,-6.4461,-2.6099,-0.67382,3.4351,69.5215,6.3698,-9.6136,4.1534,-28.0544,10.0794,0.19507,-19.5205,20.3643,7.808246666666666,0.4219000000000008,5.137235,-11.9505,-1.6219,S22,G2,Satisfaction,0.8555277382080453,-0.3236488890015773,-0.5,0.9836448809953706,1.1801936887041646,M,0.0201976967103713,2.9874874587011124
-11.6852,-9.7697,-5.2359,-4.3442,-10.871,52.5529,5.799,-13.6739,-6.2983,-17.0964,-1.655,6.6759,-32.4493,15.4326,1.7744833333333323,-8.50835,2.51045,-11.69735,-3.93745,S22,G2,Satisfaction,0.8555277382080453,-0.3236488890015773,-0.5,0.9836448809953706,1.1801936887041646,M,0.0201976967103713,2.9874874587011124
-8.2014,-4.5459,-9.5585,-1.3004,-24.3187,63.4997,-8.6489,-0.79658,-4.0654,-6.7959,1.2265,8.1303,-25.6775,12.6517,2.595800000000001,-6.512899999999999,4.6784,-5.43065,-4.72274,S22,G2,Satisfaction,0.8555277382080453,-0.3236488890015773,-0.5,0.9836448809953706,1.1801936887041646,M,0.0201976967103713,2.9874874587011124
-6.3183,7.3203,-6.6666,1.0959,-8.7596,58.1109,-19.5349,0.64275,6.8448,7.0603,15.2529,3.4687,-12.5434,16.9936,7.463766666666667,2.2251000000000003,9.3608,6.9525500000000005,-9.446075,S22,G2,Satisfaction,0.8555277382080453,-0.3236488890015773,-0.5,0.9836448809953706,1.1801936887041646,M,0.0201976967103713,2.9874874587011124
-0.83773,5.49,-6.7296,-4.9981,-12.1311,41.1763,-21.6093,-9.1344,8.7529,20.7367,7.6584,6.5071,-15.964,18.2928,3.661628333333333,1.1643999999999997,7.082750000000001,14.7448,-15.37185,S22,G2,Satisfaction,0.8555277382080453,-0.3236488890015773,-0.5,0.9836448809953706,1.1801936887041646,M,0.0201976967103713,2.9874874587011124
10.3424,8.8707,2.021,0.86689,-25.5033,50.7624,-8.2552,0.68862,9.1556,22.5515,4.416,7.9714,-12.2238,17.1954,7.893348333333333,2.4858,6.1937,15.85355,-3.78329,S22,G2,Satisfaction,0.8555277382080453,-0.3236488890015773,-0.5,0.9836448809953706,1.1801936887041646,M,0.0201976967103713,2.9874874587011124
5.0841,12.9758,-2.7376,0.81465,-10.8008,50.499,6.3402,12.7044,-1.5964,7.0984,18.2511,-6.6069,-12.4178,10.5986,9.305858333333331,-0.9096000000000002,5.822100000000001,2.751,9.5223,S22,G2,Satisfaction,0.8555277382080453,-0.3236488890015773,-0.5,0.9836448809953706,1.1801936887041646,M,0.0201976967103713,2.9874874587011124
4.3158,18.2262,-9.5295,-3.4077,3.9473,54.4261,2.5256,23.5359,-0.10882,-7.4275,31.256,-12.051,-4.7166,24.0627,11.3297,9.67305,9.6025,-3.76816,13.03075,S22,G2,Satisfaction,0.8555277382080453,-0.3236488890015773,-0.5,0.9836448809953706,1.1801936887041646,M,0.0201976967103713,2.9874874587011124
1.7379,3.6839,-8.4941,-4.595,-10.3896,50.6961,-3.6549,13.3122,-6.1312,-21.0818,15.2806,-15.5019,-4.8972,27.9961,5.439866666666667,11.54945,-0.1106499999999996,-13.6065,4.8286500000000006,S22,G2,Satisfaction,0.8555277382080453,-0.3236488890015773,-0.5,0.9836448809953706,1.1801936887041646,M,0.0201976967103713,2.9874874587011124
4.8799,3.927,0.82661,-2.9271,-23.8662,43.4812,10.6644,7.4127,-4.372,-33.9169,0.26379,-27.0923,-2.2848,22.1428,4.386901666666668,9.929,-13.414255,-19.14445,9.03855,S22,G2,Satisfaction,0.8555277382080453,-0.3236488890015773,-0.5,0.9836448809953706,1.1801936887041646,M,0.0201976967103713,2.9874874587011124
1.3408,15.2842,-12.6712,-5.071,-8.3342,36.6984,11.6922,15.7786,0.99153,-45.9819,-0.67951,-18.5111,0.17083,28.6976,4.541166666666666,14.434215,-9.595305,-22.495185000000003,13.7354,S22,G2,Satisfaction,0.8555277382080453,-0.3236488890015773,-0.5,0.9836448809953706,1.1801936887041646,M,0.0201976967103713,2.9874874587011124
0.79674,23.1783,-11.4473,3.1167,6.2658,41.4526,-3.1093,28.9319,5.1055,-29.123,3.5348,-3.3004,-0.30305,41.0758,10.560473333333332,20.386375,0.1172000000000001,-12.00875,12.9113,S22,G2,Satisfaction,0.8555277382080453,-0.3236488890015773,-0.5,0.9836448809953706,1.1801936887041646,M,0.0201976967103713,2.9874874587011124
-10.8448,12.0492,-1.9498,-0.31656,-8.2101,34.792,-2.735,23.2984,-7.7222,-21.987,-4.5607,-5.145,-14.3849,33.7864,4.253323333333333,9.70075,-4.85285,-14.8546,10.2817,S22,G2,Satisfaction,0.8555277382080453,-0.3236488890015773,-0.5,0.9836448809953706,1.1801936887041646,M,0.0201976967103713,2.9874874587011124
-6.484,13.181,0.022329,0.63035,-19.7746,37.3414,11.3412,17.2631,-5.4037,-9.5383,-0.5774,-1.1267,-18.4351,31.7586,4.1527465,6.661750000000001,-0.85205,-7.471,14.30215,S22,G2,Satisfaction,0.8555277382080453,-0.3236488890015773,-0.5,0.9836448809953706,1.1801936887041646,M,0.0201976967103713,2.9874874587011124
-5.1675,9.6077,-12.9638,-12.3923,-6.531,30.464,-3.4393,20.8647,-3.2248,5.134,-8.8896,13.0409,-21.0391,32.6355,0.5028499999999999,5.7982,2.0756500000000004,0.9546,8.7127,S22,G2,Satisfaction,0.8555277382080453,-0.3236488890015773,-0.5,0.9836448809953706,1.1801936887041646,M,0.0201976967103713,2.9874874587011124
1.6351,17.3787,-5.693,-4.2285,-20.2392,24.9258,-17.333,31.6702,4.3889,16.6958,-8.3566,20.4185,-6.7917,39.0248,2.296483333333333,16.11655,6.030950000000001,10.54235,7.168600000000001,S22,G2,Satisfaction,0.8555277382080453,-0.3236488890015773,-0.5,0.9836448809953706,1.1801936887041646,M,0.0201976967103713,2.9874874587011124
15.4488,25.6107,8.7485,10.1252,-33.1248,29.9228,-2.193,27.915,5.0529,2.709,-3.2172,5.0934,5.6727,39.466,9.4552,22.56935,0.9381,3.88095,12.861,S22,G2,Satisfaction,0.8555277382080453,-0.3236488890015773,-0.5,0.9836448809953706,1.1801936887041646,M,0.0201976967103713,2.9874874587011124
23.7969,20.3644,22.3236,3.7645,-17.0373,26.2727,12.0386,21.6028,-2.6694,-0.23596,-9.5169,2.193,-2.0872,27.8231,13.247466666666666,12.86795,-3.66195,-1.45268,16.8207,S22,G2,Satisfaction,0.8555277382080453,-0.3236488890015773,-0.5,0.9836448809953706,1.1801936887041646,M,0.0201976967103713,2.9874874587011124
17.2676,20.5332,10.87,-3.4173,-1.9151,17.7395,-2.7837,24.4799,-2.9736,-0.68565,-14.9746,12.7273,-5.2084,24.7626,10.17965,9.7771,-1.1236500000000005,-1.829625,10.8481,S22,G2,Satisfaction,0.8555277382080453,-0.3236488890015773,-0.5,0.9836448809953706,1.1801936887041646,M,0.0201976967103713,2.9874874587011124
2.1316,18.8376,-3.2313,-0.89373,12.2998,10.6467,-16.7167,16.0554,-1.4038,-14.7445,-10.8303,4.0798,-12.7793,27.4508,6.631778333333332,7.335750000000001,-3.37525,-8.07415,-0.3306500000000003,S22,G2,Satisfaction,0.8555277382080453,-0.3236488890015773,-0.5,0.9836448809953706,1.1801936887041646,M,0.0201976967103713,2.9874874587011124
2.6557,9.3605,-1.1818,1.9428,4.8818,10.9354,-1.6137,11.382,-1.3194,-27.9598,-10.1803,-5.4395,-26.1126,25.8035,4.765733333333333,-0.1545500000000004,-7.809900000000001,-14.639600000000002,4.88415,S22,G2,Satisfaction,0.8555277382080453,-0.3236488890015773,-0.5,0.9836448809953706,1.1801936887041646,M,0.0201976967103713,2.9874874587011124
14.5534,12.5086,7.2359,2.7532,-9.5111,16.7715,8.8726,23.6839,3.3967,-35.6452,-8.6415,-5.1133,-38.6458,23.3274,7.385249999999999,-7.6592,-6.8774,-16.12425,16.27825,S22,G2,Satisfaction,0.8555277382080453,-0.3236488890015773,-0.5,0.9836448809953706,1.1801936887041646,M,0.0201976967103713,2.9874874587011124
14.1441,12.2219,6.3388,-0.65757,-13.8539,7.8825,-5.7598,25.5093,8.2943,-35.8248,-3.9497,-6.1972,-50.4271,17.7544,4.345971666666666,-16.336350000000003,-5.073449999999999,-13.765250000000002,9.87475,S22,G2,Satisfaction,0.8555277382080453,-0.3236488890015773,-0.5,0.9836448809953706,1.1801936887041646,M,0.0201976967103713,2.9874874587011124
14.6868,15.6621,8.2766,5.4099,-1.4294,-1.402,-11.7184,22.5874,6.4058,-20.2271,3.2434,3.913,-50.5476,17.1528,6.867333333333334,-16.697400000000002,3.5782,-6.91065,5.434499999999999,S22,G2,Satisfaction,0.8555277382080453,-0.3236488890015773,-0.5,0.9836448809953706,1.1801936887041646,M,0.0201976967103713,2.9874874587011124
17.5152,19.3597,6.8525,5.086,8.8586,-8.7379,-0.81306,17.5221,4.1658,-4.9135,16.9609,12.0254,-53.0798,11.4863,8.155683333333334,-20.79675,14.49315,-0.37385,8.354519999999999,S22,G2,Satisfaction,0.8555277382080453,-0.3236488890015773,-0.5,0.9836448809953706,1.1801936887041646,M,0.0201976967103713,2.9874874587011124
21.5651,22.3717,18.0351,11.7365,2.2986,-16.097,13.3357,16.9344,18.0159,9.4813,30.0432,19.1873,-47.5764,9.4058,9.985,-19.0853,24.61525,13.7486,15.13505,S22,G2,Satisfaction,0.8555277382080453,-0.3236488890015773,-0.5,0.9836448809953706,1.1801936887041646,M,0.0201976967103713,2.9874874587011124
26.7639,25.6672,31.053,24.9444,-4.3316,-24.4061,26.6356,22.4106,31.0349,23.0124,42.3406,26.3833,-33.5919,10.6966,13.281800000000002,-11.44765,34.36195,27.02365,24.5231,S22,G2,Satisfaction,0.8555277382080453,-0.3236488890015773,-0.5,0.9836448809953706,1.1801936887041646,M,0.0201976967103713,2.9874874587011124
28.4039,25.518,22.0453,9.3477,-0.82548,-32.6801,10.9374,15.9648,15.0728,35.7317,27.3677,18.7719,-45.0251,16.0833,8.634886666666668,-14.4709,23.0698,25.40225,13.4511,S22,G2,Satisfaction,0.8555277382080453,-0.3236488890015773,-0.5,0.9836448809953706,1.1801936887041646,M,0.0201976967103713,2.9874874587011124
21.5987,28.1607,6.6226,-5.3131,8.0349,-24.6902,-3.8188,18.2534,0.068471,23.098,11.6256,10.6896,-56.4236,22.0742,5.735600000000001,-17.1747,11.1576,11.5832355,7.2173,S22,G2,Satisfaction,0.8555277382080453,-0.3236488890015773,-0.5,0.9836448809953706,1.1801936887041646,M,0.0201976967103713,2.9874874587011124
13.8107,27.3987,6.8772,-12.9657,4.7706,-9.1088,4.2942,31.2582,-14.0356,7.6121,-3.1719,9.1206,-67.1382,21.6774,5.130450000000001,-22.7304,2.97435,-3.2117500000000003,17.7762,S22,G2,Satisfaction,0.8555277382080453,-0.3236488890015773,-0.5,0.9836448809953706,1.1801936887041646,M,0.0201976967103713,2.9874874587011124
16.2279,27.1457,14.3484,-8.942,-9.6156,2.8425,-7.5572,28.7314,-13.9331,-6.9446,-17.0816,3.4721,-51.6042,18.0582,7.00115,-16.773,-6.80475,-10.43885,10.5871,S22,G2,Satisfaction,0.8555277382080453,-0.3236488890015773,-0.5,0.9836448809953706,1.1801936887041646,M,0.0201976967103713,2.9874874587011124
27.7756,36.183,20.4428,0.40519,5.0613,-5.2115,6.9962,25.6157,-11.7062,-4.2976,-14.1025,2.8002,-34.4079,20.221,14.109398333333331,-7.093449999999999,-5.65115,-8.001900000000001,16.30595,S22,G2,Satisfaction,0.8555277382080453,-0.3236488890015773,-0.5,0.9836448809953706,1.1801936887041646,M,0.0201976967103713,2.9874874587011124
26.1086,35.8669,17.3613,4.0912,18.8577,-4.8983,16.1271,29.6436,-12.8588,-0.32985,-3.9817,2.6317,-32.068,19.0073,16.231233333333332,-6.530349999999999,-0.675,-6.594325,22.88535,S22,G2,Satisfaction,0.8555277382080453,-0.3236488890015773,-0.5,0.9836448809953706,1.1801936887041646,M,0.0201976967103713,2.9874874587011124
18.0496,31.86,15.3924,5.7002,14.7559,0.95995,1.0595,23.2274,-5.5947,-2.165,10.3572,-3.091,-26.434,12.3025,14.453008333333331,-7.06575,3.6331,-3.87985,12.14345,S22,G2,Satisfaction,0.8555277382080453,-0.3236488890015773,-0.5,0.9836448809953706,1.1801936887041646,M,0.0201976967103713,2.9874874587011124
19.2856,32.2669,17.7151,6.75,-0.22949,-2.3439,11.8496,12.0954,-2.94,12.0649,20.2141,6.8337,-21.6017,7.3904,12.240701666666665,-7.105650000000001,13.5239,4.56245,11.9725,S22,G2,Satisfaction,0.8555277382080453,-0.3236488890015773,-0.5,0.9836448809953706,1.1801936887041646,M,0.0201976967103713,2.9874874587011124
11.1723,20.5926,6.9134,-6.1764,-14.3157,-10.0867,11.6023,4.4135,-6.9371,20.428,4.9013,14.3071,-34.4056,-2.7919,1.3499166666666664,-18.59875,9.6042,6.74545,8.0079,S22,G2,Satisfaction,0.8555277382080453,-0.3236488890015773,-0.5,0.9836448809953706,1.1801936887041646,M,0.0201976967103713,2.9874874587011124
21.6317,15.6471,16.7014,5.3243,0.64322,-7.6265,-0.22307,2.2938,6.4637,15.4925,1.5491,11.5937,-26.1251,7.5781,8.720203333333332,-9.2735,6.5714,10.9781,1.035365,S22,G2,Satisfaction,0.8555277382080453,-0.3236488890015773,-0.5,0.9836448809953706,1.1801936887041646,M,0.0201976967103713,2.9874874587011124
31.4637,14.7085,29.7994,17.0619,2.6475,-21.2689,13.8903,-3.4085,10.7132,10.8532,13.5133,2.5508,-10.6451,14.5434,12.402016666666666,1.9491500000000004,8.03205,10.7832,5.2409,S22,G2,Satisfaction,0.8555277382080453,-0.3236488890015773,-0.5,0.9836448809953706,1.1801936887041646,M,0.0201976967103713,2.9874874587011124
28.6484,18.4634,25.9683,7.691,-4.0041,-34.0928,26.7815,-2.2765,3.5777,17.622,1.5726,6.1074,-9.0785,12.7433,7.112366666666669,1.8324,3.84,10.59985,12.2525,S22,G2,Satisfaction,0.8555277382080453,-0.3236488890015773,-0.5,0.9836448809953706,1.1801936887041646,M,0.0201976967103713,2.9874874587011124
27.8567,22.9204,22.5553,-0.18982,-14.8931,-27.9615,11.0746,-4.9221,3.3635,12.8548,-11.5064,4.8137,-15.954,8.2688,5.047996666666667,-3.8426,-3.34635,8.10915,3.07625,S22,G2,Satisfaction,0.8555277382080453,-0.3236488890015773,-0.5,0.9836448809953706,1.1801936887041646,M,0.0201976967103713,2.9874874587011124
31.287,28.5009,30.0126,11.4149,-3.3343,-12.1838,12.9164,-0.45368,7.3352,-2.0165,-2.9326,-9.5751,-10.8232,7.3086,14.282883333333332,-1.7573,-6.25385,2.65935,6.23136,S22,G2,Satisfaction,0.8555277382080453,-0.3236488890015773,-0.5,0.9836448809953706,1.1801936887041646,M,0.0201976967103713,2.9874874587011124
24.7722,29.5735,22.6479,15.3675,10.9657,1.8077,10.2865,6.9938,3.1847,-9.5912,2.8082,-15.769,-6.4635,9.6527,17.522416666666665,1.5945999999999998,-6.4804,-3.2032500000000006,8.64015,S22,G2,Satisfaction,0.8555277382080453,-0.3236488890015773,-0.5,0.9836448809953706,1.1801936887041646,M,0.0201976967103713,2.9874874587011124
21.8945,22.6979,18.0423,0.3455,24.4078,3.0906,-4.4307,7.9655,-4.8893,-3.9149,-8.0259,-0.72289,-16.7417,10.4653,15.079766666666666,-3.138200000000001,-4.374395,-4.4021,1.7674,S22,G2,Satisfaction,0.8555277382080453,-0.3236488890015773,-0.5,0.9836448809953706,1.1801936887041646,M,0.0201976967103713,2.9874874587011124
23.8267,10.67,22.061,-12.4726,8.8433,-1.2688,1.5881,1.4586,-12.4798,-15.2733,-21.6443,13.4205,-29.8372,0.098191,8.609933333333332,-14.8695045,-4.1119,-13.87655,1.52335,S22,G2,Satisfaction,0.8555277382080453,-0.3236488890015773,-0.5,0.9836448809953706,1.1801936887041646,M,0.0201976967103713,2.9874874587011124
18.6876,15.5946,25.374,2.3758,2.5597,-1.1927,10.7666,2.2984,-2.4563,-8.7925,-10.4201,6.6746,-13.947,-9.1824,10.5665,-11.564699999999998,-1.87275,-5.6244000000000005,6.532500000000001,S22,G2,Satisfaction,0.8555277382080453,-0.3236488890015773,-0.5,0.9836448809953706,1.1801936887041646,M,0.0201976967103713,2.9874874587011124
15.7114,22.0791,25.707,15.9574,16.5062,-3.9033,7.3389,7.7257,11.7911,5.835,4.3051,8.1291,0.98984,-11.4137,15.342966666666667,-5.211930000000001,6.2171,8.81305,7.532299999999999,S22,G2,Satisfaction,0.8555277382080453,-0.3236488890015773,-0.5,0.9836448809953706,1.1801936887041646,M,0.0201976967103713,2.9874874587011124
16.1598,18.4356,22.7735,6.1891,4.6627,-5.0602,12.0,5.8711,10.4321,19.5849,18.1468,6.2502,15.0304,-15.8298,10.526749999999998,-0.3997000000000001,12.1985,15.008500000000002,8.93555,S22,G2,Satisfaction,0.8555277382080453,-0.3236488890015773,-0.5,0.9836448809953706,1.1801936887041646,M,0.0201976967103713,2.9874874587011124
12.8717,23.3579,24.6538,11.8462,1.1371,6.8367,10.8159,7.8374,19.5445,21.7445,15.7556,0.77399,12.3617,-19.9813,13.450566666666669,-3.8098,8.264795,20.6445,9.32665,S22,G2,Satisfaction,0.8555277382080453,-0.3236488890015773,-0.5,0.9836448809953706,1.1801936887041646,M,0.0201976967103713,2.9874874587011124
7.9254,26.13,25.4927,21.8015,15.1689,8.7455,8.7761,7.8308,32.4718,34.5399,22.6937,-6.2286,25.72,-32.8824,17.543999999999997,-3.581199999999999,8.23255,33.50585,8.30345,S22,G2,Satisfaction,0.8555277382080453,-0.3236488890015773,-0.5,0.9836448809953706,1.1801936887041646,M,0.0201976967103713,2.9874874587011124
15.3335,20.3884,21.6443,15.3928,19.6357,2.1921,20.7703,4.1149,26.6262,39.6993,14.3761,-15.5935,38.2768,-45.0094,15.764466666666666,-3.366299999999999,-0.6087000000000007,33.16275,12.4426,S22,G2,Satisfaction,0.8555277382080453,-0.3236488890015773,-0.5,0.9836448809953706,1.1801936887041646,M,0.0201976967103713,2.9874874587011124
15.341,12.6733,11.0711,6.122,13.8202,1.1331,18.5966,-9.1168,10.9286,23.2174,13.5133,-17.4403,32.8217,-37.2959,10.026783333333332,-2.2371000000000016,-1.9635000000000007,17.073,4.7399,S22,G2,Satisfaction,0.8555277382080453,-0.3236488890015773,-0.5,0.9836448809953706,1.1801936887041646,M,0.0201976967103713,2.9874874587011124
10.7106,16.55,15.044,19.8547,16.7009,4.775,24.9006,-15.0624,24.3729,9.9549,26.8025,-2.2938,41.9821,-30.421,13.9392,5.780550000000002,12.25435,17.1639,4.9191,S22,G2,Satisfaction,0.8555277382080453,-0.3236488890015773,-0.5,0.9836448809953706,1.1801936887041646,M,0.0201976967103713,2.9874874587011124
-4.032,9.9919,6.7214,16.6201,13.8432,-7.5691,17.8411,-25.2881,34.9679,19.5598,15.7322,11.9438,41.3183,-36.0153,5.92925,2.651499999999998,13.838,27.26385,-3.7235,S22,G2,Satisfaction,0.8555277382080453,-0.3236488890015773,-0.5,0.9836448809953706,1.1801936887041646,M,0.0201976967103713,2.9874874587011124
-11.9496,11.2474,-7.7819,7.2754,5.5933,-6.1872,2.6706,-28.4084,18.9571,15.604,4.5854,10.8515,39.7669,-22.7247,-0.3004333333333331,8.5211,7.71845,17.280549999999998,-12.8689,S22,G2,Satisfaction,0.8555277382080453,-0.3236488890015773,-0.5,0.9836448809953706,1.1801936887041646,M,0.0201976967103713,2.9874874587011124
-14.4785,5.4718,-18.7201,12.8678,-8.191,-9.0623,-11.5896,-38.2971,3.7196,2.1468,7.5565,0.4621,47.1192,-18.115,-5.352049999999999,14.5021,4.0093,2.9332,-24.94335,S22,G2,Satisfaction,0.8555277382080453,-0.3236488890015773,-0.5,0.9836448809953706,1.1801936887041646,M,0.0201976967103713,2.9874874587011124
-9.9001,-6.9137,-13.8873,10.241,-1.2072,-12.2282,3.2057,-45.2738,1.3658,6.6553,10.8137,-5.1307,49.8571,-25.3753,-5.649249999999999,12.240900000000002,2.8415000000000004,4.01055,-21.03405,S22,G2,Satisfaction,0.8555277382080453,-0.3236488890015773,-0.5,0.9836448809953706,1.1801936887041646,M,0.0201976967103713,2.9874874587011124
-5.5962,0.92048,-18.6189,11.4815,4.43,-5.9297,6.448,-28.6455,15.1957,20.356,6.4545,3.5246,38.5182,-28.4904,-2.2188033333333337,5.0139,4.98955,17.775850000000002,-11.09875,S22,G2,Satisfaction,0.8555277382080453,-0.3236488890015773,-0.5,0.9836448809953706,1.1801936887041646,M,0.0201976967103713,2.9874874587011124
-6.6515,11.5315,-20.7478,17.7481,-2.7917,3.237,-2.7502,-15.3333,19.3858,33.2347,6.5311,7.4869,25.5413,-22.6072,0.3875999999999997,1.4670500000000004,7.009,26.31025,-9.04175,S22,G2,Satisfaction,0.8555277382080453,-0.3236488890015773,-0.5,0.9836448809953706,1.1801936887041646,M,0.0201976967103713,2.9874874587011124
-11.3539,3.8832,-18.1114,7.8723,-4.0153,7.2165,-2.1218,-28.5133,11.2663,35.5023,3.82,-3.6286,17.9802,-16.1498,-2.4180999999999995,0.9152000000000003,0.0956999999999999,23.3843,-15.31755,S22,G2,Satisfaction,0.8555277382080453,-0.3236488890015773,-0.5,0.9836448809953706,1.1801936887041646,M,0.0201976967103713,2.9874874587011124
-19.9471,-1.9144,-25.3724,-0.019569,-8.4113,5.856,-6.6314,-38.2081,2.2435,34.2997,-4.756,-0.62801,18.7565,-7.7608,-8.301461499999998,5.49785,-2.692005,18.2716,-22.41975,S22,G2,Satisfaction,0.8555277382080453,-0.3236488890015773,-0.5,0.9836448809953706,1.1801936887041646,M,0.0201976967103713,2.9874874587011124
-32.8503,-11.0742,-37.95,-2.801,-22.0066,3.6497,-9.9434,-22.931,3.0362,32.2417,-10.0359,6.829,23.1955,-4.513,-17.172066666666666,9.34125,-1.60345,17.63895,-16.4372,S22,G2,Satisfaction,0.8555277382080453,-0.3236488890015773,-0.5,0.9836448809953706,1.1801936887041646,M,0.0201976967103713,2.9874874587011124
-44.9793,-24.5098,-48.0061,-4.0236,-18.1802,-3.5252,-12.5928,-29.4388,7.0277,27.0611,-2.4774,10.593,35.9038,9.8578,-23.870700000000003,22.8808,4.0578,17.0444,-21.0158,S22,G2,Satisfaction,0.8555277382080453,-0.3236488890015773,-0.5,0.9836448809953706,1.1801936887041646,M,0.0201976967103713,2.9874874587011124
-46.5423,-36.7633,-46.5168,-14.4485,-2.9894,-17.4137,-25.9373,-41.7724,4.2873,13.844,4.6276,14.1312,44.692,20.2087,-27.445666666666668,32.45035,9.3794,9.06565,-33.85485,S22,G2,Satisfaction,0.8555277382080453,-0.3236488890015773,-0.5,0.9836448809953706,1.1801936887041646,M,0.0201976967103713,2.9874874587011124
-37.7211,-30.3843,-38.6248,-9.4083,-6.7076,-30.4689,-26.976,-52.9903,6.3488,6.0569,-2.6064,8.1823,39.6912,12.0399,-25.5525,25.86555,2.78795,6.20285,-39.98315,S22,G2,Satisfaction,0.8555277382080453,-0.3236488890015773,-0.5,0.9836448809953706,1.1801936887041646,M,0.0201976967103713,2.9874874587011124
-32.6754,-14.4612,-25.1775,5.2562,-10.0148,-14.5407,-11.2574,-35.7108,8.7499,-1.726,-8.0151,-3.4385,36.3823,13.1722,-15.268899999999997,24.77725,-5.7268,3.51195,-23.4841,S22,G2,Satisfaction,0.8555277382080453,-0.3236488890015773,-0.5,0.9836448809953706,1.1801936887041646,M,0.0201976967103713,2.9874874587011124
-27.4684,0.50647,-27.8405,1.5073,-6.1679,0.43172,3.518,-19.4682,-1.5132,-15.0709,-10.7798,-3.6956,23.5335,23.0481,-9.838551666666667,23.2908,-7.2377,-8.29205,-7.975099999999999,S22,G2,Satisfaction,0.8555277382080453,-0.3236488890015773,-0.5,0.9836448809953706,1.1801936887041646,M,0.0201976967103713,2.9874874587011124
-27.6754,14.5761,-34.5174,7.9092,-0.23275,12.9266,-10.793,-4.2001,-1.4227,-2.1095,-10.1332,5.8006,15.6292,27.2303,-4.502275000000001,21.42975,-2.1663,-1.7661000000000002,-7.496549999999999,S22,G2,Satisfaction,0.8555277382080453,-0.3236488890015773,-0.5,0.9836448809953706,1.1801936887041646,M,0.0201976967103713,2.9874874587011124
-38.0723,11.7469,-34.3013,9.2896,-14.3188,14.0059,-24.2455,-1.2656,1.4449,6.3641,-14.1628,5.4526,14.6915,24.6688,-8.608333333333334,19.68015,-4.3551,3.9045,-12.75555,S22,G2,Satisfaction,0.8555277382080453,-0.3236488890015773,-0.5,0.9836448809953706,1.1801936887041646,M,0.0201976967103713,2.9874874587011124
-33.933,-3.0579,-24.8234,-3.3251,-27.5597,-0.93442,-8.6907,-15.2896,-4.2066,9.6926,-17.0229,9.7626,15.6649,26.8985,-15.605586666666666,21.2817,-3.63015,2.7430000000000003,-11.99015,S22,G2,Satisfaction,0.8555277382080453,-0.3236488890015773,-0.5,0.9836448809953706,1.1801936887041646,M,0.0201976967103713,2.9874874587011124
-23.5495,-14.7437,-24.2617,-3.1261,-28.3133,-14.9784,-14.3857,-28.4723,-16.9389,23.211,-14.1462,11.9595,28.6369,19.7198,-18.162116666666662,24.17835,-1.09335,3.136049999999999,-21.429,S22,G2,Satisfaction,0.8555277382080453,-0.3236488890015773,-0.5,0.9836448809953706,1.1801936887041646,M,0.0201976967103713,2.9874874587011124
-22.6004,0.24095,-26.052,5.8732,-12.5145,-4.8929,-27.6225,-12.6639,-12.676,35.9183,-12.8335,6.1409,41.0187,13.4356,-9.990941666666666,27.22715,-3.3463000000000003,11.62115,-20.1432,S22,G2,Satisfaction,0.8555277382080453,-0.3236488890015773,-0.5,0.9836448809953706,1.1801936887041646,M,0.0201976967103713,2.9874874587011124
-18.4618,3.2848,-17.9964,11.0852,-17.0528,4.6754,-28.0958,2.1959,-1.7131,19.6632,-13.9189,-0.72008,28.6313,20.0493,-5.744266666666668,24.3403,-7.31949,8.97505,-12.94995,S22,G2,Satisfaction,0.8555277382080453,-0.3236488890015773,-0.5,0.9836448809953706,1.1801936887041646,M,0.0201976967103713,2.9874874587011124
-8.0796,-2.4773,-11.352,5.7832,-1.9296,-9.7052,-12.3101,-6.7469,-5.3208,7.6297,-19.5761,-8.0964,12.8134,20.701,-4.62675,16.7572,-13.83625,1.1544499999999998,-9.5285,S22,G2,Satisfaction,0.8555277382080453,-0.3236488890015773,-0.5,0.9836448809953706,1.1801936887041646,M,0.0201976967103713,2.9874874587011124
0.75247,3.2364,-8.8153,1.7257,12.2862,-2.4426,-6.1948,-2.632,-4.0741,21.084,-22.1116,-5.7559,26.1446,21.3141,1.1238116666666664,23.72935,-13.93375,8.504950000000001,-4.4134,S22,G2,Satisfaction,0.8555277382080453,-0.3236488890015773,-0.5,0.9836448809953706,1.1801936887041646,M,0.0201976967103713,2.9874874587011124
-6.7125,3.0422,-14.7793,5.3325,6.536,2.3415,-11.3879,11.4382,-7.5391,8.6893,-19.8572,-6.3378,25.5041,19.1076,-0.7066000000000002,22.30585,-13.0975,0.5750999999999995,0.02515,S22,G2,Satisfaction,0.8555277382080453,-0.3236488890015773,-0.5,0.9836448809953706,1.1801936887041646,M,0.0201976967103713,2.9874874587011124
-14.657,5.6421,-13.8923,8.7222,-7.9561,-4.2913,-6.9941,10.7517,-3.3771,-4.8169,-8.4636,-8.74,9.8738,23.5262,-4.4054,16.7,-8.6018,-4.097,1.8788,S22,G2,Satisfaction,0.8555277382080453,-0.3236488890015773,-0.5,0.9836448809953706,1.1801936887041646,M,0.0201976967103713,2.9874874587011124
-20.7337,-0.72489,-18.16,-5.9012,-14.247,-18.1338,-20.6745,-3.3416,-1.7836,-8.7014,-12.1293,-15.1717,6.2226,26.2881,-12.983431666666666,16.25535,-13.6505,-5.2425,-12.00805,S22,G2,Satisfaction,0.8555277382080453,-0.3236488890015773,-0.5,0.9836448809953706,1.1801936887041646,M,0.0201976967103713,2.9874874587011124
-11.142,-6.2465,-17.9979,-12.3153,-19.8845,-19.1769,-11.3627,-0.35873,-11.8788,-19.3092,-15.1117,-13.3339,19.9492,29.3482,-14.460516666666669,24.6487,-14.2228,-15.594,-5.860715,S22,G2,Satisfaction,0.8555277382080453,-0.3236488890015773,-0.5,0.9836448809953706,1.1801936887041646,M,0.0201976967103713,2.9874874587011124
-1.199,1.5479,-4.8609,2.5236,-32.7914,-9.679,2.3035,9.8645,-11.1658,-30.2082,-4.9305,-4.1867,32.8523,37.7899,-7.409800000000001,35.3211,-4.5586,-20.687,6.084,S22,G2,Satisfaction,0.8555277382080453,-0.3236488890015773,-0.5,0.9836448809953706,1.1801936887041646,M,0.0201976967103713,2.9874874587011124
-13.1846,-3.1823,-9.2066,6.8216,-24.1437,-23.1983,-11.9347,3.7081,-3.0763,-33.9603,-7.417,-13.2104,29.5778,21.61,-11.01565,25.5939,-10.3137,-18.5183,-4.1133,S22,G2,Satisfaction,0.8555277382080453,-0.3236488890015773,-0.5,0.9836448809953706,1.1801936887041646,M,0.0201976967103713,2.9874874587011124
-17.0307,-10.4112,-17.0017,4.5574,-8.5951,-29.0382,-15.6683,10.9054,6.383,-17.8227,-1.4067,-17.0549,24.0933,13.8213,-12.919916666666666,18.9573,-9.2308,-5.719850000000001,-2.38145,S22,G2,Satisfaction,0.8555277382080453,-0.3236488890015773,-0.5,0.9836448809953706,1.1801936887041646,M,0.0201976967103713,2.9874874587011124
-15.0814,-19.061,-17.8363,5.2114,6.0206,-25.4412,-0.62821,9.3236,2.2908,-2.6534,8.8799,-16.9591,27.285,14.8468,-11.031316666666669,21.0659,-4.0396,-0.1813,4.347695000000001,S22,G2,Satisfaction,0.8555277382080453,-0.3236488890015773,-0.5,0.9836448809953706,1.1801936887041646,M,0.0201976967103713,2.9874874587011124
-11.3941,-20.7002,-10.2738,5.8266,-8.4406,-34.1169,-9.1257,1.3442,4.9353,11.6058,11.129,-3.8849,24.7205,13.0285,-13.183166666666668,18.8745,3.62205,8.27055,-3.89075,S22,G2,Satisfaction,0.8555277382080453,-0.3236488890015773,-0.5,0.9836448809953706,1.1801936887041646,M,0.0201976967103713,2.9874874587011124
-10.2466,-17.1394,-9.1935,-4.262,-20.6431,-28.8234,-22.6781,4.51,-1.389,25.0095,-1.1318,10.4482,9.1372,6.2181,-15.051333333333332,7.67765,4.6582,11.81025,-9.08405,S22,G2,Satisfaction,0.8555277382080453,-0.3236488890015773,-0.5,0.9836448809953706,1.1801936887041646,M,0.0201976967103713,2.9874874587011124
-14.2689,-9.6185,-10.4969,-7.7157,-11.9847,-12.994,-22.5209,7.9493,-15.4057,28.7864,-15.1639,11.9524,-5.511,3.0628,-11.179783333333331,-1.2241,-1.6057499999999996,6.6903500000000005,-7.2858,S22,G2,Satisfaction,0.8555277382080453,-0.3236488890015773,-0.5,0.9836448809953706,1.1801936887041646,M,0.0201976967103713,2.9874874587011124
-12.0217,5.0586,-7.5487,-1.2241,-25.3656,-14.7213,-8.6488,17.2109,-24.0322,23.8127,-15.4574,17.2644,-6.6594,16.9791,-9.3038,5.15985,0.9034999999999992,-0.10975,4.28105,S22,G2,Satisfaction,0.8555277382080453,-0.3236488890015773,-0.5,0.9836448809953706,1.1801936887041646,M,0.0201976967103713,2.9874874587011124
-3.8806,18.8551,-8.023,-4.8605,-32.4669,-18.4752,-22.0418,21.7431,-14.2433,13.1092,-9.8929,20.8657,1.1599,26.438,-8.14185,13.79895,5.486400000000001,-0.56705,-0.1493500000000001,S22,G2,Satisfaction,0.8555277382080453,-0.3236488890015773,-0.5,0.9836448809953706,1.1801936887041646,M,0.0201976967103713,2.9874874587011124
-5.9663,15.4932,-11.7152,-7.8156,-16.4189,-3.2667,-18.4007,10.7001,-21.2716,-1.7773,-14.4,11.7299,-5.8658,12.3316,-4.948250000000001,3.2329,-1.3350499999999998,-11.52445,-3.8503,S22,G2,Satisfaction,0.8555277382080453,-0.3236488890015773,-0.5,0.9836448809953706,1.1801936887041646,M,0.0201976967103713,2.9874874587011124
-6.5358,2.5065,-6.3749,3.7832,-13.3026,-1.8673,-3.1967,12.8405,-16.2861,-15.7707,-13.5363,0.82391,8.5861,6.0262,-3.631816666666667,7.306150000000001,-6.3561950000000005,-16.0284,4.8219,S22,G2,Satisfaction,0.8555277382080453,-0.3236488890015773,-0.5,0.9836448809953706,1.1801936887041646,M,0.0201976967103713,2.9874874587011124
7.9563,16.4561,8.1076,17.6562,-20.3883,8.9108,2.8361,26.1701,-1.2089,-19.086,-5.7679,-3.399,22.1709,15.4034,6.4497833333333325,18.78715,-4.58345,-10.14745,14.5031,S22,G2,Satisfaction,0.8555277382080453,-0.3236488890015773,-0.5,0.9836448809953706,1.1801936887041646,M,0.0201976967103713,2.9874874587011124
21.5789,23.1642,9.7518,19.6552,-11.745,22.4762,-11.434,36.0053,5.6318,-32.0408,-10.0592,-14.325,34.8412,3.3493,14.146883333333337,19.09525,-12.1921,-13.2045,12.28565,S22,G2,Satisfaction,0.8555277382080453,-0.3236488890015773,-0.5,0.9836448809953706,1.1801936887041646,M,0.0201976967103713,2.9874874587011124
9.7062,14.8187,-4.2815,4.3759,3.0597,25.1132,-10.0965,20.3967,-8.8061,-44.2184,-16.4118,-24.1315,18.6507,-10.9516,8.7987,3.8495500000000007,-20.27165,-26.51225,5.150099999999999,S22,G2,Satisfaction,0.8555277382080453,-0.3236488890015773,-0.5,0.9836448809953706,1.1801936887041646,M,0.0201976967103713,2.9874874587011124
12.8335,25.059,0.61271,7.5471,16.9761,11.5493,4.6093,33.085,-13.191,-27.4653,-6.1522,-8.7711,16.3283,-17.0628,12.429618333333332,-0.3672500000000003,-7.461650000000001,-20.32815,18.84715,S22,G2,Satisfaction,0.8555277382080453,-0.3236488890015773,-0.5,0.9836448809953706,1.1801936887041646,M,0.0201976967103713,2.9874874587011124
18.556,18.9183,1.5036,1.5294,1.8575,7.1464,-3.2749,19.043,-16.109,-11.7173,-2.0727,-5.4626,12.5664,-3.9816,8.251866666666666,4.2924,-3.76765,-13.913150000000002,7.884049999999999,S22,G2,Satisfaction,0.8555277382080453,-0.3236488890015773,-0.5,0.9836448809953706,1.1801936887041646,M,0.0201976967103713,2.9874874587011124
11.8778,12.2184,-6.0068,1.4381,-12.3539,17.8473,-17.1784,14.1905,-19.78,-0.34827,-0.093402,2.2849,1.6096,7.3874,4.1701500000000005,4.4985,1.095749,-10.064135,-1.49395,S22,G2,Satisfaction,0.8555277382080453,-0.3236488890015773,-0.5,0.9836448809953706,1.1801936887041646,M,0.0201976967103713,2.9874874587011124
-2.9349,11.0212,-13.5302,-0.9672,-11.6129,7.9654,-15.496,27.4391,-24.6221,13.7726,-4.2622,10.9585,-10.0803,9.2623,-1.6764333333333337,-0.4089999999999998,3.3481500000000004,-5.42475,5.97155,S22,G2,Satisfaction,0.8555277382080453,-0.3236488890015773,-0.5,0.9836448809953706,1.1801936887041646,M,0.0201976967103713,2.9874874587011124
-11.8458,7.1137,-9.4722,-8.793,-8.5976,-6.6126,-20.5947,25.6046,-24.5361,27.0463,-9.1077,7.9824,-5.3015,1.7508,-6.367916666666667,-1.77535,-0.5626499999999997,1.2550999999999988,2.504950000000001,S22,G2,Satisfaction,0.8555277382080453,-0.3236488890015773,-0.5,0.9836448809953706,1.1801936887041646,M,0.0201976967103713,2.9874874587011124
2.313,9.0056,-3.8024,-1.3095,-22.1817,6.9567,-16.1134,10.6199,-20.7452,33.8585,-1.6053,4.2574,9.1166,4.8918,-1.50305,7.0042,1.32605,6.556649999999999,-2.74675,S22,G2,Satisfaction,0.8555277382080453,-0.3236488890015773,-0.5,0.9836448809953706,1.1801936887041646,M,0.0201976967103713,2.9874874587011124
5.8845,16.8128,-9.1391,6.1897,-19.2716,16.7417,-7.7268,21.1123,-5.4005,24.4072,10.5488,4.9296,18.1196,5.5256,2.869666666666668,11.8226,7.7392,9.50335,6.69275,S22,G2,Satisfaction,0.8555277382080453,-0.3236488890015773,-0.5,0.9836448809953706,1.1801936887041646,M,0.0201976967103713,2.9874874587011124
8.3136,19.5139,-3.0259,11.3832,-4.0153,1.6372,-8.1904,29.1203,9.0236,21.0879,17.3352,2.7789,19.8155,-8.906,5.63445,5.45475,10.05705,15.05575,10.46495,S22,G2,Satisfaction,0.8555277382080453,-0.3236488890015773,-0.5,0.9836448809953706,1.1801936887041646,M,0.0201976967103713,2.9874874587011124
18.9445,18.3431,11.2556,8.8452,5.3127,-12.561,-7.699,13.2731,2.5415,11.4756,11.6584,-3.8803,24.1914,-14.676,8.356683333333333,4.757700000000001,3.88905,7.00855,2.78705,S22,G2,Satisfaction,0.8555277382080453,-0.3236488890015773,-0.5,0.9836448809953706,1.1801936887041646,M,0.0201976967103713,2.9874874587011124
21.0543,14.9237,23.8406,0.43047,-0.10708,-2.6206,2.5015,11.2733,-9.2041,10.3232,-1.5623,-11.5307,14.8558,-7.7668,9.586898333333332,3.5445,-6.5465,0.5595499999999998,6.8874,S22,G2,Satisfaction,0.8555277382080453,-0.3236488890015773,-0.5,0.9836448809953706,1.1801936887041646,M,0.0201976967103713,2.9874874587011124
9.5889,12.1735,12.2084,3.1871,13.9993,1.2467,-0.43101,21.7268,-4.9422,6.9214,-3.3237,-8.9841,-0.13552,-6.3733,8.733983333333333,-3.25441,-6.1539,0.9896000000000004,10.647895,S22,G2,Satisfaction,0.8555277382080453,-0.3236488890015773,-0.5,0.9836448809953706,1.1801936887041646,M,0.0201976967103713,2.9874874587011124
5.7675,13.7619,16.5769,13.6621,-0.94062,-2.0741,-5.5061,26.4519,-0.4719,6.0427,0.1222,5.0034,-1.3306,2.82,7.792280000000001,0.7446999999999999,2.5628,2.7854,10.4729,S22,G2,Satisfaction,0.8555277382080453,-0.3236488890015773,-0.5,0.9836448809953706,1.1801936887041646,M,0.0201976967103713,2.9874874587011124
11.4499,11.5449,21.6108,17.9436,-14.9842,-14.4711,-0.075002,29.966,-4.6167,7.071,-7.769,-1.3253,12.8493,12.3891,5.51565,12.6192,-4.54715,1.22715,14.945499,S22,G2,Satisfaction,0.8555277382080453,-0.3236488890015773,-0.5,0.9836448809953706,1.1801936887041646,M,0.0201976967103713,2.9874874587011124
7.9805,4.3599,8.257,14.0841,-1.8403,-18.2402,2.7119,25.3856,-2.4854,4.7916,-5.4477,-15.3458,22.5569,-1.3386,2.4335,10.60915,-10.39675,1.1531,14.04875,S22,G2,Satisfaction,0.8555277382080453,-0.3236488890015773,-0.5,0.9836448809953706,1.1801936887041646,M,0.0201976967103713,2.9874874587011124
-6.5984,-6.1041,2.1967,4.8925,2.9077,-10.6533,16.6492,13.66,8.7939,12.8516,4.1539,-13.3099,23.9857,-7.7508,-2.2264833333333334,8.117450000000002,-4.578,10.82275,15.1546,S22,G2,Satisfaction,0.8555277382080453,-0.3236488890015773,-0.5,0.9836448809953706,1.1801936887041646,M,0.0201976967103713,2.9874874587011124
-13.4343,-15.0128,10.4122,1.8161,-11.3668,-18.3613,23.8098,8.2031,12.9036,23.2104,2.9772,-7.8739,21.6195,2.9164,-7.657816666666666,12.26795,-2.44835,18.057,16.00645,S22,G2,Satisfaction,0.8555277382080453,-0.3236488890015773,-0.5,0.9836448809953706,1.1801936887041646,M,0.0201976967103713,2.9874874587011124
-4.2812,-8.5472,7.9325,4.4893,-9.5696,-23.7522,8.2812,10.4931,12.1294,23.6727,0.01593,-10.1841,25.8867,-0.041196,-5.621399999999999,12.922752,-5.084085,17.901049999999998,9.38715,S22,G2,Satisfaction,0.8555277382080453,-0.3236488890015773,-0.5,0.9836448809953706,1.1801936887041646,M,0.0201976967103713,2.9874874587011124
0.61301,2.1678,-1.8184,7.0028,5.1046,-16.762,-6.3157,8.936,4.9093,18.5422,5.58,-6.7906,26.1882,-14.1387,-0.615365,6.024749999999999,-0.6053000000000002,11.72575,1.31015,S22,G2,Satisfaction,0.8555277382080453,-0.3236488890015773,-0.5,0.9836448809953706,1.1801936887041646,M,0.0201976967103713,2.9874874587011124
12.17,9.9216,12.3907,11.6838,-9.3017,-17.1476,3.25,12.5738,1.3689,22.5309,6.6365,2.4283,19.5157,-15.4211,3.286133333333334,2.0473,4.5324,11.9499,7.9119,S22,G2,Satisfaction,0.8555277382080453,-0.3236488890015773,-0.5,0.9836448809953706,1.1801936887041646,M,0.0201976967103713,2.9874874587011124
23.9605,12.5723,25.7473,5.8814,-15.2357,-24.0024,9.0841,9.5006,-5.67,22.5701,-3.5002,-0.96386,6.7517,-0.39579,4.820566666666667,3.177955,-2.23203,8.450050000000001,9.29235,S22,G2,Satisfaction,0.8555277382080453,-0.3236488890015773,-0.5,0.9836448809953706,1.1801936887041646,M,0.0201976967103713,2.9874874587011124
16.0308,12.7457,20.1174,-2.8185,-2.2646,-29.982,-5.5609,2.4385,-14.6041,9.159,-12.5649,-15.006,1.7095,7.3239,2.3048,4.5167,-13.78545,-2.72255,-1.5612,S22,G2,Satisfaction,0.8555277382080453,-0.3236488890015773,-0.5,0.9836448809953706,1.1801936887041646,M,0.0201976967103713,2.9874874587011124
4.8666,8.2711,4.8103,0.13321,-0.27379,-26.3281,-19.3273,16.3922,-5.3808,10.4644,-0.68136,-10.2076,10.8812,12.4493,-1.4201133333333331,11.66525,-5.44448,2.5418,-1.467550000000001,S22,G2,Satisfaction,0.8555277382080453,-0.3236488890015773,-0.5,0.9836448809953706,1.1801936887041646,M,0.0201976967103713,2.9874874587011124
-2.8452,-6.1375,-3.6381,-6.3677,-5.8222,-19.1836,-14.0824,20.7853,-7.8402,14.4737,2.1417,3.3894,9.3006,8.9197,-7.332383333333333,9.11015,2.76555,3.3167499999999994,3.35145,S22,G2,Satisfaction,0.8555277382080453,-0.3236488890015773,-0.5,0.9836448809953706,1.1801936887041646,M,0.0201976967103713,2.9874874587011124
-11.9492,-16.8989,-3.4193,-10.6224,-18.4575,-23.5974,-12.3102,5.4382,-18.4999,12.678,-10.9714,-8.8713,4.1059,7.4573,-14.157450000000004,5.7816,-9.92135,-2.91095,-3.436,S22,G2,Satisfaction,0.8555277382080453,-0.3236488890015773,-0.5,0.9836448809953706,1.1801936887041646,M,0.0201976967103713,2.9874874587011124
-19.1163,-13.5666,-10.171,-6.739,-26.1613,-30.0652,-14.8176,2.9813,-6.7241,15.1634,-7.0671,-7.8752,8.0328,13.0381,-17.636566666666667,10.53545,-7.47115,4.21965,-5.918150000000001,S22,G2,Satisfaction,0.8555277382080453,-0.3236488890015773,-0.5,0.9836448809953706,1.1801936887041646,M,0.0201976967103713,2.9874874587011124
-13.3318,-5.3324,-9.5607,-10.9727,-14.3892,-21.7688,-15.7835,3.7297,-7.2479,17.0358,-1.0778,6.6973,-2.6516,3.9087,-12.559266666666668,0.6285499999999999,2.80975,4.893949999999999,-6.0269,S22,G2,Satisfaction,0.8555277382080453,-0.3236488890015773,-0.5,0.9836448809953706,1.1801936887041646,M,0.0201976967103713,2.9874874587011124
-1.402,-4.085,1.2155,-18.6616,-9.8158,-13.0431,-7.4169,-5.7686,-20.913,23.4336,-8.4331,9.8175,-11.767,-7.4557,-7.632000000000001,-9.61135,0.6922000000000006,1.260299999999999,-6.5927500000000006,S22,G2,Satisfaction,0.8555277382080453,-0.3236488890015773,-0.5,0.9836448809953706,1.1801936887041646,M,0.0201976967103713,2.9874874587011124
3.7833,4.9712,10.8814,-4.0932,-6.9083,-17.3613,-7.4355,3.3886,-5.5582,35.4763,2.7389,0.41733,3.039,0.87552,-1.4544833333333334,1.95726,1.578115,14.95905,-2.0234500000000004,S22,G2,Satisfaction,0.8555277382080453,-0.3236488890015773,-0.5,0.9836448809953706,1.1801936887041646,M,0.0201976967103713,2.9874874587011124
-6.6459,-0.89213,-0.90137,-6.6296,3.7084,-28.3772,-21.0894,5.9677,-4.7607,19.2477,1.6471,-10.7372,13.3348,-0.10448,-6.622966666666666,6.61516,-4.54505,7.243499999999999,-7.56085,S22,G2,Satisfaction,0.8555277382080453,-0.3236488890015773,-0.5,0.9836448809953706,1.1801936887041646,M,0.0201976967103713,2.9874874587011124
3.0274,-9.1859,-0.84795,-19.2166,10.9055,-15.5446,-10.3612,4.6817,-18.575,6.2236,-10.5093,-4.5283,4.187,5.4664,-5.143691666666666,4.826700000000001,-7.5188,-6.175699999999999,-2.83975,S22,G2,Satisfaction,0.8555277382080453,-0.3236488890015773,-0.5,0.9836448809953706,1.1801936887041646,M,0.0201976967103713,2.9874874587011124
2.3821,-10.026,0.59425,-19.455,-3.8489,-13.2206,-11.1308,2.0822,-26.0837,12.8059,-5.7048,6.4099,2.5454,8.3851,-7.262358333333332,5.465249999999999,0.3525500000000003,-6.6389000000000005,-4.5243,S22,G2,Satisfaction,0.8555277382080453,-0.3236488890015773,-0.5,0.9836448809953706,1.1801936887041646,M,0.0201976967103713,2.9874874587011124
-11.8608,-20.0903,-11.0345,-18.7511,-17.7179,-26.5274,-24.563,-8.7085,-10.4187,15.284,8.7375,7.4159,10.2763,13.9102,-17.663666666666668,12.09325,8.0767,2.4326500000000006,-16.63575,S22,G2,Satisfaction,0.8555277382080453,-0.3236488890015773,-0.5,0.9836448809953706,1.1801936887041646,M,0.0201976967103713,2.9874874587011124
-24.8735,-32.9849,-8.0538,-19.9455,-7.4677,-32.1681,-15.4815,-13.2872,4.3064,25.033,22.3133,4.6524,21.253,19.1045,-20.91558333333333,20.17875,13.48285,14.6697,-14.38435,S22,G2,Satisfaction,0.8555277382080453,-0.3236488890015773,-0.5,0.9836448809953706,1.1801936887041646,M,0.0201976967103713,2.9874874587011124
-9.2811,-41.9477,-1.5422,-15.502,-21.1196,-36.2664,-2.0316,-17.5912,11.5554,29.5591,21.9902,2.9819,9.3118,3.8583,-20.943166666666663,6.58505,12.48605,20.55725,-9.8114,S22,G2,Satisfaction,0.8555277382080453,-0.3236488890015773,-0.5,0.9836448809953706,1.1801936887041646,M,0.0201976967103713,2.9874874587011124
5.3757,-25.3309,10.6077,-5.2972,-32.1857,-19.9905,-3.7647,-2.4357,9.9353,34.2785,16.0332,10.2228,1.3329,-3.1417,-11.136816666666666,-0.9044,13.128,22.1069,-3.1002,S22,G2,Satisfaction,0.8555277382080453,-0.3236488890015773,-0.5,0.9836448809953706,1.1801936887041646,M,0.0201976967103713,2.9874874587011124
12.5612,-9.711,11.8262,-1.2699,-16.1546,-4.691,-17.6388,9.5801,3.7743,34.0767,6.7237,1.2624,1.2533,4.4666,-1.23985,2.85995,3.99305,18.9255,-4.02935,S22,G2,Satisfaction,0.8555277382080453,-0.3236488890015773,-0.5,0.9836448809953706,1.1801936887041646,M,0.0201976967103713,2.9874874587011124
23.4008,4.9716,16.2179,-1.6569,-1.0853,-11.7411,-16.8564,0.19419,-8.0459,30.6408,-7.7797,-10.4071,-6.7057,0.95233,5.017833333333334,-2.876685,-9.0934,11.29745,-8.331105,S22,G2,Satisfaction,0.8555277382080453,-0.3236488890015773,-0.5,0.9836448809953706,1.1801936887041646,M,0.0201976967103713,2.9874874587011124
24.3158,11.5296,23.1282,-11.2963,-4.1782,-22.6304,-1.745,-9.5563,-7.0995,14.7024,-21.4129,-15.8111,-10.4769,9.7063,3.4781166666666663,-0.3853,-18.612,3.80145,-5.650650000000001,S22,G2,Satisfaction,0.8555277382080453,-0.3236488890015773,-0.5,0.9836448809953706,1.1801936887041646,M,0.0201976967103713,2.9874874587011124
9.8718,-2.1468,10.6113,-15.2561,-4.8548,-7.1726,3.2728,-1.5627,-2.9632,-0.27978,-11.4048,-13.9347,4.2517,23.2239,-1.4912,13.7378,-12.66975,-1.62149,0.8550500000000001,S22,G2,Satisfaction,0.8555277382080453,-0.3236488890015773,-0.5,0.9836448809953706,1.1801936887041646,M,0.0201976967103713,2.9874874587011124
-4.8205,-10.3652,-4.1254,-16.195,1.0011,-6.0024,-11.0236,1.3135,-7.4232,-1.2787,-1.4461,-3.8242,18.0966,35.9305,-6.751233333333334,27.01355,-2.63515,-4.35095,-4.85505,S22,G2,Satisfaction,0.8555277382080453,-0.3236488890015773,-0.5,0.9836448809953706,1.1801936887041646,M,0.0201976967103713,2.9874874587011124
-9.908,-10.6708,-16.6752,-18.9338,4.6512,-18.6267,-18.5215,-10.8229,-11.6147,-1.2018,-5.069,-3.5945,20.3453,39.8918,-11.693883333333334,30.118550000000003,-4.33175,-6.40825,-14.6722,S22,G2,Satisfaction,0.8555277382080453,-0.3236488890015773,-0.5,0.9836448809953706,1.1801936887041646,M,0.0201976967103713,2.9874874587011124
-1.8939,-10.958,-11.9646,-17.7976,3.4446,-12.8717,-3.3102,-8.3183,-8.1354,-6.6947,-1.0552,-3.379,17.269,31.0055,-8.673533333333333,24.13725,-2.2171,-7.415050000000001,-5.81425,S22,G2,Satisfaction,0.8555277382080453,-0.3236488890015773,-0.5,0.9836448809953706,1.1801936887041646,M,0.0201976967103713,2.9874874587011124
0.53848,-20.9668,-8.9279,-20.9035,2.7741,-13.4909,-13.9654,-6.4281,-9.9665,-0.26478,1.3269,-2.7125,2.1329,15.0452,-10.162753333333336,8.58905,-0.6928,-5.11564,-10.19675,S22,G2,Satisfaction,0.8555277382080453,-0.3236488890015773,-0.5,0.9836448809953706,1.1801936887041646,M,0.0201976967103713,2.9874874587011124
-6.4498,-22.0276,-5.1462,-20.1127,16.7076,-17.7825,-11.7359,-8.3612,-21.8893,5.7798,-12.8527,-12.2883,-12.0951,0.042485,-9.1352,-6.026307500000001,-12.5705,-8.054749999999999,-10.04855,S22,G2,Satisfaction,0.8555277382080453,-0.3236488890015773,-0.5,0.9836448809953706,1.1801936887041646,M,0.0201976967103713,2.9874874587011124
7.8491,-6.6059,9.2625,-8.7039,4.8517,-2.6155,1.9529,6.2404,-21.5036,10.0706,-23.4873,-16.1886,-25.4694,-0.51192,0.6729999999999997,-12.99066,-19.83795,-5.716499999999999,4.09665,S22,G2,Satisfaction,0.8555277382080453,-0.3236488890015773,-0.5,0.9836448809953706,1.1801936887041646,M,0.0201976967103713,2.9874874587011124
21.4781,7.8904,22.8068,5.9183,-9.5394,11.6414,-0.019467,19.966,-6.1134,23.5663,-7.9781,-1.1172,-9.8412,13.6188,10.0326,1.8888,-4.54765,8.72645,9.9732665,S22,G2,Satisfaction,0.8555277382080453,-0.3236488890015773,-0.5,0.9836448809953706,1.1801936887041646,M,0.0201976967103713,2.9874874587011124
22.3203,21.517,21.5266,14.1866,-22.2281,0.82874,-6.9747,16.0736,1.0214,13.1536,-0.73095,-4.4842,2.7184,26.9017,9.691856666666668,14.81005,-2.607575,7.0875,4.549449999999999,S22,G2,Satisfaction,0.8555277382080453,-0.3236488890015773,-0.5,0.9836448809953706,1.1801936887041646,M,0.0201976967103713,2.9874874587011124
7.5331,14.0978,8.6411,0.8142,-6.7944,-13.321,0.40018,8.1533,-4.1404,-1.7356,-6.7158,-15.8082,-0.69079,17.4922,1.8284666666666665,8.400705,-11.262,-2.938,4.27674,S22,G2,Satisfaction,0.8555277382080453,-0.3236488890015773,-0.5,0.9836448809953706,1.1801936887041646,M,0.0201976967103713,2.9874874587011124
1.9797,5.3683,3.9493,-5.2633,-4.7195,-3.0593,1.7673,5.3453,-8.0662,-8.8636,-5.849,-18.1062,0.74176,9.4867,-0.2908,5.11423,-11.9776,-8.4649,3.5563,S22,G2,Satisfaction,0.8555277382080453,-0.3236488890015773,-0.5,0.9836448809953706,1.1801936887041646,M,0.0201976967103713,2.9874874587011124
1.8609,5.9735,2.7847,-11.4396,-10.0016,10.1089,-2.0487,2.242,-14.0743,-4.6219,3.7767,-4.0352,10.8992,23.0175,-0.1188666666666667,16.95835,-0.1292499999999998,-9.3481,0.0966499999999999,S22,G2,Satisfaction,0.8555277382080453,-0.3236488890015773,-0.5,0.9836448809953706,1.1801936887041646,M,0.0201976967103713,2.9874874587011124
12.4153,5.1519,2.154,-17.7094,4.6985,-3.9455,-1.4621,2.5715,-21.1132,-12.228,1.232,10.3069,-2.2753,31.1871,0.4608000000000001,14.4559,5.76945,-16.6706,0.5547,S22,G2,Satisfaction,0.8555277382080453,-0.3236488890015773,-0.5,0.9836448809953706,1.1801936887041646,M,0.0201976967103713,2.9874874587011124
16.3075,2.0597,1.0975,-15.7196,18.5166,-5.5641,-7.8669,2.4172,-22.6291,1.4899,-8.1171,9.0372,-16.2388,15.2159,2.7829333333333337,-0.5114500000000008,0.4600499999999998,-10.5696,-2.72485,S22,G2,Satisfaction,0.8555277382080453,-0.3236488890015773,-0.5,0.9836448809953706,1.1801936887041646,M,0.0201976967103713,2.9874874587011124
17.6476,15.3848,14.4794,-3.1831,4.0452,8.8697,4.1984,9.2279,-7.1713,15.5005,-2.5293,14.523,-29.3644,0.20293,9.5406,-14.580735,5.99685,4.1646,6.713150000000001,S22,G2,Satisfaction,0.8555277382080453,-0.3236488890015773,-0.5,0.9836448809953706,1.1801936887041646,M,0.0201976967103713,2.9874874587011124
30.6888,28.5617,27.7106,3.9645,-4.0809,22.4375,18.0465,18.413,-3.2193,21.803,-6.5506,10.4058,-34.647,-13.9092,18.2137,-24.2781,1.9275999999999995,9.29185,18.229750000000003,S22,G2,Satisfaction,0.8555277382080453,-0.3236488890015773,-0.5,0.9836448809953706,1.1801936887041646,M,0.0201976967103713,2.9874874587011124
42.9474,26.1967,29.1066,0.94353,10.2639,6.9913,7.0381,19.1632,-7.6628,6.3948,-17.2877,-4.3186,-42.7701,-27.1747,19.408238333333333,-34.9724,-10.80315,-0.6339999999999999,13.10065,S22,G2,Satisfaction,0.8555277382080453,-0.3236488890015773,-0.5,0.9836448809953706,1.1801936887041646,M,0.0201976967103713,2.9874874587011124
31.648,20.4512,22.2596,6.916,23.7481,2.2104,-6.8326,9.2025,-0.24671,-7.2497,-6.5119,-18.1595,-26.1039,-39.6442,17.872216666666663,-32.87405,-12.3357,-3.748205,1.1849500000000002,S22,G2,Satisfaction,0.8555277382080453,-0.3236488890015773,-0.5,0.9836448809953706,1.1801936887041646,M,0.0201976967103713,2.9874874587011124
15.837,15.5144,22.7788,10.2112,23.3391,3.0052,0.99687,-5.4496,0.69557,-9.5971,0.37114,-15.3027,-10.4377,-51.3656,15.114283333333336,-30.90165,-7.46578,-4.450765,-2.226365,S22,G2,Satisfaction,0.8555277382080453,-0.3236488890015773,-0.5,0.9836448809953706,1.1801936887041646,M,0.0201976967103713,2.9874874587011124
19.0601,13.192,19.0933,2.6417,15.9101,-1.3488,12.5301,-19.2227,-2.5931,-20.6148,3.5954,-12.0662,4.2886,-57.3592,11.424733333333334,-26.5353,-4.2354,-11.60395,-3.3463000000000003,S22,G2,Satisfaction,0.8555277382080453,-0.3236488890015773,-0.5,0.9836448809953706,1.1801936887041646,M,0.0201976967103713,2.9874874587011124
9.1058,17.5017,3.8477,3.8745,24.6938,9.3981,4.8226,-13.984,-3.8288,-12.4217,12.1907,-2.5312,18.1313,-48.8164,11.4036,-15.34255,4.82975,-8.12525,-4.5807,S22,G2,Satisfaction,0.8555277382080453,-0.3236488890015773,-0.5,0.9836448809953706,1.1801936887041646,M,0.0201976967103713,2.9874874587011124
-5.5405,15.0603,-10.4832,3.1789,9.1122,22.2829,-6.1328,-13.6082,-5.9177,2.4236,7.2853,9.2144,20.93,-39.8586,5.601766666666667,-9.4643,8.24985,-1.74705,-9.8705,S22,G2,Satisfaction,0.8555277382080453,-0.3236488890015773,-0.5,0.9836448809953706,1.1801936887041646,M,0.0201976967103713,2.9874874587011124
-3.6291,20.6492,-11.3333,9.4807,-2.8401,35.046,-4.8371,-8.1545,8.5374,16.3782,10.5581,17.0086,18.746,-25.4101,7.895566666666667,-3.3320500000000006,13.78335,12.4578,-6.495800000000001,S22,G2,Satisfaction,0.8555277382080453,-0.3236488890015773,-0.5,0.9836448809953706,1.1801936887041646,M,0.0201976967103713,2.9874874587011124
-7.1215,17.5555,-17.1456,4.274,7.5325,30.9003,-17.5317,-21.7653,-5.1474,29.4955,-4.1754,1.8881,3.5213,-37.9855,5.999199999999999,-17.232100000000003,-1.14365,12.17405,-19.6485,S22,G2,Satisfaction,0.8555277382080453,-0.3236488890015773,-0.5,0.9836448809953706,1.1801936887041646,M,0.0201976967103713,2.9874874587011124
1.1897,30.6022,-4.5236,10.0465,21.1805,30.4372,-2.3798,-26.2999,-11.7947,27.162,-4.2006,2.4263,-10.79,-28.5623,14.822083333333332,-19.67615,-0.8871499999999999,7.683649999999999,-14.33985,S22,G2,Satisfaction,0.8555277382080453,-0.3236488890015773,-0.5,0.9836448809953706,1.1801936887041646,M,0.0201976967103713,2.9874874587011124
4.8284,42.8661,3.1674,19.6459,5.8097,39.7409,-1.9609,-10.6219,2.826,24.6048,3.471,7.8458,-24.2426,-12.7486,19.34306666666667,-18.4956,5.6584,13.7154,-6.2914,S22,G2,Satisfaction,0.8555277382080453,-0.3236488890015773,-0.5,0.9836448809953706,1.1801936887041646,M,0.0201976967103713,2.9874874587011124
8.2481,47.8019,2.9773,27.7414,-7.9873,44.7762,-9.2635,4.1154,13.7852,22.2013,0.48012,4.5924,-28.253,-9.3894,20.59293333333333,-18.8212,2.53626,17.99325,-2.57405,S22,G2,Satisfaction,0.8555277382080453,-0.3236488890015773,-0.5,0.9836448809953706,1.1801936887041646,M,0.0201976967103713,2.9874874587011124
17.9559,35.6593,1.8712,24.2222,6.5919,34.6701,4.2772,-0.21723,7.3935,12.5219,-8.8232,-0.32004,-26.5576,-21.8104,20.161766666666665,-24.184,-4.57162,9.9577,2.029985,S22,G2,Satisfaction,0.8555277382080453,-0.3236488890015773,-0.5,0.9836448809953706,1.1801936887041646,M,0.0201976967103713,2.9874874587011124
2.7785,19.4197,-12.341,11.1754,15.7475,18.4899,-2.0081,-14.3042,-4.6437,-2.3294,-10.6126,-2.6196,-10.8641,-18.183,9.211666666666668,-14.52355,-6.6161,-3.4865500000000003,-8.15615,S22,G2,Satisfaction,0.8555277382080453,-0.3236488890015773,-0.5,0.9836448809953706,1.1801936887041646,M,0.0201976967103713,2.9874874587011124
-11.4882,6.3846,-25.7006,11.8966,4.1366,23.1332,-10.6983,-11.4031,7.2291,0.78049,4.1242,11.6376,3.8877,-2.992,1.3936999999999993,0.4478500000000001,7.8809,4.004795,-11.0507,S22,G2,Satisfaction,0.8555277382080453,-0.3236488890015773,-0.5,0.9836448809953706,1.1801936887041646,M,0.0201976967103713,2.9874874587011124
-12.7421,3.6828,-27.029,9.7908,13.627,20.3537,4.0436,-12.1104,10.0414,7.6896,15.7462,13.5336,10.2343,1.6367,1.2805333333333329,5.935499999999999,14.6399,8.8655,-4.0334,S22,G2,Satisfaction,0.8555277382080453,-0.3236488890015773,-0.5,0.9836448809953706,1.1801936887041646,M,0.0201976967103713,2.9874874587011124
-12.9052,-7.6683,-25.4072,-4.8966,0.75155,9.8573,5.9316,-25.4838,-4.6611,-5.7568,6.4535,-1.3784,-0.58213,-2.1718,-6.711408333333332,-1.3769650000000002,2.53755,-5.20895,-9.7761,S22,G2,Satisfaction,0.8555277382080453,-0.3236488890015773,-0.5,0.9836448809953706,1.1801936887041646,M,0.0201976967103713,2.9874874587011124
-26.0432,-6.2805,-24.8101,-12.7622,5.3445,18.541,-8.5243,-20.9845,-17.1787,2.9365,-3.208,7.2394,3.1627,12.0585,-7.668416666666668,7.6106,2.0157,-7.121099999999999,-14.7544,S22,G2,Satisfaction,0.8555277382080453,-0.3236488890015773,-0.5,0.9836448809953706,1.1801936887041646,M,0.0201976967103713,2.9874874587011124
-20.3071,4.7619,-21.0029,2.1036,19.1238,24.3847,-12.9268,-5.6254,-16.6121,16.8603,-13.682,15.6162,-11.1271,15.3208,1.5106666666666666,2.09685,0.9670999999999994,0.1240999999999985,-9.2761,S22,G2,Satisfaction,0.8555277382080453,-0.3236488890015773,-0.5,0.9836448809953706,1.1801936887041646,M,0.0201976967103713,2.9874874587011124
-4.9887,6.3316,-5.8304,11.528,32.0764,13.6465,1.9489,4.2628,-11.9055,23.5439,-19.3532,2.6223,-24.5595,7.9099,8.7939,-8.3248,-8.365450000000001,5.8192,3.10585,S22,G2,Satisfaction,0.8555277382080453,-0.3236488890015773,-0.5,0.9836448809953706,1.1801936887041646,M,0.0201976967103713,2.9874874587011124
7.6439,3.6336,-4.0897,3.8802,18.6463,6.7992,6.7454,-9.4412,-13.5093,18.8859,-19.5829,-4.4917,-30.1298,14.3915,6.085583333333333,-7.869149999999999,-12.037299999999998,2.6883,-1.3479,S22,G2,Satisfaction,0.8555277382080453,-0.3236488890015773,-0.5,0.9836448809953706,1.1801936887041646,M,0.0201976967103713,2.9874874587011124
1.6205,9.9076,-10.3364,0.86516,25.8741,19.3759,-7.7593,2.2545,-13.6264,23.3167,-10.0609,7.8348,-19.9746,23.73,7.884476666666667,1.8777000000000008,-1.11305,4.84515,-2.7524,S22,G2,Satisfaction,0.8555277382080453,-0.3236488890015773,-0.5,0.9836448809953706,1.1801936887041646,M,0.0201976967103713,2.9874874587011124
-4.5048,6.0669,-11.1071,3.1323,21.0763,26.0972,-2.9312,14.6406,-14.1997,14.0352,-12.7026,5.9747,-15.5298,16.2781,6.793466666666667,0.3741499999999993,-3.36395,-0.0822500000000001,5.854699999999999,S22,G2,Satisfaction,0.8555277382080453,-0.3236488890015773,-0.5,0.9836448809953706,1.1801936887041646,M,0.0201976967103713,2.9874874587011124
-11.1911,2.4571,-12.7601,6.1901,5.7117,18.5029,-0.43764,7.7333,-12.8845,10.8736,-18.897,-4.123,-6.7142,10.1994,1.4851000000000003,1.7426000000000004,-11.51,-1.0054499999999995,3.64783,S22,G2,Satisfaction,0.8555277382080453,-0.3236488890015773,-0.5,0.9836448809953706,1.1801936887041646,M,0.0201976967103713,2.9874874587011124
-8.2006,3.7005,-13.3854,-1.1374,5.5571,3.9445,-5.5121,1.2413,-7.0098,18.1055,-5.2418,-3.4116,6.2092,12.8346,-1.5868833333333334,9.5219,-4.3267,5.54785,-2.1354,S22,G2,Satisfaction,0.8555277382080453,-0.3236488890015773,-0.5,0.9836448809953706,1.1801936887041646,M,0.0201976967103713,2.9874874587011124
-2.6078,-1.6223,-9.336,-11.7352,-5.4432,-4.176,-5.645,-6.717,-12.6181,2.9192,-3.5364,-9.2358,-0.19225,8.8173,-5.820083333333334,4.312525,-6.3861,-4.84945,-6.180999999999999,S22,G2,Satisfaction,0.8555277382080453,-0.3236488890015773,-0.5,0.9836448809953706,1.1801936887041646,M,0.0201976967103713,2.9874874587011124
7.2874,3.5758,-6.4568,1.4903,4.6222,3.9579,-2.9873,-0.28555,-8.6148,-10.9806,-15.8452,-12.8552,-12.7013,5.9702,2.4128,-3.36555,-14.3502,-9.7977,-1.636425,S22,G2,Satisfaction,0.8555277382080453,-0.3236488890015773,-0.5,0.9836448809953706,1.1801936887041646,M,0.0201976967103713,2.9874874587011124
10.0965,15.8827,-6.5331,10.2116,18.4448,2.3296,-6.0548,8.5427,6.0021,-3.3656,-15.3581,-9.7653,-16.1127,3.2929,8.40535,-6.4099,-12.5617,1.31825,1.24395,S22,G2,Satisfaction,0.8555277382080453,-0.3236488890015773,-0.5,0.9836448809953706,1.1801936887041646,M,0.0201976967103713,2.9874874587011124
15.5187,19.1024,4.5241,11.9179,14.3678,-0.12922,-4.3006,7.566,5.4543,-2.7,-7.4809,-6.8608,-17.4649,5.4144,10.883613333333331,-6.02525,-7.17085,1.37715,1.6326999999999998,S22,G2,Satisfaction,0.8555277382080453,-0.3236488890015773,-0.5,0.9836448809953706,1.1801936887041646,M,0.0201976967103713,2.9874874587011124
15.5153,7.7547,5.1799,5.6375,-0.59426,4.5157,6.1603,2.4749,-8.7853,-3.4662,-15.3795,-7.3768,-20.1269,9.7267,6.334806666666668,-5.2001,-11.37815,-6.12575,4.3176000000000005,S22,G2,Satisfaction,0.8555277382080453,-0.3236488890015773,-0.5,0.9836448809953706,1.1801936887041646,M,0.0201976967103713,2.9874874587011124
