AF3,AF4,F3,F4,F7,F8,FC5,FC6,O1,O2,P7,P8,T7,T8,Frontal,Temporal,Parietal,Occipital,Fronto-central,Participant,Game,Emotion,satisfaction,boredom,horrible,calm,funny,gender,arousal,valence
24.0847,-5.1943,8.0279,-7.0837,31.6404,-9.9173,-19.3616,-7.0837,5.1943,34.4732,-37.3068,27.8626,-7.0837,46.752,6.926283333333334,19.83415,-4.722100000000001,19.83375,-13.22265,S28,G1,Boredom,-0.996615895540124,1.5,-0.5,-0.7833494518006403,-0.8609460320922785,M,-2.077596580291638,-2.6442954838929187
16.5002,-4.4105,-3.3153,-12.7972,16.0468,-5.0714,-12.0605,-6.1865,9.1335,28.1548,-27.0405,21.9408,3.2587,52.9191,1.158766666666667,28.0889,-2.549850000000001,18.64415,-9.1235,S28,G1,Boredom,-0.996615895540124,1.5,-0.5,-0.7833494518006403,-0.8609460320922785,M,-2.077596580291638,-2.6442954838929187
18.815,1.0484,-2.6443,-14.3918,0.984,0.4272,-2.3647,-4.399,16.6125,25.9934,-18.3344,22.985,12.0353,47.3824,0.7064166666666668,29.70885,2.3253000000000004,21.302950000000003,-3.38185,S28,G1,Boredom,-0.996615895540124,1.5,-0.5,-0.7833494518006403,-0.8609460320922785,M,-2.077596580291638,-2.6442954838929187
7.2976,-0.90299,-8.152,-11.6389,-2.4482,0.40156,-6.9459,-3.1899,13.7273,25.378,-24.7901,26.328,4.7017,30.4395,-2.5738216666666665,17.5706,0.7689500000000002,19.55265,-5.0679,S28,G1,Boredom,-0.996615895540124,1.5,-0.5,-0.7833494518006403,-0.8609460320922785,M,-2.077596580291638,-2.6442954838929187
-0.2244,-7.9329,-1.5239,-16.1352,-0.88444,-3.873,-1.3344,-8.1932,16.209,17.7164,-19.0532,11.0536,9.6143,17.6846,-5.09564,13.64945,-3.999800000000001,16.962699999999998,-4.7638,S28,G1,Boredom,-0.996615895540124,1.5,-0.5,-0.7833494518006403,-0.8609460320922785,M,-2.077596580291638,-2.6442954838929187
-2.0994,-11.2349,-0.48824,-16.1114,-1.7756,-2.6955,-4.0871,-7.7016,7.6815,15.7091,-13.1869,-3.7097,9.0374,27.013,-5.734173333333334,18.0252,-8.4483,11.6953,-5.89435,S28,G1,Boredom,-0.996615895540124,1.5,-0.5,-0.7833494518006403,-0.8609460320922785,M,-2.077596580291638,-2.6442954838929187
3.2213,-6.3103,1.9021,-9.95,-1.1974,-4.8957,1.3529,0.78886,12.4145,14.294,-8.1461,-12.527,13.6899,28.6976,-2.871666666666666,21.19375,-10.33655,13.35425,1.07088,S28,G1,Boredom,-0.996615895540124,1.5,-0.5,-0.7833494518006403,-0.8609460320922785,M,-2.077596580291638,-2.6442954838929187
11.0559,-8.2932,3.2053,-17.3809,3.1245,-10.7414,-0.14557,-0.67575,9.309,6.3527,-19.4632,-11.3033,8.6185,17.0593,-3.1716333333333337,12.8389,-15.38325,7.83085,-0.4106599999999999,S28,G1,Boredom,-0.996615895540124,1.5,-0.5,-0.7833494518006403,-0.8609460320922785,M,-2.077596580291638,-2.6442954838929187
19.3652,-7.323,2.5404,-13.0327,16.6318,-3.957,-8.1652,-4.8857,-1.1673,10.222,-30.1017,3.4749,-5.5934,24.0632,2.370783333333333,9.2349,-13.3134,4.52735,-6.52545,S28,G1,Boredom,-0.996615895540124,1.5,-0.5,-0.7833494518006403,-0.8609460320922785,M,-2.077596580291638,-2.6442954838929187
20.0917,-7.8288,12.7774,-2.8056,15.6347,-6.5533,-2.9522,-9.3147,0.79211,13.3866,-30.1841,6.64,-11.8693,23.5636,5.21935,5.84715,-11.77205,7.089354999999999,-6.13345,S28,G1,Boredom,-0.996615895540124,1.5,-0.5,-0.7833494518006403,-0.8609460320922785,M,-2.077596580291638,-2.6442954838929187
17.9424,-0.74707,11.0661,0.19597,17.5299,-4.2711,-1.8313,2.5783,-4.9223,18.2502,-31.2062,20.3416,-10.2125,25.9282,6.9527,7.85785,-5.4323,6.66395,0.3735,S28,G1,Boredom,-0.996615895540124,1.5,-0.5,-0.7833494518006403,-0.8609460320922785,M,-2.077596580291638,-2.6442954838929187
16.8654,1.1867,0.95735,-2.649,14.5891,-4.9596,-0.77674,-1.3547,-2.738,19.9884,-25.5564,30.5221,-5.8223,22.4835,4.331658333333333,8.3306,2.482849999999999,8.6252,-1.06572,S28,G1,Boredom,-0.996615895540124,1.5,-0.5,-0.7833494518006403,-0.8609460320922785,M,-2.077596580291638,-2.6442954838929187
13.0199,-6.4403,-0.04434,-4.3794,7.1022,-8.4399,2.1035,-15.3734,2.1485,16.9006,-17.4115,15.4677,-10.1951,17.3566,0.1363600000000001,3.58075,-0.9718999999999998,9.52455,-6.63495,S28,G1,Boredom,-0.996615895540124,1.5,-0.5,-0.7833494518006403,-0.8609460320922785,M,-2.077596580291638,-2.6442954838929187
9.8776,-5.5822,2.3194,-6.4778,10.9266,-4.6273,4.3384,-9.3236,-6.0079,9.7476,-13.0615,3.6785,-11.9445,28.1215,1.0727166666666663,8.0885,-4.6915,1.86985,-2.4926000000000004,S28,G1,Boredom,-0.996615895540124,1.5,-0.5,-0.7833494518006403,-0.8609460320922785,M,-2.077596580291638,-2.6442954838929187
13.0637,-9.0243,4.0696,-9.867,10.271,-5.2939,5.9675,-8.7633,-7.5368,-4.9372,-17.9442,-5.0431,-8.3941,21.7121,0.536516666666667,6.659,-11.49365,-6.237,-1.3978999999999997,S28,G1,Boredom,-0.996615895540124,1.5,-0.5,-0.7833494518006403,-0.8609460320922785,M,-2.077596580291638,-2.6442954838929187
14.6405,-4.2337,1.4639,-4.0807,16.7384,7.7738,-5.2521,-5.8769,-7.5568,0.48592,-23.0069,8.9547,-8.3635,14.2699,5.3837,2.9532,-7.0261000000000005,-3.53544,-5.564500000000001,S28,G1,Boredom,-0.996615895540124,1.5,-0.5,-0.7833494518006403,-0.8609460320922785,M,-2.077596580291638,-2.6442954838929187
3.8457,0.27125,0.90397,-9.9744,11.4841,9.6689,-6.3534,-2.2185,-6.6312,8.4856,-18.3207,5.1116,-5.5002,14.8301,2.69992,4.664949999999999,-6.60455,0.9272,-4.28595,S28,G1,Boredom,-0.996615895540124,1.5,-0.5,-0.7833494518006403,-0.8609460320922785,M,-2.077596580291638,-2.6442954838929187
6.9198,-1.1623,3.2104,-8.9038,5.5998,2.9494,3.9442,-5.3912,-1.0382,-0.99662,-9.1936,-9.2951,0.96925,16.3018,1.43555,8.635525,-9.24435,-1.01741,-0.7235000000000003,S28,G1,Boredom,-0.996615895540124,1.5,-0.5,-0.7833494518006403,-0.8609460320922785,M,-2.077596580291638,-2.6442954838929187
11.6998,5.0469,-7.8438,1.5478,10.459,16.8724,-2.4318,0.12657,-3.3374,-5.1868,-10.0583,-3.1374,-0.50618,18.6295,6.297016666666667,9.06166,-6.597849999999999,-4.2621,-1.152615,S28,G1,Boredom,-0.996615895540124,1.5,-0.5,-0.7833494518006403,-0.8609460320922785,M,-2.077596580291638,-2.6442954838929187
4.8584,4.2719,-1.2338,-0.90663,4.6363,24.4274,-5.5908,-1.2974,-5.4987,-8.1814,-15.5943,4.1345,-2.8364,11.3723,6.0089283333333325,4.26795,-5.729900000000001,-6.84005,-3.4441,S28,G1,Boredom,-0.996615895540124,1.5,-0.5,-0.7833494518006403,-0.8609460320922785,M,-2.077596580291638,-2.6442954838929187
-0.62782,-1.1791,4.035,-3.2133,8.6086,16.8228,-8.5616,-1.6921,-9.4183,-1.5516,-15.1303,8.136,-11.6389,14.9404,4.074363333333333,1.6507500000000004,-3.4971500000000004,-5.48495,-5.12685,S28,G1,Boredom,-0.996615895540124,1.5,-0.5,-0.7833494518006403,-0.8609460320922785,M,-2.077596580291638,-2.6442954838929187
-0.59015,-1.1084,-0.92928,-1.1311,8.0921,18.6471,-2.3806,-1.5897,-3.1869,9.8752,-0.12246,12.3709,-9.0511,15.9325,3.830045,3.4407,6.12422,3.34415,-1.98515,S28,G1,Boredom,-0.996615895540124,1.5,-0.5,-0.7833494518006403,-0.8609460320922785,M,-2.077596580291638,-2.6442954838929187
-4.8043,-7.1808,-6.0682,-10.0359,-6.4934,10.4451,4.8455,-6.689,-2.5231,-2.5226,0.4248,-2.4714,-8.9806,3.1712,-4.022916666666666,-2.9047000000000005,-1.0233,-2.52285,-0.9217499999999998,S28,G1,Boredom,-0.996615895540124,1.5,-0.5,-0.7833494518006403,-0.8609460320922785,M,-2.077596580291638,-2.6442954838929187
-2.6276,-0.13934,-1.9263,-3.7673,6.5793,16.429,4.5547,4.1008,-8.039,1.4057,-7.1574,8.4707,-8.4418,16.2031,2.4246266666666663,3.8806499999999993,0.6566500000000004,-3.31665,4.32775,S28,G1,Boredom,-0.996615895540124,1.5,-0.5,-0.7833494518006403,-0.8609460320922785,M,-2.077596580291638,-2.6442954838929187
-13.804,-8.6306,1.0225,-12.0418,-5.1487,9.7764,4.2819,-6.5342,-6.6119,1.3218,-14.2833,17.4072,-4.1578,2.0083,-4.804366666666666,-1.07475,1.5619499999999995,-2.6450500000000003,-1.12615,S28,G1,Boredom,-0.996615895540124,1.5,-0.5,-0.7833494518006403,-0.8609460320922785,M,-2.077596580291638,-2.6442954838929187
-12.5032,-5.7517,1.4337,-23.1255,-11.9239,9.6624,7.3303,-5.6696,-3.8542,1.7151,-12.9546,20.6132,1.2863,-2.3627,-7.0347,-0.5381999999999999,3.8293,-1.06955,0.8303500000000001,S28,G1,Boredom,-0.996615895540124,1.5,-0.5,-0.7833494518006403,-0.8609460320922785,M,-2.077596580291638,-2.6442954838929187
-4.6694,1.6771,-9.5138,-23.1544,2.8916,11.4433,7.3626,-2.0236,-5.9835,2.0843,-10.7601,19.8486,-3.9851,11.8791,-3.554266666666667,3.947,4.544250000000001,-1.9496,2.6695,S28,G1,Boredom,-0.996615895540124,1.5,-0.5,-0.7833494518006403,-0.8609460320922785,M,-2.077596580291638,-2.6442954838929187
-5.3339,-10.7019,-7.9992,-17.9877,16.8181,11.7014,7.8656,-8.5142,-5.625,-1.8191,-9.1707,19.6014,-13.1916,12.6505,-2.2505333333333333,-0.27055,5.215350000000001,-3.72205,-0.3243000000000005,S28,G1,Boredom,-0.996615895540124,1.5,-0.5,-0.7833494518006403,-0.8609460320922785,M,-2.077596580291638,-2.6442954838929187
-10.6803,-7.2261,-0.90772,-4.6296,3.1932,22.333,2.6715,2.3861,-7.176,8.6795,-6.731,29.76,-14.2886,1.502,0.3470799999999994,-6.3933,11.514500000000002,0.7517500000000004,2.5288,S28,G1,Boredom,-0.996615895540124,1.5,-0.5,-0.7833494518006403,-0.8609460320922785,M,-2.077596580291638,-2.6442954838929187
-16.6514,-1.1257,2.9251,-6.2407,-5.4989,9.6589,6.2886,4.1319,-4.8574,10.0477,-7.2719,19.4739,-5.8751,-5.1992,-2.822116666666666,-5.5371500000000005,6.101000000000001,2.5951500000000003,5.21025,S28,G1,Boredom,-0.996615895540124,1.5,-0.5,-0.7833494518006403,-0.8609460320922785,M,-2.077596580291638,-2.6442954838929187
-13.7634,-2.9471,2.7491,-12.4774,8.931,8.1355,11.5782,3.8844,-10.2319,9.4453,-4.0024,12.6386,-6.4673,3.6132,-1.5620500000000004,-1.42705,4.3181,-0.3933,7.7313,S28,G1,Boredom,-0.996615895540124,1.5,-0.5,-0.7833494518006403,-0.8609460320922785,M,-2.077596580291638,-2.6442954838929187
-14.3535,-7.0208,-1.6654,-11.2562,21.2126,21.7474,5.6888,7.9009,-11.0348,9.3502,-1.4002,17.075,-8.4403,11.4248,1.4440166666666656,1.4922499999999994,7.8374,-0.8423000000000007,6.79485,S28,G1,Boredom,-0.996615895540124,1.5,-0.5,-0.7833494518006403,-0.8609460320922785,M,-2.077596580291638,-2.6442954838929187
-20.1039,-7.5438,0.32304,-14.3587,5.8398,18.1488,3.4589,-1.0732,0.961,2.1786,-8.872,18.8841,-4.156,6.0172,-2.949126666666666,0.9306,5.00605,1.5698,1.19285,S28,G1,Boredom,-0.996615895540124,1.5,-0.5,-0.7833494518006403,-0.8609460320922785,M,-2.077596580291638,-2.6442954838929187
-23.6202,-2.3686,-2.5295,-9.7197,-6.8554,18.0037,4.1961,0.88016,3.7365,8.6589,-11.1738,24.3622,-1.0734,9.4336,-4.514950000000001,4.1801,6.594200000000001,6.197699999999999,2.53813,S28,G1,Boredom,-0.996615895540124,1.5,-0.5,-0.7833494518006403,-0.8609460320922785,M,-2.077596580291638,-2.6442954838929187
-22.6756,-8.3654,-5.6831,-12.4428,6.3064,12.6739,11.0275,0.35478,6.8177,5.7783,3.5966,8.8005,1.352,5.5614,-5.031099999999998,3.4567,6.19855,6.298,5.69114,S28,G1,Boredom,-0.996615895540124,1.5,-0.5,-0.7833494518006403,-0.8609460320922785,M,-2.077596580291638,-2.6442954838929187
-12.8141,-0.3077,-4.3979,-8.8626,12.5387,7.1904,11.3101,-2.4993,5.4644,6.3759,12.4208,0.17762,3.1603,3.3392,-1.108866666666667,3.24975,6.29921,5.92015,4.4054,S28,G1,Boredom,-0.996615895540124,1.5,-0.5,-0.7833494518006403,-0.8609460320922785,M,-2.077596580291638,-2.6442954838929187
-9.2121,7.2661,-3.1893,2.0582,15.5647,18.0931,9.6868,2.3724,1.3591,16.3823,2.2308,14.267,6.7481,10.6942,5.096783333333334,8.72115,8.248899999999999,8.870700000000001,6.0296,S28,G1,Boredom,-0.996615895540124,1.5,-0.5,-0.7833494518006403,-0.8609460320922785,M,-2.077596580291638,-2.6442954838929187
-16.6877,-4.9752,-1.5811,-10.8149,4.714,7.0907,10.5233,-2.0195,1.7492,10.2047,1.6244,17.7283,5.8716,2.9693,-3.709033333333334,4.42045,9.67635,5.97695,4.251900000000001,S28,G1,Boredom,-0.996615895540124,1.5,-0.5,-0.7833494518006403,-0.8609460320922785,M,-2.077596580291638,-2.6442954838929187
-14.2692,0.51756,-7.6257,-19.1391,3.0138,4.3037,9.4189,8.0181,-0.71639,11.9539,9.5548,16.1916,3.1578,12.7085,-5.533156666666667,7.93315,12.8732,5.618755,8.7185,S28,G1,Boredom,-0.996615895540124,1.5,-0.5,-0.7833494518006403,-0.8609460320922785,M,-2.077596580291638,-2.6442954838929187
-10.5798,-3.2918,-15.6686,-25.5461,0.94407,5.9344,12.6321,4.7038,2.1598,8.4035,8.0377,7.6647,2.9687,10.057,-8.034638333333334,6.51285,7.851199999999999,5.28165,8.66795,S28,G1,Boredom,-0.996615895540124,1.5,-0.5,-0.7833494518006403,-0.8609460320922785,M,-2.077596580291638,-2.6442954838929187
-6.1671,-11.5944,-8.117,-27.7921,11.2769,1.8005,9.0406,-9.6784,6.7524,0.34257,4.7218,-0.35093,-2.8767,-4.6464,-6.765533333333334,-3.76155,2.185435,3.547485,-0.3189000000000002,S28,G1,Boredom,-0.996615895540124,1.5,-0.5,-0.7833494518006403,-0.8609460320922785,M,-2.077596580291638,-2.6442954838929187
-1.075,-5.2314,0.87011,-17.6236,23.8233,6.4146,1.8866,-2.5535,1.6251,1.2672,-3.1173,6.2817,-7.4262,-0.65707,1.196335,-4.041634999999999,1.5821999999999998,1.44615,-0.33345,S28,G1,Boredom,-0.996615895540124,1.5,-0.5,-0.7833494518006403,-0.8609460320922785,M,-2.077596580291638,-2.6442954838929187
-0.53789,-7.2795,3.179,-18.9273,8.2939,-1.0535,6.9681,-7.595,-1.7787,-6.8372,-12.8471,-6.8457,-2.7311,4.5771,-2.7208816666666658,0.9229999999999998,-9.8464,-4.30795,-0.31345,S28,G1,Boredom,-0.996615895540124,1.5,-0.5,-0.7833494518006403,-0.8609460320922785,M,-2.077596580291638,-2.6442954838929187
1.3829,1.6582,-3.6233,-17.7917,5.3679,2.7876,8.4385,-6.1951,-0.72679,-0.75971,-3.5762,-15.8802,4.0443,-6.087,-1.7030666666666667,-1.02135,-9.7282,-0.74325,1.1216999999999997,S28,G1,Boredom,-0.996615895540124,1.5,-0.5,-0.7833494518006403,-0.8609460320922785,M,-2.077596580291638,-2.6442954838929187
0.82778,2.0308,-10.4896,-20.0299,19.1458,1.2031,7.4601,-1.5734,-0.21106,-0.242,1.8326,-17.2889,3.3296,-19.8218,-1.21867,-8.2461,-7.728150000000001,-0.22653,2.94335,S28,G1,Boredom,-0.996615895540124,1.5,-0.5,-0.7833494518006403,-0.8609460320922785,M,-2.077596580291638,-2.6442954838929187
1.7228,-9.4242,-5.1367,-18.8277,20.4255,-7.3687,9.8466,-9.0343,-1.1431,-14.3275,-9.6106,-16.2511,-6.315,-15.3936,-3.1015,-10.8543,-12.93085,-7.7353,0.4061500000000002,S28,G1,Boredom,-0.996615895540124,1.5,-0.5,-0.7833494518006403,-0.8609460320922785,M,-2.077596580291638,-2.6442954838929187
7.7589,-5.5539,-8.1343,-6.8374,19.6721,-1.7323,3.1164,-11.798,-5.3245,-14.952,-10.4503,-10.0809,-8.2967,-0.36997,0.8621833333333333,-4.333335,-10.2656,-10.13825,-4.3408,S28,G1,Boredom,-0.996615895540124,1.5,-0.5,-0.7833494518006403,-0.8609460320922785,M,-2.077596580291638,-2.6442954838929187
10.1261,-1.4428,-5.7577,-2.6492,13.7687,-8.2399,-0.84852,-12.0344,-5.0051,-7.4433,-6.0463,-9.4769,-4.9661,-14.4478,0.9675333333333332,-9.70695,-7.7616,-6.2242,-6.44146,S28,G1,Boredom,-0.996615895540124,1.5,-0.5,-0.7833494518006403,-0.8609460320922785,M,-2.077596580291638,-2.6442954838929187
8.5743,-1.3562,-0.69011,6.9549,27.0426,1.6997,-1.7419,0.96562,-13.2048,4.337,-15.1278,5.1917,-14.1125,-1.7751,7.037531666666666,-7.9438,-4.96805,-4.4339,-0.38814,S28,G1,Boredom,-0.996615895540124,1.5,-0.5,-0.7833494518006403,-0.8609460320922785,M,-2.077596580291638,-2.6442954838929187
9.0045,-3.1638,-3.4819,13.1487,35.8773,15.6977,0.25161,2.7966,-13.3572,3.132,-15.1648,18.9802,-17.0441,12.4314,11.180416666666666,-2.30635,1.9077,-5.1126000000000005,1.524105,S28,G1,Boredom,-0.996615895540124,1.5,-0.5,-0.7833494518006403,-0.8609460320922785,M,-2.077596580291638,-2.6442954838929187
7.9926,-1.5571,-4.6898,3.3881,19.6246,14.351,-1.1803,-11.0659,-2.6389,-7.917,-4.3372,8.0596,-12.7152,5.6135,6.518233333333334,-3.55085,1.8612,-5.27795,-6.123099999999999,S28,G1,Boredom,-0.996615895540124,1.5,-0.5,-0.7833494518006403,-0.8609460320922785,M,-2.077596580291638,-2.6442954838929187
0.42844,7.5085,-8.6584,0.82237,9.8793,17.74,-1.5816,-11.8183,-0.11906,-6.0256,0.17216,0.49148,-9.5917,-6.5292,4.620035,-8.06045,0.33182,-3.07233,-6.69995,S28,G1,Boredom,-0.996615895540124,1.5,-0.5,-0.7833494518006403,-0.8609460320922785,M,-2.077596580291638,-2.6442954838929187
-1.0141,3.7526,-5.7779,3.135,7.8697,14.3145,12.6133,-4.9703,1.3049,-4.2472,-2.1992,5.6567,-4.7657,0.00155,3.7133,-2.382075,1.72875,-1.4711500000000002,3.8215,S28,G1,Boredom,-0.996615895540124,1.5,-0.5,-0.7833494518006403,-0.8609460320922785,M,-2.077596580291638,-2.6442954838929187
-0.95279,-1.1951,-10.1538,2.9465,5.5086,14.3995,5.7844,9.4279,-7.2739,2.6187,-9.6226,19.4173,-12.9802,14.1015,1.7588183333333334,0.5606499999999999,4.89735,-2.3276000000000003,7.606149999999999,S28,G1,Boredom,-0.996615895540124,1.5,-0.5,-0.7833494518006403,-0.8609460320922785,M,-2.077596580291638,-2.6442954838929187
-2.3124,9.7386,-10.0162,1.3528,14.1507,21.5639,6.8542,10.346,1.1909,16.5616,3.7052,32.3523,-5.1173,27.3554,5.7462333333333335,11.11905,18.02875,8.876249999999999,8.6001,S28,G1,Boredom,-0.996615895540124,1.5,-0.5,-0.7833494518006403,-0.8609460320922785,M,-2.077596580291638,-2.6442954838929187
-9.2574,2.0706,-9.8883,-11.4784,13.7738,10.3527,14.4708,-2.0806,10.0916,9.9684,8.6772,16.3111,5.1061,12.6256,-0.7378333333333332,8.86585,12.49415,10.03,6.1951,S28,G1,Boredom,-0.996615895540124,1.5,-0.5,-0.7833494518006403,-0.8609460320922785,M,-2.077596580291638,-2.6442954838929187
-0.20144,1.9468,-11.183,-4.1786,27.0474,15.3993,14.5473,8.4332,0.98565,8.4265,3.4349,7.8445,3.856,9.0349,4.805076666666666,6.44545,5.6397,4.706075,11.49025,S28,G1,Boredom,-0.996615895540124,1.5,-0.5,-0.7833494518006403,-0.8609460320922785,M,-2.077596580291638,-2.6442954838929187
5.0054,1.3565,-8.1519,-3.4553,32.5755,14.0019,14.1461,2.7325,-7.1019,-0.10839,-3.8553,5.0118,-2.5153,19.3539,6.888683333333333,8.4193,0.5782499999999999,-3.605145,8.4393,S28,G1,Boredom,-0.996615895540124,1.5,-0.5,-0.7833494518006403,-0.8609460320922785,M,-2.077596580291638,-2.6442954838929187
4.2325,3.6371,-3.4123,0.057336,33.9263,10.8016,10.9363,1.1517,-7.1474,0.37069,-6.9293,13.6846,-1.8918,23.3874,8.207089333333334,10.7478,3.37765,-3.388355,6.044,S28,G1,Boredom,-0.996615895540124,1.5,-0.5,-0.7833494518006403,-0.8609460320922785,M,-2.077596580291638,-2.6442954838929187
-2.1604,3.8915,-3.6792,4.3044,40.8643,12.5146,12.6421,9.111,-7.1903,-2.0117,-9.8189,13.3361,-5.0836,14.9009,9.2892,4.90865,1.7586000000000004,-4.601,10.87655,S28,G1,Boredom,-0.996615895540124,1.5,-0.5,-0.7833494518006403,-0.8609460320922785,M,-2.077596580291638,-2.6442954838929187
1.7471,-1.0651,-5.3479,4.9904,42.1894,10.8185,16.6048,4.7864,-7.704,-13.2256,-7.3422,-1.564,-2.8901,2.6723,8.888733333333333,-0.1089,-4.4531,-10.4648,10.6956,S28,G1,Boredom,-0.996615895540124,1.5,-0.5,-0.7833494518006403,-0.8609460320922785,M,-2.077596580291638,-2.6442954838929187
4.0033,-1.4728,-17.7775,4.2193,27.8527,11.5862,4.7474,2.1382,-14.325,-11.0153,-3.5954,-0.12161,-2.2441,-7.4049,4.7352,-4.8245,-1.858505,-12.67015,3.4428,S28,G1,Boredom,-0.996615895540124,1.5,-0.5,-0.7833494518006403,-0.8609460320922785,M,-2.077596580291638,-2.6442954838929187
4.2357,0.9766,-9.6268,1.605,20.9868,6.6415,10.6024,-2.2406,-1.6601,-4.2154,-1.9629,6.9698,-1.6378,-10.2659,4.136466666666666,-5.95185,2.50345,-2.93775,4.180899999999999,S28,G1,Boredom,-0.996615895540124,1.5,-0.5,-0.7833494518006403,-0.8609460320922785,M,-2.077596580291638,-2.6442954838929187
3.9816,1.8623,4.173,6.2309,33.8276,7.1873,15.6327,-0.21674,-1.5605,-5.8509,-2.7893,4.6622,-8.151,4.45,9.543783333333332,-1.8505,0.9364500000000002,-3.7057,7.70798,S28,G1,Boredom,-0.996615895540124,1.5,-0.5,-0.7833494518006403,-0.8609460320922785,M,-2.077596580291638,-2.6442954838929187
1.8537,-1.0827,2.0337,8.6902,33.7542,7.7007,9.0279,3.5737,-9.9674,-10.2225,2.1006,-0.34011,-7.6615,8.0278,8.824966666666667,0.1831499999999994,0.8802449999999999,-10.09495,6.300800000000001,S28,G1,Boredom,-0.996615895540124,1.5,-0.5,-0.7833494518006403,-0.8609460320922785,M,-2.077596580291638,-2.6442954838929187
0.7978,-3.8518,6.6343,-0.33169,17.629,-1.2618,6.5972,-7.0297,-6.5352,-12.4423,-6.5259,-3.1529,-8.1465,-6.5539,3.2693016666666668,-7.350199999999999,-4.8394,-9.48875,-0.21625,S28,G1,Boredom,-0.996615895540124,1.5,-0.5,-0.7833494518006403,-0.8609460320922785,M,-2.077596580291638,-2.6442954838929187
0.74993,5.8245,4.3468,-1.2569,30.6708,5.4245,3.3678,-2.8309,-11.8104,-6.0294,-18.4132,0.81417,-12.3808,-17.5621,7.626605,-14.97145,-8.799515,-8.9199,0.2684499999999998,S28,G1,Boredom,-0.996615895540124,1.5,-0.5,-0.7833494518006403,-0.8609460320922785,M,-2.077596580291638,-2.6442954838929187
-0.23932,4.5308,0.30902,3.5415,24.1084,8.8779,7.8887,8.6735,-7.3239,-17.0013,-5.0296,-13.3347,0.64089,-8.9517,6.854716666666666,-4.155405,-9.18215,-12.1626,8.2811,S28,G1,Boredom,-0.996615895540124,1.5,-0.5,-0.7833494518006403,-0.8609460320922785,M,-2.077596580291638,-2.6442954838929187
-2.5865,2.8417,5.4848,10.4127,12.7446,11.651,8.8318,13.3474,6.8108,-20.2313,5.1886,-26.6346,14.2977,-0.38667,6.75805,6.955515,-10.723,-6.71025,11.0896,S28,G1,Boredom,-0.996615895540124,1.5,-0.5,-0.7833494518006403,-0.8609460320922785,M,-2.077596580291638,-2.6442954838929187
-6.2092,0.78265,2.322,9.7879,23.3136,10.951,0.74609,10.658,-1.1537,-5.7952,-2.6785,-12.4202,7.7725,-4.1414,6.824658333333335,1.81555,-7.54935,-3.47445,5.702045,S28,G1,Boredom,-0.996615895540124,1.5,-0.5,-0.7833494518006403,-0.8609460320922785,M,-2.077596580291638,-2.6442954838929187
3.1364,-7.2922,3.5991,5.8949,29.9427,-0.56672,7.785,-0.84301,-11.0018,-8.7524,-2.9899,-1.7586,-4.4997,-13.8102,5.7856966666666665,-9.15495,-2.37425,-9.8771,3.4709950000000003,S28,G1,Boredom,-0.996615895540124,1.5,-0.5,-0.7833494518006403,-0.8609460320922785,M,-2.077596580291638,-2.6442954838929187
3.8925,-4.021,7.1619,9.32,33.8134,3.2452,8.2621,6.7634,-14.1187,-13.8945,-7.5327,5.9036,-8.0067,-2.5912,8.902,-5.2989500000000005,-0.8145500000000001,-14.0066,7.51275,S28,G1,Boredom,-0.996615895540124,1.5,-0.5,-0.7833494518006403,-0.8609460320922785,M,-2.077596580291638,-2.6442954838929187
-9.0916,-6.1418,9.0933,7.3431,22.812,3.5221,4.4611,10.608,-10.9114,-13.5334,-16.0533,-6.2569,-0.44306,-1.0198,4.589516666666667,-0.73143,-11.1551,-12.2224,7.53455,S28,G1,Boredom,-0.996615895540124,1.5,-0.5,-0.7833494518006403,-0.8609460320922785,M,-2.077596580291638,-2.6442954838929187
-4.7682,-8.6069,10.4362,3.1246,23.3318,-0.46708,5.1368,2.4149,-10.2567,-7.0541,-14.1459,-8.7151,-3.251,-6.626,3.8417366666666672,-4.9385,-11.4305,-8.6554,3.77585,S28,G1,Boredom,-0.996615895540124,1.5,-0.5,-0.7833494518006403,-0.8609460320922785,M,-2.077596580291638,-2.6442954838929187
-2.5931,-1.4785,4.1432,2.9376,36.0319,4.2835,11.4406,6.0483,-11.5302,1.8696,-8.5745,5.9078,-8.7219,-2.4501,7.220766666666667,-5.586,-1.3333500000000005,-4.8303,8.74445,S28,G1,Boredom,-0.996615895540124,1.5,-0.5,-0.7833494518006403,-0.8609460320922785,M,-2.077596580291638,-2.6442954838929187
-5.7442,1.9151,7.2003,-1.4896,37.2426,5.4429,24.8541,5.2133,3.2616,7.896,4.69,19.3154,3.6063,-0.88667,7.42785,1.359815,12.0027,5.5788,15.0337,S28,G1,Boredom,-0.996615895540124,1.5,-0.5,-0.7833494518006403,-0.8609460320922785,M,-2.077596580291638,-2.6442954838929187
-2.0929,6.9954,3.4626,-1.8715,33.5926,9.3672,20.5975,5.3726,4.0784,10.7289,3.9374,17.6844,3.863,11.9175,8.242233333333333,7.89025,10.8109,7.40365,12.98505,S28,G1,Boredom,-0.996615895540124,1.5,-0.5,-0.7833494518006403,-0.8609460320922785,M,-2.077596580291638,-2.6442954838929187
-3.8563,5.6309,0.4216,-2.7039,28.7429,5.0269,14.6381,6.9392,-2.7783,-2.1932,-3.8551,2.5233,0.79799,1.7577,5.543683333333333,1.277845,-0.6659000000000002,-2.4857500000000003,10.78865,S28,G1,Boredom,-0.996615895540124,1.5,-0.5,-0.7833494518006403,-0.8609460320922785,M,-2.077596580291638,-2.6442954838929187
-9.2922,3.4046,7.9521,-4.431,22.2962,1.8916,20.3714,5.5786,-3.5559,-14.3405,0.15411,-11.7281,5.4723,-12.4478,3.6368833333333335,-3.487750000000001,-5.786995,-8.9482,12.975,S28,G1,Boredom,-0.996615895540124,1.5,-0.5,-0.7833494518006403,-0.8609460320922785,M,-2.077596580291638,-2.6442954838929187
-8.2621,2.7277,1.336,1.0295,19.5416,8.8622,13.9544,8.5492,-6.6478,-5.4517,0.61743,-2.186,1.8386,2.3991,4.205816666666666,2.11885,-0.7842849999999999,-6.04975,11.2518,S28,G1,Boredom,-0.996615895540124,1.5,-0.5,-0.7833494518006403,-0.8609460320922785,M,-2.077596580291638,-2.6442954838929187
-2.0995,-0.26913,0.31115,-2.8106,4.2691,4.5521,13.1176,5.2031,-1.5273,8.9754,-0.36521,12.0452,-2.0501,16.3552,0.6588533333333334,7.15255,5.839995,3.72405,9.16035,S28,G1,Boredom,-0.996615895540124,1.5,-0.5,-0.7833494518006403,-0.8609460320922785,M,-2.077596580291638,-2.6442954838929187
-4.3346,4.9417,1.7093,-5.9473,4.4178,4.7516,9.0243,7.252,-0.018818,16.5321,0.12928,11.8619,-0.51024,1.2743,0.9230833333333331,0.38203,5.99559,8.256641,8.13815,S28,G1,Boredom,-0.996615895540124,1.5,-0.5,-0.7833494518006403,-0.8609460320922785,M,-2.077596580291638,-2.6442954838929187
-12.5746,-1.0221,-0.28265,-8.4241,6.0421,5.4107,7.5386,6.8168,2.816,7.0402,4.8446,-2.0729,9.9098,-4.4695,-1.8084416666666667,2.7201500000000003,1.3858499999999998,4.9281,7.1777,S28,G1,Boredom,-0.996615895540124,1.5,-0.5,-0.7833494518006403,-0.8609460320922785,M,-2.077596580291638,-2.6442954838929187
-3.7926,-8.044,3.0405,-8.3903,8.9849,7.4472,16.0589,4.991,4.0638,3.3115,4.0813,-16.0485,6.9542,0.049182,-0.1257166666666666,3.501691,-5.983600000000001,3.68765,10.52495,S28,G1,Boredom,-0.996615895540124,1.5,-0.5,-0.7833494518006403,-0.8609460320922785,M,-2.077596580291638,-2.6442954838929187
-0.73188,-4.7281,-6.5866,-8.8316,14.1126,7.0008,14.1507,3.7477,-9.4026,1.2239,-6.5526,-22.2366,-7.5631,5.7131,0.0392033333333333,-0.9250000000000004,-14.3946,-4.08935,8.949200000000001,S28,G1,Boredom,-0.996615895540124,1.5,-0.5,-0.7833494518006403,-0.8609460320922785,M,-2.077596580291638,-2.6442954838929187
-0.2154,2.6388,2.7803,-6.8849,16.5712,12.7197,19.4406,3.0503,-1.7553,-1.2106,1.8681,-13.8192,-7.6497,14.342,4.601616666666667,3.34615,-5.97555,-1.48295,11.24545,S28,G1,Boredom,-0.996615895540124,1.5,-0.5,-0.7833494518006403,-0.8609460320922785,M,-2.077596580291638,-2.6442954838929187
-8.2304,-3.6581,4.975,-10.7218,19.8269,17.1508,8.3577,2.3952,-9.6779,1.2226,-2.494,-10.6285,-7.6628,8.2872,3.223733333333333,0.3122000000000002,-6.56125,-4.22765,5.37645,S28,G1,Boredom,-0.996615895540124,1.5,-0.5,-0.7833494518006403,-0.8609460320922785,M,-2.077596580291638,-2.6442954838929187
-0.6529,-4.855,1.3707,-9.6064,27.6104,11.8717,11.162,3.6678,-5.7914,-2.1556,-4.705,-19.9072,-6.73,-5.9052,4.28975,-6.3176000000000005,-12.3061,-3.973500000000001,7.4149,S28,G1,Boredom,-0.996615895540124,1.5,-0.5,-0.7833494518006403,-0.8609460320922785,M,-2.077596580291638,-2.6442954838929187
7.4146,0.63107,4.5947,-14.2247,26.4263,1.2426,22.2986,1.0867,8.6561,-12.8883,9.6773,-32.8128,7.3685,-8.8562,4.347428333333333,-0.7438499999999997,-11.56775,-2.1160999999999994,11.69265,S28,G1,Boredom,-0.996615895540124,1.5,-0.5,-0.7833494518006403,-0.8609460320922785,M,-2.077596580291638,-2.6442954838929187
-0.58603,10.0375,-2.2925,-19.0376,20.1186,9.669,16.2376,2.9109,11.5094,-0.78038,23.1966,-24.7724,14.4822,-6.4355,2.984828333333333,4.023350000000001,-0.7879000000000005,5.36451,9.57425,S28,G1,Boredom,-0.996615895540124,1.5,-0.5,-0.7833494518006403,-0.8609460320922785,M,-2.077596580291638,-2.6442954838929187
-3.8571,4.2405,1.1512,-17.4237,22.2168,12.3941,25.1811,-4.3479,13.1799,-4.0398,20.9944,-25.6471,15.9744,-18.7999,3.1203,-1.4127500000000008,-2.32635,4.57005,10.4166,S28,G1,Boredom,-0.996615895540124,1.5,-0.5,-0.7833494518006403,-0.8609460320922785,M,-2.077596580291638,-2.6442954838929187
2.9854,-0.7365,2.9702,-5.9893,34.9838,7.8721,27.4477,0.63558,10.5001,-12.2979,8.4006,-25.053,8.4048,-7.2829,7.014283333333334,0.5609500000000001,-8.3262,-0.8989000000000003,14.04164,S28,G1,Boredom,-0.996615895540124,1.5,-0.5,-0.7833494518006403,-0.8609460320922785,M,-2.077596580291638,-2.6442954838929187
-1.9158,-3.526,-11.308,-11.2963,38.619,1.7325,11.7008,5.3196,-0.51932,-3.06,3.1744,-16.9383,-6.1995,1.6541,2.0508999999999995,-2.2727,-6.881950000000001,-1.78966,8.5102,S28,G1,Boredom,-0.996615895540124,1.5,-0.5,-0.7833494518006403,-0.8609460320922785,M,-2.077596580291638,-2.6442954838929187
1.5049,0.93652,-8.3353,-12.0349,30.1624,-2.6206,12.3487,0.75039,-3.793,2.3188,1.5676,-15.4499,-5.4227,-7.4173,1.6021700000000003,-6.42,-6.94115,-0.7371000000000001,6.549544999999999,S28,G1,Boredom,-0.996615895540124,1.5,-0.5,-0.7833494518006403,-0.8609460320922785,M,-2.077596580291638,-2.6442954838929187
4.2482,4.6582,-9.7237,-2.8128,26.4642,4.1482,7.8299,3.539,-13.9549,-11.9203,-10.8044,-18.3008,-0.37432,-6.028,4.497050000000001,-3.20116,-14.552599999999998,-12.9376,5.68445,S28,G1,Boredom,-0.996615895540124,1.5,-0.5,-0.7833494518006403,-0.8609460320922785,M,-2.077596580291638,-2.6442954838929187
18.0933,12.8788,1.2491,3.9675,33.3764,11.4551,16.8044,7.1046,-2.7282,-17.884,-2.6004,-27.5922,9.0924,-2.8327,13.503366666666668,3.12985,-15.0963,-10.3061,11.9545,S28,G1,Boredom,-0.996615895540124,1.5,-0.5,-0.7833494518006403,-0.8609460320922785,M,-2.077596580291638,-2.6442954838929187
26.0472,12.5782,6.3685,2.3122,40.3459,10.2948,13.4346,0.53888,-9.649,-16.3388,-6.6953,-28.2981,-4.2041,-6.9136,16.324466666666662,-5.55885,-17.4967,-12.9939,6.98674,S28,G1,Boredom,-0.996615895540124,1.5,-0.5,-0.7833494518006403,-0.8609460320922785,M,-2.077596580291638,-2.6442954838929187
22.1233,0.017216,-0.15261,-0.18759,33.6756,17.7055,2.7117,-0.91028,-21.8197,-8.2744,-17.1547,-12.5003,-9.1457,-9.8041,12.196902666666668,-9.4749,-14.8275,-15.04705,0.90071,S28,G1,Boredom,-0.996615895540124,1.5,-0.5,-0.7833494518006403,-0.8609460320922785,M,-2.077596580291638,-2.6442954838929187
24.1013,-1.4006,2.2176,2.1847,30.2383,16.1706,14.3552,-0.38309,-12.4831,-8.2505,-14.7086,-2.2377,0.37481,-23.3159,12.251983333333332,-11.470545,-8.47315,-10.3668,6.986055,S28,G1,Boredom,-0.996615895540124,1.5,-0.5,-0.7833494518006403,-0.8609460320922785,M,-2.077596580291638,-2.6442954838929187
21.7105,10.9618,1.1399,3.9426,40.7015,11.4229,12.5492,-0.36055,-16.4567,-15.3117,-16.6602,-12.4924,-8.1473,-34.7343,14.979866666666666,-21.4408,-14.5763,-15.8842,6.094325,S28,G1,Boredom,-0.996615895540124,1.5,-0.5,-0.7833494518006403,-0.8609460320922785,M,-2.077596580291638,-2.6442954838929187
18.5198,6.5266,6.7383,4.6507,29.7598,17.3486,10.8516,2.4952,-8.8573,-9.6695,-11.8822,-21.1876,-2.9358,-23.2055,13.923966666666669,-13.07065,-16.5349,-9.2634,6.6734,S28,G1,Boredom,-0.996615895540124,1.5,-0.5,-0.7833494518006403,-0.8609460320922785,M,-2.077596580291638,-2.6442954838929187
9.8528,-5.1987,0.66762,0.5938,13.8742,17.2528,8.312,4.234,2.0636,-2.4787,-0.77983,-21.8058,9.5182,-25.5911,6.173753333333334,-8.03645,-11.292815,-0.2075499999999999,6.273,S28,G1,Boredom,-0.996615895540124,1.5,-0.5,-0.7833494518006403,-0.8609460320922785,M,-2.077596580291638,-2.6442954838929187
7.8444,8.8085,-1.734,4.8082,9.6686,11.0225,11.119,15.7866,2.4119,-6.58,13.367,-20.0244,13.1972,-33.0278,6.736366666666668,-9.915299999999998,-3.3286999999999995,-2.08405,13.4528,S28,G1,Boredom,-0.996615895540124,1.5,-0.5,-0.7833494518006403,-0.8609460320922785,M,-2.077596580291638,-2.6442954838929187
3.5954,8.2795,10.6476,2.6308,11.9217,2.8049,15.1736,7.2832,-2.4554,-19.4078,8.3818,-32.9229,3.9049,-31.0466,6.646650000000001,-13.57085,-12.27055,-10.9316,11.2284,S28,G1,Boredom,-0.996615895540124,1.5,-0.5,-0.7833494518006403,-0.8609460320922785,M,-2.077596580291638,-2.6442954838929187
7.1575,1.1712,14.7318,5.3066,15.9286,16.7366,12.3747,3.0683,-5.1417,-13.5212,-6.2211,-43.2942,-2.941,-15.0838,10.17205,-9.0124,-24.75765,-9.33145,7.721500000000001,S28,G1,Boredom,-0.996615895540124,1.5,-0.5,-0.7833494518006403,-0.8609460320922785,M,-2.077596580291638,-2.6442954838929187
16.1737,6.7678,17.6262,13.4887,16.8627,13.9108,13.5211,3.828,-0.11062,-11.7652,-5.9147,-35.0297,6.6802,-27.3341,14.138316666666666,-10.32695,-20.4722,-5.9379100000000005,8.67455,S28,G1,Boredom,-0.996615895540124,1.5,-0.5,-0.7833494518006403,-0.8609460320922785,M,-2.077596580291638,-2.6442954838929187
15.2029,12.0286,19.4018,15.5125,6.4053,-1.0238,6.0988,3.5988,-3.8823,-12.9483,-0.83814,-33.8717,6.2799,-39.794,11.254550000000002,-16.75705,-17.35492,-8.4153,4.8488,S28,G1,Boredom,-0.996615895540124,1.5,-0.5,-0.7833494518006403,-0.8609460320922785,M,-2.077596580291638,-2.6442954838929187
25.1518,8.0015,13.9872,16.9429,-0.11801,4.1654,2.4266,9.5218,-4.1211,-6.0324,-5.0374,-25.7004,6.3747,-27.5573,11.35513166666667,-10.5913,-15.3689,-5.0767500000000005,5.974200000000001,S28,G1,Boredom,-0.996615895540124,1.5,-0.5,-0.7833494518006403,-0.8609460320922785,M,-2.077596580291638,-2.6442954838929187
37.7427,3.7435,19.7596,17.8157,-7.6667,-1.7518,10.782,8.9505,6.5156,-7.559,-0.95728,-22.269,11.6595,-24.9587,11.607166666666664,-6.6496,-11.61314,-0.5217,9.86625,S28,G1,Boredom,-0.996615895540124,1.5,-0.5,-0.7833494518006403,-0.8609460320922785,M,-2.077596580291638,-2.6442954838929187
49.5781,9.1858,18.5744,14.8578,5.0717,-10.1472,0.69032,2.7466,-7.9753,-7.1059,-6.5667,-22.8218,-1.3184,-28.1838,14.5201,-14.7511,-14.69425,-7.540599999999999,1.71846,S28,G1,Boredom,-0.996615895540124,1.5,-0.5,-0.7833494518006403,-0.8609460320922785,M,-2.077596580291638,-2.6442954838929187
60.7034,12.8846,27.3764,14.4385,18.8674,0.37896,3.9538,-2.6124,-11.8146,-2.4295,-3.8121,-13.4246,-3.5999,-18.4648,22.44154333333334,-11.03235,-8.61835,-7.12205,0.6707000000000001,S28,G1,Boredom,-0.996615895540124,1.5,-0.5,-0.7833494518006403,-0.8609460320922785,M,-2.077596580291638,-2.6442954838929187
71.1612,3.1389,26.2064,8.3774,31.8353,-0.11545,-0.53303,-1.9831,-10.6331,-6.5333,-0.27712,-1.758,-13.3008,-16.8844,23.433958333333333,-15.0926,-1.01756,-8.5832,-1.258065,S28,G1,Boredom,-0.996615895540124,1.5,-0.5,-0.7833494518006403,-0.8609460320922785,M,-2.077596580291638,-2.6442954838929187
80.9916,-5.5494,10.534,1.2632,18.7257,-1.0537,-14.601,0.96862,-20.3846,-5.1971,-10.6499,1.1811,-26.6028,-4.5376,17.485233333333333,-15.5702,-4.7344,-12.79085,-6.816190000000001,S28,G1,Boredom,-0.996615895540124,1.5,-0.5,-0.7833494518006403,-0.8609460320922785,M,-2.077596580291638,-2.6442954838929187
90.2321,-6.1612,15.5015,5.91,8.1575,3.7321,-8.1255,-6.6448,-5.9389,2.6701,-10.9556,2.055,-10.9066,8.013,19.562,-1.4467999999999996,-4.4503,-1.6344,-7.38515,S28,G1,Boredom,-0.996615895540124,1.5,-0.5,-0.7833494518006403,-0.8609460320922785,M,-2.077596580291638,-2.6442954838929187
98.9181,-9.0968,11.2661,2.2492,7.1963,2.0914,-11.8884,-10.4966,-8.8879,-3.6291,-9.8257,8.0706,-9.7801,-6.5678,18.77071666666666,-8.17395,-0.8775499999999994,-6.2585,-11.1925,S28,G1,Boredom,-0.996615895540124,1.5,-0.5,-0.7833494518006403,-0.8609460320922785,M,-2.077596580291638,-2.6442954838929187
105.7324,1.3654,7.2843,3.5315,19.5146,13.7717,-5.9799,4.2332,-1.2718,-0.10555,4.8638,4.2806,-3.999,-18.5194,25.199983333333336,-11.2592,4.5722000000000005,-0.688675,-0.8733499999999998,S28,G1,Boredom,-0.996615895540124,1.5,-0.5,-0.7833494518006403,-0.8609460320922785,M,-2.077596580291638,-2.6442954838929187
103.1663,0.33923,14.4031,3.3196,11.7322,13.8906,-0.899,5.4629,9.1939,-2.9329,12.6672,-10.0762,5.6861,-11.741,24.475171666666668,-3.02745,1.2954999999999997,3.1305,2.28195,S28,G1,Boredom,-0.996615895540124,1.5,-0.5,-0.7833494518006403,-0.8609460320922785,M,-2.077596580291638,-2.6442954838929187
92.2542,-1.5696,14.4831,7.8426,3.4734,17.7793,-10.2894,1.3572,1.0874,-4.6454,1.5178,-1.9832,0.62282,0.29719,22.377166666666668,0.460005,-0.2327,-1.7790000000000004,-4.4661,S28,G1,Boredom,-0.996615895540124,1.5,-0.5,-0.7833494518006403,-0.8609460320922785,M,-2.077596580291638,-2.6442954838929187
80.1065,-3.3648,9.8362,-3.9616,-0.51383,16.7116,-5.895,4.1094,1.0213,-14.7561,6.1489,-7.5315,-2.2491,-5.3879,16.469011666666667,-3.8185,-0.6913,-6.8674,-0.8927999999999998,S28,G1,Boredom,-0.996615895540124,1.5,-0.5,-0.7833494518006403,-0.8609460320922785,M,-2.077596580291638,-2.6442954838929187
76.2453,-3.163,6.4124,-4.6682,1.4064,13.8204,-10.2634,13.3081,0.015726,-14.815,7.6693,-8.9681,-2.1132,-6.0089,15.008883333333335,-4.06105,-0.6494,-7.399636999999999,1.5223499999999994,S28,G1,Boredom,-0.996615895540124,1.5,-0.5,-0.7833494518006403,-0.8609460320922785,M,-2.077596580291638,-2.6442954838929187
65.0594,-6.7506,5.0839,8.8345,-3.4006,5.4359,-21.926,5.8976,-3.7627,-12.9814,-2.2356,-3.7074,-3.8754,0.018473,12.377083333333331,-1.9284635,-2.9715,-8.37205,-8.014199999999999,S28,G1,Boredom,-0.996615895540124,1.5,-0.5,-0.7833494518006403,-0.8609460320922785,M,-2.077596580291638,-2.6442954838929187
59.2665,-1.6234,18.001,9.2487,3.415,9.8319,-6.5105,1.7658,7.7968,-13.1477,9.2322,-7.2629,4.8572,3.7953,16.35661666666667,4.32625,0.9846500000000002,-2.67545,-2.37235,S28,G1,Boredom,-0.996615895540124,1.5,-0.5,-0.7833494518006403,-0.8609460320922785,M,-2.077596580291638,-2.6442954838929187
42.96,-2.9429,4.1704,-5.4062,4.6269,13.4924,-1.802,4.021,0.24486,-16.6084,15.7615,-20.9271,3.1489,-5.4051,9.483433333333332,-1.1281,-2.5828,-8.18177,1.1095,S28,G1,Boredom,-0.996615895540124,1.5,-0.5,-0.7833494518006403,-0.8609460320922785,M,-2.077596580291638,-2.6442954838929187
44.1607,2.9006,7.6977,-16.955,0.57096,12.6824,-1.6944,6.6129,7.7855,-6.168,18.5942,-14.5445,9.5711,-10.7476,8.509559999999999,-0.5882500000000004,2.0248500000000007,0.8087499999999999,2.45925,S28,G1,Boredom,-0.996615895540124,1.5,-0.5,-0.7833494518006403,-0.8609460320922785,M,-2.077596580291638,-2.6442954838929187
41.9832,4.1429,13.3752,-4.1319,-1.8248,15.2272,-7.7321,0.077606,3.0684,-1.547,4.7276,0.42813,-4.6984,-11.5191,11.461966666666664,-8.10875,2.577865,0.7607,-3.827247,S28,G1,Boredom,-0.996615895540124,1.5,-0.5,-0.7833494518006403,-0.8609460320922785,M,-2.077596580291638,-2.6442954838929187
35.2137,-6.0225,7.378,-4.3565,-6.91,16.6747,-7.7399,-2.289,-4.199,-5.7047,-1.6951,8.9703,-16.2228,-11.3006,6.9962333333333335,-13.7617,3.6376,-4.95185,-5.01445,S28,G1,Boredom,-0.996615895540124,1.5,-0.5,-0.7833494518006403,-0.8609460320922785,M,-2.077596580291638,-2.6442954838929187
37.3518,1.4225,15.9084,-7.4,-9.8003,12.3693,2.6418,3.0444,8.8039,-7.723,2.6576,0.40414,-1.1494,-7.3168,8.308616666666667,-4.2331,1.53087,0.5404500000000003,2.8431,S28,G1,Boredom,-0.996615895540124,1.5,-0.5,-0.7833494518006403,-0.8609460320922785,M,-2.077596580291638,-2.6442954838929187
21.0107,4.6429,0.85388,-16.8733,-8.7402,1.709,-11.6167,-4.2228,-5.8243,-15.2885,-11.6019,-4.8153,-9.5131,-10.1835,0.4338300000000001,-9.8483,-8.2086,-10.5564,-7.91975,S28,G1,Boredom,-0.996615895540124,1.5,-0.5,-0.7833494518006403,-0.8609460320922785,M,-2.077596580291638,-2.6442954838929187
17.7934,4.8365,4.5132,-6.8888,-5.8551,5.8564,-2.487,-1.6079,-5.5431,-8.2317,-0.58457,-0.27634,-9.4145,-10.0446,3.3759333333333337,-9.72955,-0.430455,-6.8874,-2.04745,S28,G1,Boredom,-0.996615895540124,1.5,-0.5,-0.7833494518006403,-0.8609460320922785,M,-2.077596580291638,-2.6442954838929187
19.0868,2.1852,11.3265,1.5529,-17.3092,12.5892,0.96848,2.739,6.5967,-6.321,13.1462,-7.343,3.9009,-7.0809,4.905233333333334,-1.59,2.9016,0.1378500000000002,1.85374,S28,G1,Boredom,-0.996615895540124,1.5,-0.5,-0.7833494518006403,-0.8609460320922785,M,-2.077596580291638,-2.6442954838929187
13.6916,-1.2517,0.72962,-2.7903,-15.7985,14.1953,-10.8963,3.991,6.673,-6.4139,9.9959,-1.7072,10.7505,-3.3503,1.46267,3.7001,4.14435,0.12955,-3.45265,S28,G1,Boredom,-0.996615895540124,1.5,-0.5,-0.7833494518006403,-0.8609460320922785,M,-2.077596580291638,-2.6442954838929187
15.7042,-3.0655,4.4633,-1.6782,-9.1838,2.9546,-2.6863,3.752,5.3279,-9.8074,7.5072,5.0063,4.4386,-4.0939,1.5324333333333335,0.1723500000000002,6.25675,-2.23975,0.5328499999999998,S28,G1,Boredom,-0.996615895540124,1.5,-0.5,-0.7833494518006403,-0.8609460320922785,M,-2.077596580291638,-2.6442954838929187
8.1504,-0.047956,-0.52665,1.2562,-6.7433,1.8322,-8.1915,7.3048,-7.2697,-12.9968,4.2231,0.92802,-9.0499,-3.8483,0.6534823333333334,-6.4491,2.57556,-10.13325,-0.4433499999999997,S28,G1,Boredom,-0.996615895540124,1.5,-0.5,-0.7833494518006403,-0.8609460320922785,M,-2.077596580291638,-2.6442954838929187
5.7724,-0.045529,4.2275,2.1246,-10.1171,9.2785,-4.8668,4.9776,0.72183,-11.2723,14.3596,-1.9609,-0.0072787,-3.617,1.8733951666666664,-1.81213935,6.19935,-5.275235,0.0554000000000001,S28,G1,Boredom,-0.996615895540124,1.5,-0.5,-0.7833494518006403,-0.8609460320922785,M,-2.077596580291638,-2.6442954838929187
4.0088,-2.4034,5.3903,0.58076,-12.8158,5.416,-2.2142,3.2616,0.20639,-15.7903,16.8029,-6.0941,3.2989,-1.0393,0.0294433333333333,1.1298,5.3544,-7.791955,0.5237,S28,G1,Boredom,-0.996615895540124,1.5,-0.5,-0.7833494518006403,-0.8609460320922785,M,-2.077596580291638,-2.6442954838929187
-8.5092,1.5182,-8.1558,-7.0103,-9.2137,3.2021,-5.8588,8.7328,-13.0286,-20.5097,12.0173,-12.3396,3.1014,-4.7544,-4.694783333333333,-0.8265000000000002,-0.1611500000000001,-16.76915,1.4369999999999998,S28,G1,Boredom,-0.996615895540124,1.5,-0.5,-0.7833494518006403,-0.8609460320922785,M,-2.077596580291638,-2.6442954838929187
-10.3606,3.7882,-4.3602,-11.7844,-16.6883,4.4268,0.63169,3.9592,-4.2185,-16.918,13.6573,-17.7382,15.6659,-16.2754,-5.82975,-0.3047500000000003,-2.04045,-10.56825,2.295445,S28,G1,Boredom,-0.996615895540124,1.5,-0.5,-0.7833494518006403,-0.8609460320922785,M,-2.077596580291638,-2.6442954838929187
-9.2664,4.0335,-4.5712,-3.9932,-20.8818,10.3002,-4.6009,7.9713,4.062,-5.9861,18.0326,-13.3686,14.2533,-11.9927,-4.063149999999999,1.1303,2.331999999999999,-0.96205,1.6852,S28,G1,Boredom,-0.996615895540124,1.5,-0.5,-0.7833494518006403,-0.8609460320922785,M,-2.077596580291638,-2.6442954838929187
-19.0994,1.9025,-4.2974,-2.8089,-16.7957,7.7932,-4.3244,12.2156,7.5967,-5.6265,28.2848,-14.4554,15.2871,-20.7178,-5.55095,-2.71535,6.914700000000001,0.9851,3.9456,S28,G1,Boredom,-0.996615895540124,1.5,-0.5,-0.7833494518006403,-0.8609460320922785,M,-2.077596580291638,-2.6442954838929187
-12.7592,4.1499,5.8778,-1.224,-1.6879,9.6872,0.18506,11.0105,5.7236,-4.8168,28.9483,-2.7265,12.0083,-18.0584,0.6739666666666665,-3.02505,13.1109,0.4534000000000002,5.59778,S28,G1,Boredom,-0.996615895540124,1.5,-0.5,-0.7833494518006403,-0.8609460320922785,M,-2.077596580291638,-2.6442954838929187
-13.883,3.9009,2.6915,-2.0948,0.84132,6.2723,0.17396,9.4056,5.3802,-4.5277,27.2114,-3.5072,11.2878,-16.0306,-0.3786300000000001,-2.3713999999999995,11.8521,0.42625,4.78978,S28,G1,Boredom,-0.996615895540124,1.5,-0.5,-0.7833494518006403,-0.8609460320922785,M,-2.077596580291638,-2.6442954838929187
-14.9386,3.6669,0.64149,-3.8586,-2.0419,4.0065,-0.78163,7.8962,5.0574,-4.2561,25.5787,-4.241,10.6106,-14.1246,-2.087368333333333,-1.7569999999999997,10.66885,0.4006500000000002,3.5572850000000003,S28,G1,Boredom,-0.996615895540124,1.5,-0.5,-0.7833494518006403,-0.8609460320922785,M,-2.077596580291638,-2.6442954838929187
-16.4033,2.9743,-0.81382,-4.0987,-4.2805,1.406,-0.26215,6.9507,5.2265,-3.5281,24.5166,-4.4582,10.4465,-10.9151,-3.536003333333334,-0.2343000000000001,10.0292,0.8492,3.344275,S28,G1,Boredom,-0.996615895540124,1.5,-0.5,-0.7833494518006403,-0.8609460320922785,M,-2.077596580291638,-2.6442954838929187
-16.3634,2.7958,-2.6535,-4.797,-6.8573,-1.512,-1.1907,6.5337,4.9129,-3.3165,23.0456,-5.1359,9.8197,-9.316,-4.8979,0.2518499999999992,8.95485,0.7981999999999998,2.6715,S28,G1,Boredom,-0.996615895540124,1.5,-0.5,-0.7833494518006403,-0.8609460320922785,M,-2.077596580291638,-2.6442954838929187
-17.7431,3.1002,-4.8558,-5.9265,-8.8074,-4.7271,-1.5914,4.7253,6.0354,-1.7011,22.135,-5.2998,8.7584,-6.3955,-6.493283333333333,1.18145,8.4176,2.16715,1.5669499999999998,S28,G1,Boredom,-0.996615895540124,1.5,-0.5,-0.7833494518006403,-0.8609460320922785,M,-2.077596580291638,-2.6442954838929187
-28.4843,2.4421,-13.5375,-7.9324,-12.5289,0.75081,-13.3017,6.8024,-2.3555,-3.0163,12.779,2.1018,5.8714,0.12678,-9.881698333333334,2.9990900000000003,7.4404,-2.6859,-3.2496500000000004,S28,G1,Boredom,-0.996615895540124,1.5,-0.5,-0.7833494518006403,-0.8609460320922785,M,-2.077596580291638,-2.6442954838929187
-31.4979,-8.0935,-8.0027,-15.9561,-20.2777,-1.1832,-12.504,0.72739,-0.32526,-8.5022,9.179,-1.8026,2.6859,6.7303,-14.168516666666669,4.7081,3.6882,-4.41373,-5.888305,S28,G1,Boredom,-0.996615895540124,1.5,-0.5,-0.7833494518006403,-0.8609460320922785,M,-2.077596580291638,-2.6442954838929187
-29.1354,-1.4689,-8.9393,-12.6376,-20.4779,5.971,-11.2812,4.9342,-4.5553,-0.90792,10.0442,9.1675,2.0522,18.1327,-11.114683333333332,10.09245,9.60585,-2.73161,-3.1735,S28,G1,Boredom,-0.996615895540124,1.5,-0.5,-0.7833494518006403,-0.8609460320922785,M,-2.077596580291638,-2.6442954838929187
-33.0546,3.3414,-15.0136,-9.9909,-25.8598,11.2801,-14.3822,6.5267,-10.8935,1.9802,8.4973,7.6732,7.5963,9.489,-11.549566666666664,8.54265,8.085249999999998,-4.45665,-3.92775,S28,G1,Boredom,-0.996615895540124,1.5,-0.5,-0.7833494518006403,-0.8609460320922785,M,-2.077596580291638,-2.6442954838929187
-30.5992,-1.1091,-4.1964,-16.4751,-21.0034,12.0196,-8.325,2.8293,0.62164,-2.3895,9.4047,-4.5939,11.3906,-5.1804,-10.227266666666669,3.1051,2.4054,-0.88393,-2.74785,S28,G1,Boredom,-0.996615895540124,1.5,-0.5,-0.7833494518006403,-0.8609460320922785,M,-2.077596580291638,-2.6442954838929187
-25.4579,1.3185,1.2501,-10.2919,-12.6591,11.771,-5.4645,13.5215,5.7791,2.0043,13.09,-0.067761,8.3461,-10.6037,-5.678216666666667,-1.1288,6.5111195,3.8917,4.028499999999999,S28,G1,Boredom,-0.996615895540124,1.5,-0.5,-0.7833494518006403,-0.8609460320922785,M,-2.077596580291638,-2.6442954838929187
-31.4858,-1.5938,0.23041,-5.896,-25.9995,2.5643,-9.8592,7.9877,5.4319,-7.5607,14.1936,-9.5084,7.8449,-2.4113,-10.363398333333334,2.7168,2.3426,-1.0644,-0.9357499999999996,S28,G1,Boredom,-0.996615895540124,1.5,-0.5,-0.7833494518006403,-0.8609460320922785,M,-2.077596580291638,-2.6442954838929187
-40.9308,-5.2765,-6.3945,-17.8206,-38.5395,-2.3122,-23.3676,-5.7142,-4.3388,-8.0517,3.8972,-16.4942,1.7073,10.956,-18.545683333333333,6.33165,-6.2985,-6.19525,-14.5409,S28,G1,Boredom,-0.996615895540124,1.5,-0.5,-0.7833494518006403,-0.8609460320922785,M,-2.077596580291638,-2.6442954838929187
-44.1418,-4.0152,-10.7334,-27.1413,-50.3272,-5.0066,-28.6445,-2.5382,-3.1338,4.7097,0.83019,-3.2261,5.3832,3.6867,-23.560916666666667,4.53495,-1.197955,0.7879499999999999,-15.59135,S28,G1,Boredom,-0.996615895540124,1.5,-0.5,-0.7833494518006403,-0.8609460320922785,M,-2.077596580291638,-2.6442954838929187
-41.4933,-3.7743,-6.3115,-22.6792,-43.7321,-4.7062,-15.5912,3.2805,3.6649,11.0378,9.2804,8.3011,10.7266,-5.9788,-20.44943333333333,2.3739,8.79075,7.35135,-6.15535,S28,G1,Boredom,-0.996615895540124,1.5,-0.5,-0.7833494518006403,-0.8609460320922785,M,-2.077596580291638,-2.6442954838929187
-39.9479,-2.6036,-9.7107,-12.8184,-39.2188,5.0204,-23.1567,2.1394,-3.1656,13.2092,6.8342,14.4146,0.63874,8.4799,-16.546499999999998,4.5593200000000005,10.6244,5.0218,-10.50865,S28,G1,Boredom,-0.996615895540124,1.5,-0.5,-0.7833494518006403,-0.8609460320922785,M,-2.077596580291638,-2.6442954838929187
-44.1626,-5.2801,-4.4059,-13.9378,-50.9657,-9.3808,-22.7115,-3.6553,1.7465,2.0281,9.2578,-0.55028,0.60042,12.7606,-21.355483333333336,6.68051,4.353759999999999,1.8873,-13.1834,S28,G1,Boredom,-0.996615895540124,1.5,-0.5,-0.7833494518006403,-0.8609460320922785,M,-2.077596580291638,-2.6442954838929187
-50.0133,-8.7417,-7.919,-22.5462,-62.0077,-22.918,-19.4599,1.2866,6.3643,-2.8162,13.4249,-13.8072,3.3976,2.5502,-29.024316666666667,2.9739,-0.1911500000000003,1.77405,-9.08665,S28,G1,Boredom,-0.996615895540124,1.5,-0.5,-0.7833494518006403,-0.8609460320922785,M,-2.077596580291638,-2.6442954838929187
-54.0957,-14.3561,-20.1944,-24.4992,-66.4498,-16.4824,-19.7091,-4.9305,1.7319,8.2139,1.7583,1.1212,0.83266,3.814,-32.6796,2.32333,1.43975,4.9729,-12.3198,S28,G1,Boredom,-0.996615895540124,1.5,-0.5,-0.7833494518006403,-0.8609460320922785,M,-2.077596580291638,-2.6442954838929187
-46.5995,-13.9674,-9.0659,-17.8341,-55.3787,-14.0766,-16.1646,-11.7179,-1.6773,12.9158,-4.4862,15.1539,3.1438,5.9463,-26.153700000000004,4.54505,5.33385,5.61925,-13.94125,S28,G1,Boredom,-0.996615895540124,1.5,-0.5,-0.7833494518006403,-0.8609460320922785,M,-2.077596580291638,-2.6442954838929187
-46.6368,-10.2952,-7.5772,-18.6535,-47.3334,-16.0652,-21.8067,-0.62491,-9.132,3.6412,0.50561,16.2683,2.0113,9.3678,-24.426883333333336,5.6895500000000006,8.386955,-2.7454,-11.215805,S28,G1,Boredom,-0.996615895540124,1.5,-0.5,-0.7833494518006403,-0.8609460320922785,M,-2.077596580291638,-2.6442954838929187
-52.8116,-19.5948,-10.4284,-21.7843,-58.5934,-13.6849,-20.9704,-2.0047,3.2217,4.8391,14.1696,19.5422,6.1407,14.9443,-29.4829,10.5425,16.855900000000002,4.0304,-11.48755,S28,G1,Boredom,-0.996615895540124,1.5,-0.5,-0.7833494518006403,-0.8609460320922785,M,-2.077596580291638,-2.6442954838929187
-46.8097,-19.3638,-7.9137,-6.3772,-67.8957,-8.1412,-23.4897,-0.93971,7.7501,18.6488,16.1526,28.7587,4.8275,27.2703,-26.08355,16.0489,22.45565,13.19945,-12.214705,S28,G1,Boredom,-0.996615895540124,1.5,-0.5,-0.7833494518006403,-0.8609460320922785,M,-2.077596580291638,-2.6442954838929187
-43.5286,-8.2851,-11.6885,-0.73253,-50.1272,-10.9581,-20.6635,4.3114,6.8134,19.9578,18.4897,12.9332,4.0653,27.996,-20.88667166666667,16.030649999999998,15.71145,13.3856,-8.17605,S28,G1,Boredom,-0.996615895540124,1.5,-0.5,-0.7833494518006403,-0.8609460320922785,M,-2.077596580291638,-2.6442954838929187
-49.4169,-9.6765,-7.2102,-9.1895,-48.0638,-24.4006,-7.1457,-0.67034,11.1268,4.6604,20.213,-1.9428,10.4329,12.2163,-24.65958333333333,11.3246,9.1351,7.893599999999999,-3.90802,S28,G1,Boredom,-0.996615895540124,1.5,-0.5,-0.7833494518006403,-0.8609460320922785,M,-2.077596580291638,-2.6442954838929187
-54.0081,-7.2079,-2.055,2.6955,-48.9583,-16.3928,-7.6617,9.7589,11.403,8.0917,26.5565,2.2891,15.4738,-2.6167,-20.98776666666667,6.42855,14.4228,9.74735,1.0486000000000004,S28,G1,Boredom,-0.996615895540124,1.5,-0.5,-0.7833494518006403,-0.8609460320922785,M,-2.077596580291638,-2.6442954838929187
-57.3796,-5.8307,-4.7649,1.5891,-60.1208,-17.2982,-15.7025,4.4507,16.3856,16.1058,30.63,6.8743,21.1565,-10.1511,-23.96751666666667,5.502700000000001,18.75215,16.2457,-5.6259,S28,G1,Boredom,-0.996615895540124,1.5,-0.5,-0.7833494518006403,-0.8609460320922785,M,-2.077596580291638,-2.6442954838929187
-53.4643,-9.7304,-5.8958,-7.4784,-67.4425,-22.3993,-18.0656,-1.0101,14.9308,9.9457,18.8753,7.8787,18.4703,-6.2358,-27.735116666666663,6.11725,13.377,12.43825,-9.53785,S28,G1,Boredom,-0.996615895540124,1.5,-0.5,-0.7833494518006403,-0.8609460320922785,M,-2.077596580291638,-2.6442954838929187
-45.5338,-11.0356,2.0142,-4.1961,-49.2959,-13.4991,-15.0927,7.551,10.2575,8.4042,20.576,8.3507,11.6952,5.4725,-20.257716666666667,8.58385,14.46335,9.33085,-3.77085,S28,G1,Boredom,-0.996615895540124,1.5,-0.5,-0.7833494518006403,-0.8609460320922785,M,-2.077596580291638,-2.6442954838929187
-41.8575,-16.0407,5.6703,-6.7779,-45.3261,-23.0786,-12.2987,4.2643,10.5863,3.1778,25.953,-6.2504,2.4935,14.5884,-21.235083333333336,8.54095,9.8513,6.88205,-4.0172,S28,G1,Boredom,-0.996615895540124,1.5,-0.5,-0.7833494518006403,-0.8609460320922785,M,-2.077596580291638,-2.6442954838929187
-36.0399,-1.3826,-2.6973,-1.1761,-42.134,-21.2213,-15.8103,1.6473,6.6458,17.0872,15.4232,8.2247,-2.8509,24.5751,-17.441866666666666,10.8621,11.82395,11.8665,-7.0815,S28,G1,Boredom,-0.996615895540124,1.5,-0.5,-0.7833494518006403,-0.8609460320922785,M,-2.077596580291638,-2.6442954838929187
-39.5443,-4.1338,-7.2581,-3.9396,-46.2179,-19.0042,-17.6958,-10.7299,4.3572,26.9899,9.7752,21.8312,2.0428,9.0006,-20.016316666666665,5.5217,15.8032,15.67355,-14.21285,S28,G1,Boredom,-0.996615895540124,1.5,-0.5,-0.7833494518006403,-0.8609460320922785,M,-2.077596580291638,-2.6442954838929187
-34.338,-4.83,6.4005,-4.6475,-41.5555,-15.9746,-11.911,-3.4745,10.7073,14.0377,17.6896,6.4213,16.0202,-5.6394,-15.824183333333332,5.1904,12.05545,12.3725,-7.69275,S28,G1,Boredom,-0.996615895540124,1.5,-0.5,-0.7833494518006403,-0.8609460320922785,M,-2.077596580291638,-2.6442954838929187
-21.4171,1.5983,10.2656,3.6588,-31.0342,-13.5997,-9.78,10.4282,5.8149,1.3888,5.7658,-8.064,12.7648,1.6475,-8.421383333333333,7.206149999999999,-1.1491000000000002,3.60185,0.3241000000000005,S28,G1,Boredom,-0.996615895540124,1.5,-0.5,-0.7833494518006403,-0.8609460320922785,M,-2.077596580291638,-2.6442954838929187
-13.9926,-2.7467,13.9006,3.9119,-30.5885,-17.0337,-8.7211,-3.8918,3.1045,-2.0003,-0.7187,-6.2302,4.9153,11.466,-7.758166666666667,8.19065,-3.47445,0.5520999999999998,-6.30645,S28,G1,Boredom,-0.996615895540124,1.5,-0.5,-0.7833494518006403,-0.8609460320922785,M,-2.077596580291638,-2.6442954838929187
-23.0699,-5.8881,0.31601,0.37183,-23.5585,-15.5391,-22.2978,-9.7972,-8.8872,2.3702,8.297,3.1162,-1.5186,7.4727,-11.22796,2.97705,5.7066,-3.2585,-16.0475,S28,G1,Boredom,-0.996615895540124,1.5,-0.5,-0.7833494518006403,-0.8609460320922785,M,-2.077596580291638,-2.6442954838929187
-28.2973,-8.3676,-11.0366,-0.59473,-23.0901,-22.1626,-22.4432,3.0685,-14.0212,5.0616,8.7435,9.5399,-4.2612,-4.3094,-15.591488333333333,-4.285299999999999,9.1417,-4.4798,-9.68735,S28,G1,Boredom,-0.996615895540124,1.5,-0.5,-0.7833494518006403,-0.8609460320922785,M,-2.077596580291638,-2.6442954838929187
-20.9322,-5.0328,-3.7629,1.3295,-22.649,-11.3885,-13.5417,1.9402,-1.8463,18.8579,-2.1706,23.0675,-8.7276,9.1714,-10.405983333333335,0.2218999999999997,10.44845,8.5058,-5.800750000000001,S28,G1,Boredom,-0.996615895540124,1.5,-0.5,-0.7833494518006403,-0.8609460320922785,M,-2.077596580291638,-2.6442954838929187
-29.1214,-0.9529,-8.2593,3.1391,-16.5679,3.3948,-20.2841,-1.9541,-0.79035,31.016,-2.9846,34.0296,-0.64819,20.8999,-8.061266666666668,10.125855,15.5225,15.112825,-11.1191,S28,G1,Boredom,-0.996615895540124,1.5,-0.5,-0.7833494518006403,-0.8609460320922785,M,-2.077596580291638,-2.6442954838929187
-31.152,-2.7851,-2.0973,0.11709,-12.7402,-7.131,-13.4007,3.8295,0.20132,15.055,4.7503,17.8879,11.6686,5.546,-9.298085,8.6073,11.3191,7.62816,-4.7856000000000005,S28,G1,Boredom,-0.996615895540124,1.5,-0.5,-0.7833494518006403,-0.8609460320922785,M,-2.077596580291638,-2.6442954838929187
-20.7829,6.8272,3.6949,2.9428,-2.5315,-9.5368,-8.8187,-0.17815,-0.7559,0.051697,5.4095,2.7146,2.4685,0.42281,-3.23105,1.445655,4.06205,-0.3521015,-4.498425,S28,G1,Boredom,-0.996615895540124,1.5,-0.5,-0.7833494518006403,-0.8609460320922785,M,-2.077596580291638,-2.6442954838929187
-27.5643,4.0565,-3.61,7.0167,-5.6849,-0.93623,-13.4843,-13.8622,-2.1274,6.998,2.7239,3.833,-8.5416,8.4258,-4.453704999999999,-0.0579,3.2784500000000003,2.4353,-13.67325,S28,G1,Boredom,-0.996615895540124,1.5,-0.5,-0.7833494518006403,-0.8609460320922785,M,-2.077596580291638,-2.6442954838929187
-34.8826,-10.2869,-10.4771,16.513,-12.4275,-2.2973,-14.0925,-8.7805,-3.4161,18.384,3.9768,17.703,-6.6119,4.6145,-8.9764,-0.9987000000000004,10.8399,7.48395,-11.4365,S28,G1,Boredom,-0.996615895540124,1.5,-0.5,-0.7833494518006403,-0.8609460320922785,M,-2.077596580291638,-2.6442954838929187
-35.1507,-12.5702,-16.9317,15.0497,-8.3765,-7.3542,-18.4408,-4.9483,-14.0732,7.3641,-0.51138,10.0971,-3.8541,7.6429,-10.888933333333334,1.8944,4.792859999999999,-3.35455,-11.69455,S28,G1,Boredom,-0.996615895540124,1.5,-0.5,-0.7833494518006403,-0.8609460320922785,M,-2.077596580291638,-2.6442954838929187
-20.2907,-0.010208,-4.1099,2.3409,2.0443,-10.2178,-3.2344,-8.9014,0.87123,-1.1057,7.5472,-4.6088,10.4772,10.491,-5.040568,10.4841,1.4692000000000005,-0.1172349999999999,-6.0679,S28,G1,Boredom,-0.996615895540124,1.5,-0.5,-0.7833494518006403,-0.8609460320922785,M,-2.077596580291638,-2.6442954838929187
-24.7401,-4.7322,-10.4744,-11.0222,3.8106,-6.7716,-4.3898,-5.5333,3.2483,2.7381,11.817,-5.8155,3.7769,2.3053,-8.988316666666666,3.0411,3.00075,2.9932,-4.96155,S28,G1,Boredom,-0.996615895540124,1.5,-0.5,-0.7833494518006403,-0.8609460320922785,M,-2.077596580291638,-2.6442954838929187
-30.3398,-13.4209,-20.708,-10.8335,0.27573,0.71795,-14.9884,-7.5632,-2.1413,10.6022,11.5796,2.5609,-5.4223,-0.19406,-12.384753333333334,-2.80818,7.07025,4.230449999999999,-11.2758,S28,G1,Boredom,-0.996615895540124,1.5,-0.5,-0.7833494518006403,-0.8609460320922785,M,-2.077596580291638,-2.6442954838929187
-14.4194,0.13489,-6.715,-4.0436,6.3982,-2.6304,0.010898,-10.4148,6.0146,7.605,16.0796,-4.676,8.5978,13.9176,-3.545885,11.2577,5.7018,6.8098,-5.201951,S28,G1,Boredom,-0.996615895540124,1.5,-0.5,-0.7833494518006403,-0.8609460320922785,M,-2.077596580291638,-2.6442954838929187
-12.0701,2.9604,-9.1457,1.8654,13.5701,-12.8621,1.4944,-6.012,4.7095,-3.2408,7.559,-13.8406,5.2483,16.4552,-2.6136666666666666,10.85175,-3.1408,0.7343500000000001,-2.2588,S28,G1,Boredom,-0.996615895540124,1.5,-0.5,-0.7833494518006403,-0.8609460320922785,M,-2.077596580291638,-2.6442954838929187
-25.4459,-7.134,-7.1802,8.8376,1.8947,-11.6178,-3.79,-1.4008,15.2889,-2.5737,10.4117,-12.5376,4.4617,1.3679,-6.774266666666667,2.9148,-1.0629499999999998,6.3576,-2.5954,S28,G1,Boredom,-0.996615895540124,1.5,-0.5,-0.7833494518006403,-0.8609460320922785,M,-2.077596580291638,-2.6442954838929187
-27.7648,-5.2896,-3.4436,9.7237,-12.3189,-11.3928,-11.5905,1.0439,9.1764,10.3307,13.0919,0.96472,5.6104,-12.8142,-8.414333333333333,-3.6019,7.02831,9.75355,-5.2733,S28,G1,Boredom,-0.996615895540124,1.5,-0.5,-0.7833494518006403,-0.8609460320922785,M,-2.077596580291638,-2.6442954838929187
-20.9038,-0.72223,-12.2091,4.8903,-25.6798,-14.015,-11.3672,-2.3245,-5.0694,19.6282,0.50054,15.0068,1.0237,2.0547,-11.439938333333332,1.5392,7.75367,7.2794,-6.84585,S28,G1,Boredom,-0.996615895540124,1.5,-0.5,-0.7833494518006403,-0.8609460320922785,M,-2.077596580291638,-2.6442954838929187
-13.511,-2.0953,-11.0045,-2.4868,-20.9679,-14.5914,-1.713,-5.4908,-1.4594,18.9226,-4.7238,20.7853,1.4344,16.0314,-10.77615,8.7329,8.03075,8.7316,-3.6019,S28,G1,Boredom,-0.996615895540124,1.5,-0.5,-0.7833494518006403,-0.8609460320922785,M,-2.077596580291638,-2.6442954838929187
-25.4504,-9.0532,-18.3721,-11.3098,-12.6262,-17.0208,-12.4718,-4.6884,-9.3998,8.8151,-7.7461,9.6209,-2.9017,6.0969,-15.638749999999996,1.5976,0.9374000000000002,-0.2923500000000008,-8.5801,S28,G1,Boredom,-0.996615895540124,1.5,-0.5,-0.7833494518006403,-0.8609460320922785,M,-2.077596580291638,-2.6442954838929187
-14.4786,-1.8989,-3.1698,3.4688,2.2314,-9.3884,0.55492,1.2589,1.5532,-3.0479,2.1634,-5.0564,3.8835,5.7306,-3.872583333333333,4.80705,-1.4465,-0.74735,0.90691,S28,G1,Boredom,-0.996615895540124,1.5,-0.5,-0.7833494518006403,-0.8609460320922785,M,-2.077596580291638,-2.6442954838929187
-1.332,4.8265,4.6431,17.3607,12.5538,-6.9366,3.3553,1.1834,-3.2622,-16.9651,-3.6337,-18.853,-1.0716,2.554,5.185916666666667,0.7411999999999999,-11.24335,-10.11365,2.26935,S28,G1,Boredom,-0.996615895540124,1.5,-0.5,-0.7833494518006403,-0.8609460320922785,M,-2.077596580291638,-2.6442954838929187
0.16566,12.5653,2.0034,20.7038,23.6069,-4.1585,5.515,8.1965,-0.70445,-10.8198,3.6684,-27.7729,9.8547,12.3177,9.14776,11.0862,-12.05225,-5.762125,6.8557500000000005,S28,G1,Boredom,-0.996615895540124,1.5,-0.5,-0.7833494518006403,-0.8609460320922785,M,-2.077596580291638,-2.6442954838929187
-11.1789,-1.4117,-3.7841,5.3615,11.801,-14.2984,4.2399,-6.3953,-0.66308,-1.6705,5.3368,-20.4401,3.5961,-0.69934,-2.251766666666667,1.44838,-7.55165,-1.16679,-1.0777,S28,G1,Boredom,-0.996615895540124,1.5,-0.5,-0.7833494518006403,-0.8609460320922785,M,-2.077596580291638,-2.6442954838929187
-3.424,0.090735,-8.7509,13.9451,25.193,0.25427,3.5129,-7.4949,-4.8729,12.1254,2.6565,-5.1137,-10.3144,-1.13,4.5513675000000005,-5.722199999999999,-1.2286,3.6262500000000006,-1.991,S28,G1,Boredom,-0.996615895540124,1.5,-0.5,-0.7833494518006403,-0.8609460320922785,M,-2.077596580291638,-2.6442954838929187
-3.2181,1.0291,-8.2263,13.108,23.2766,-3.5384,5.1911,0.51018,-2.6915,2.8973,1.5524,-5.2117,-6.8624,6.4941,3.738483333333333,-0.1841499999999998,-1.82965,0.1028999999999999,2.85064,S28,G1,Boredom,-0.996615895540124,1.5,-0.5,-0.7833494518006403,-0.8609460320922785,M,-2.077596580291638,-2.6442954838929187
-10.1092,2.3842,5.0178,7.1268,10.0737,-12.2996,2.5185,-1.8815,0.77526,-11.3765,0.98665,-18.999,5.3547,1.854,0.3656166666666669,3.60435,-9.006174999999999,-5.30062,0.3185,S28,G1,Boredom,-0.996615895540124,1.5,-0.5,-0.7833494518006403,-0.8609460320922785,M,-2.077596580291638,-2.6442954838929187
-2.4189,3.6575,3.3004,17.5607,9.9414,2.1335,3.7838,1.5372,2.1451,-9.8165,7.0669,-31.9591,8.3392,-1.563,5.695766666666667,3.3881,-12.4461,-3.8357,2.6605,S28,G1,Boredom,-0.996615895540124,1.5,-0.5,-0.7833494518006403,-0.8609460320922785,M,-2.077596580291638,-2.6442954838929187
2.4483,-3.1735,-5.3986,16.5071,5.5671,-5.5503,9.2241,-11.7782,2.9616,-0.72751,10.4199,-29.2315,0.28309,-3.3587,1.7333500000000004,-1.537805,-9.4058,1.1170449999999998,-1.27705,S28,G1,Boredom,-0.996615895540124,1.5,-0.5,-0.7833494518006403,-0.8609460320922785,M,-2.077596580291638,-2.6442954838929187
-9.5048,7.8789,-2.7127,7.4883,19.333,-9.4677,3.4759,-9.6546,-0.52145,8.2888,0.82294,-13.3776,0.73868,7.7049,2.169166666666666,4.22179,-6.277329999999999,3.883675,-3.08935,S28,G1,Boredom,-0.996615895540124,1.5,-0.5,-0.7833494518006403,-0.8609460320922785,M,-2.077596580291638,-2.6442954838929187
-22.6297,0.32252,-4.9115,-7.061,20.1293,-11.2612,2.7952,-8.6032,1.8705,4.4857,-0.64371,-18.1745,4.9444,6.7705,-4.235263333333333,5.85745,-9.409104999999998,3.1781,-2.904,S28,G1,Boredom,-0.996615895540124,1.5,-0.5,-0.7833494518006403,-0.8609460320922785,M,-2.077596580291638,-2.6442954838929187
-11.8263,-11.9752,-10.2836,-12.8437,6.6432,-8.6957,4.5165,-14.6981,7.4251,8.9391,8.8406,-21.8066,-1.0191,0.69739,-8.163549999999999,-0.1608549999999999,-6.483,8.1821,-5.0908,S28,G1,Boredom,-0.996615895540124,1.5,-0.5,-0.7833494518006403,-0.8609460320922785,M,-2.077596580291638,-2.6442954838929187
-7.8114,-3.2283,-7.3055,-5.9341,-2.728,-7.7022,-3.7829,-6.733,11.23,3.208,10.6703,-26.6372,1.4031,-12.095,-5.784916666666667,-5.34595,-7.98345,7.219,-5.25795,S28,G1,Boredom,-0.996615895540124,1.5,-0.5,-0.7833494518006403,-0.8609460320922785,M,-2.077596580291638,-2.6442954838929187
-21.4427,-1.6178,-0.72822,-19.2723,-13.4255,-21.3401,2.5839,-5.8565,12.9173,-11.0844,11.4478,-39.1389,13.1252,-19.3976,-12.971103333333332,-3.1362000000000005,-13.84555,0.9164499999999992,-1.6363,S28,G1,Boredom,-0.996615895540124,1.5,-0.5,-0.7833494518006403,-0.8609460320922785,M,-2.077596580291638,-2.6442954838929187
-15.9735,-6.2433,-4.462,-10.5607,1.4801,-13.9876,6.2064,-3.6161,-1.9577,-6.2367,5.0932,-27.8849,0.059268,-4.1338,-8.291166666666667,-2.037266,-11.39585,-4.0972,1.2951500000000002,S28,G1,Boredom,-0.996615895540124,1.5,-0.5,-0.7833494518006403,-0.8609460320922785,M,-2.077596580291638,-2.6442954838929187
-0.91508,-7.2851,2.8894,4.173,15.4913,0.95164,6.3061,-3.8713,0.45347,8.2375,-0.40667,-12.1118,-8.9165,10.2142,2.55086,0.6488500000000004,-6.259235,4.345485,1.2173999999999998,S28,G1,Boredom,-0.996615895540124,1.5,-0.5,-0.7833494518006403,-0.8609460320922785,M,-2.077596580291638,-2.6442954838929187
-14.9602,-9.2095,3.1882,2.101,0.46179,-7.5382,-4.9338,-13.5563,12.2321,15.3664,2.9235,2.7149,-0.35355,-4.4317,-4.326151666666666,-2.392625,2.8192000000000004,13.79925,-9.24505,S28,G1,Boredom,-0.996615895540124,1.5,-0.5,-0.7833494518006403,-0.8609460320922785,M,-2.077596580291638,-2.6442954838929187
-28.1626,-5.3516,-11.1031,-8.8866,-13.6659,-9.447,-10.7768,-6.604,12.915,11.1391,10.7765,-4.3974,5.8066,4.8068,-12.769466666666668,5.3067,3.18955,12.02705,-8.6904,S28,G1,Boredom,-0.996615895540124,1.5,-0.5,-0.7833494518006403,-0.8609460320922785,M,-2.077596580291638,-2.6442954838929187
-28.9008,-5.9743,-11.9215,-9.2977,1.254,-5.1027,-1.6297,-6.2073,10.2511,9.526,7.2958,-16.4119,4.5135,0.74094,-9.9905,2.62722,-4.55805,9.88855,-3.9185,S28,G1,Boredom,-0.996615895540124,1.5,-0.5,-0.7833494518006403,-0.8609460320922785,M,-2.077596580291638,-2.6442954838929187
-18.1941,-2.3106,-4.1221,-4.4898,9.7462,2.2876,-3.893,0.30411,3.4971,0.92611,1.6642,-13.0662,1.8817,-4.4982,-2.8471333333333324,-1.30825,-5.7010000000000005,2.211605,-1.7944449999999998,S28,G1,Boredom,-0.996615895540124,1.5,-0.5,-0.7833494518006403,-0.8609460320922785,M,-2.077596580291638,-2.6442954838929187
-20.8804,3.4954,-8.5969,3.3354,2.5499,4.9831,-1.7709,8.7859,7.0652,-7.6295,10.0644,-12.2822,5.5466,9.8717,-2.518916666666667,7.70915,-1.1089000000000002,-0.2821500000000001,3.5075,S28,G1,Boredom,-0.996615895540124,1.5,-0.5,-0.7833494518006403,-0.8609460320922785,M,-2.077596580291638,-2.6442954838929187
-22.9338,1.8684,-8.5542,13.0521,2.869,1.3783,1.6411,-3.5471,6.1691,-10.4775,6.1548,-17.6847,3.7975,15.4852,-2.053366666666667,9.64135,-5.76495,-2.1541999999999994,-0.953,S28,G1,Boredom,-0.996615895540124,1.5,-0.5,-0.7833494518006403,-0.8609460320922785,M,-2.077596580291638,-2.6442954838929187
-20.1409,3.1731,-9.4577,17.4637,6.0031,7.4355,1.0701,-2.8617,2.4937,2.9017,0.59076,-2.5236,3.0971,12.195,0.7461333333333333,7.646050000000001,-0.96642,2.6977,-0.8957999999999999,S28,G1,Boredom,-0.996615895540124,1.5,-0.5,-0.7833494518006403,-0.8609460320922785,M,-2.077596580291638,-2.6442954838929187
-28.3772,-3.6284,-9.8341,2.3159,-8.4571,-3.4005,0.062091,-6.4683,7.0657,2.7271,2.4443,11.7278,1.9665,2.0186,-8.563566666666668,1.99255,7.08605,4.8964,-3.2031045,S28,G1,Boredom,-0.996615895540124,1.5,-0.5,-0.7833494518006403,-0.8609460320922785,M,-2.077596580291638,-2.6442954838929187
-37.5361,1.7831,-12.5502,-6.863,-21.7122,-1.7797,0.53004,-4.6634,6.1701,8.7025,8.4366,3.6026,1.3769,6.1479,-13.109683333333336,3.7624,6.0196000000000005,7.4363,-2.0666800000000003,S28,G1,Boredom,-0.996615895540124,1.5,-0.5,-0.7833494518006403,-0.8609460320922785,M,-2.077596580291638,-2.6442954838929187
-49.384,-3.5181,-22.6588,-6.9234,-27.4932,2.5771,2.8598,-5.8009,6.272,7.7082,11.2361,-6.53,8.377,3.4175,-17.900066666666667,5.8972500000000005,2.35305,6.9901,-1.4705500000000002,S28,G1,Boredom,-0.996615895540124,1.5,-0.5,-0.7833494518006403,-0.8609460320922785,M,-2.077596580291638,-2.6442954838929187
-51.6825,-15.585,-14.6877,-15.008,-26.7878,-3.2439,3.6324,-10.175,10.6179,1.5793,6.7841,-5.1939,10.708,-0.5654,-21.165816666666665,5.0713,0.7950999999999997,6.0986,-3.2713,S28,G1,Boredom,-0.996615895540124,1.5,-0.5,-0.7833494518006403,-0.8609460320922785,M,-2.077596580291638,-2.6442954838929187
-37.72,-5.6777,-7.667,-7.9685,-11.0806,-2.5771,1.9981,-3.425,2.8971,5.7346,4.0155,-4.4102,-0.7951,12.2195,-12.11515,5.7122,-0.1973499999999997,4.31585,-0.7134499999999999,S28,G1,Boredom,-0.996615895540124,1.5,-0.5,-0.7833494518006403,-0.8609460320922785,M,-2.077596580291638,-2.6442954838929187
-32.6236,4.1077,-10.0411,-1.8236,-17.4325,-7.1451,14.1557,-8.8864,0.83434,-3.11,1.8856,-18.2456,-5.47,-2.6137,-10.826366666666669,-4.04185,-8.18,-1.13783,2.63465,S28,G1,Boredom,-0.996615895540124,1.5,-0.5,-0.7833494518006403,-0.8609460320922785,M,-2.077596580291638,-2.6442954838929187
-35.8605,4.3338,-11.7997,-1.2416,-21.5813,-3.4102,14.7232,-7.8806,5.0348,-4.3402,-2.4771,-7.3009,-3.725,-16.5569,-11.59325,-10.14095,-4.889,0.3472999999999997,3.4213,S28,G1,Boredom,-0.996615895540124,1.5,-0.5,-0.7833494518006403,-0.8609460320922785,M,-2.077596580291638,-2.6442954838929187
-46.9319,-5.3714,-12.036,-5.8901,-29.7307,-9.818,1.5619,-1.7414,4.7327,3.476,-2.3293,-3.0849,1.2207,-13.3375,-18.29635,-6.058400000000001,-2.7071,4.10435,-0.08975,S28,G1,Boredom,-0.996615895540124,1.5,-0.5,-0.7833494518006403,-0.8609460320922785,M,-2.077596580291638,-2.6442954838929187
-49.7829,-7.8819,-4.7023,-5.5363,-42.0469,-17.729,0.5239,-1.6369,14.8381,4.2126,9.145,-1.9556,8.7032,1.5627,-21.27988333333333,5.13295,3.5947,9.52535,-0.5565,S28,G1,Boredom,-0.996615895540124,1.5,-0.5,-0.7833494518006403,-0.8609460320922785,M,-2.077596580291638,-2.6442954838929187
-45.3786,-0.32574,-9.6149,7.5469,-40.0631,-2.9696,-5.6465,-3.8998,9.6974,11.043,3.4016,12.2618,-4.5695,12.3983,-15.134173333333337,3.914400000000001,7.8317,10.3702,-4.773149999999999,S28,G1,Boredom,-0.996615895540124,1.5,-0.5,-0.7833494518006403,-0.8609460320922785,M,-2.077596580291638,-2.6442954838929187
-34.1559,3.4717,1.3515,18.4277,-25.3813,6.6529,3.1923,0.11212,1.5598,24.4805,-5.3026,25.6261,-10.9069,-2.4456,-4.938899999999999,-6.6762500000000005,10.16175,13.02015,1.65221,S28,G1,Boredom,-0.996615895540124,1.5,-0.5,-0.7833494518006403,-0.8609460320922785,M,-2.077596580291638,-2.6442954838929187
-39.1906,3.7355,11.1868,16.849,-33.7758,2.0037,8.1951,9.0776,-7.5069,15.051,-10.1796,17.6121,-3.1688,11.329,-6.531899999999999,4.0801,3.716250000000001,3.77205,8.63635,S28,G1,Boredom,-0.996615895540124,1.5,-0.5,-0.7833494518006403,-0.8609460320922785,M,-2.077596580291638,-2.6442954838929187
-47.2277,11.0672,7.6828,14.8938,-42.1387,-2.8387,10.537,10.4223,-2.3334,0.047984,-3.9015,2.4554,9.3002,24.7493,-9.760216666666668,17.02475,-0.72305,-1.142708,10.47965,S28,G1,Boredom,-0.996615895540124,1.5,-0.5,-0.7833494518006403,-0.8609460320922785,M,-2.077596580291638,-2.6442954838929187
-33.0608,14.1811,14.7777,16.8339,-29.2209,-3.6135,16.5163,-0.59248,11.0288,-14.0549,2.9432,-11.792,9.6855,9.1643,-3.3504166666666664,9.4249,-4.4244,-1.5130499999999998,7.96191,S28,G1,Boredom,-0.996615895540124,1.5,-0.5,-0.7833494518006403,-0.8609460320922785,M,-2.077596580291638,-2.6442954838929187
-33.9104,6.7191,12.9463,11.1012,-18.0229,1.3259,5.1364,3.2214,-0.96621,-3.9015,-0.066561,-4.608,-1.2846,-5.4855,-3.3067999999999995,-3.38505,-2.3372805,-2.433855,4.1789000000000005,S28,G1,Boredom,-0.996615895540124,1.5,-0.5,-0.7833494518006403,-0.8609460320922785,M,-2.077596580291638,-2.6442954838929187
-45.0984,-3.1292,8.3916,4.7688,-27.331,-5.3652,2.9388,1.1387,-0.90824,0.11045,-1.0068,9.7685,1.6261,-6.1684,-11.2939,-2.27115,4.38085,-0.398895,2.0387500000000003,S28,G1,Boredom,-0.996615895540124,1.5,-0.5,-0.7833494518006403,-0.8609460320922785,M,-2.077596580291638,-2.6442954838929187
-39.0867,1.3094,11.1939,18.1779,-25.2181,-4.5703,4.1797,-5.0681,3.3963,-7.9241,-8.0301,3.1112,0.11219,5.0641,-6.36565,2.588145,-2.4594499999999995,-2.2639,-0.4441999999999999,S28,G1,Boredom,-0.996615895540124,1.5,-0.5,-0.7833494518006403,-0.8609460320922785,M,-2.077596580291638,-2.6442954838929187
-37.6862,12.5641,12.4112,22.7531,-12.3718,4.2036,5.817,5.625,-1.5301,-9.3376,-7.5487,-7.4654,0.10501,17.982,0.3123333333333331,9.043505,-7.50705,-5.43385,5.721,S28,G1,Boredom,-0.996615895540124,1.5,-0.5,-0.7833494518006403,-0.8609460320922785,M,-2.077596580291638,-2.6442954838929187
-46.2866,9.4496,11.1944,12.4158,-19.6574,-3.1314,12.5525,5.7596,1.8675,-10.1937,-0.011229,-7.4896,5.2939,15.4867,-6.0026,10.3903,-3.7504145,-4.1631,9.15605,S28,G1,Boredom,-0.996615895540124,1.5,-0.5,-0.7833494518006403,-0.8609460320922785,M,-2.077596580291638,-2.6442954838929187
-46.3431,6.0486,-0.81138,15.4483,-22.2563,-3.8882,3.2989,3.5251,2.7001,-9.5825,1.8775,0.51602,-3.5242,0.45754,-8.63368,-1.53333,1.19676,-3.4412,3.412,S28,G1,Boredom,-0.996615895540124,1.5,-0.5,-0.7833494518006403,-0.8609460320922785,M,-2.077596580291638,-2.6442954838929187
-38.3682,3.3241,-5.0127,14.9935,-19.5045,0.59418,7.3501,2.8405,13.3988,-9.4797,10.737,-6.5995,4.7151,-13.6699,-7.328936666666667,-4.4774,2.06875,1.95955,5.0953,S28,G1,Boredom,-0.996615895540124,1.5,-0.5,-0.7833494518006403,-0.8609460320922785,M,-2.077596580291638,-2.6442954838929187
-40.7883,-3.4864,-4.7124,-0.0061064,-21.1675,-4.1632,6.9095,1.7263,7.8732,-10.7999,4.4268,-18.481,11.0433,1.2503,-12.387317733333337,6.1468,-7.027100000000001,-1.4633499999999997,4.3179,S28,G1,Boredom,-0.996615895540124,1.5,-0.5,-0.7833494518006403,-0.8609460320922785,M,-2.077596580291638,-2.6442954838929187
-47.3131,-6.5821,-14.3461,-7.1558,-16.5916,-1.5519,-2.4772,5.8728,-0.62714,-5.9019,-2.9224,-17.8443,8.0201,15.2753,-15.5901,11.6477,-10.38335,-3.26452,1.6978,S28,G1,Boredom,-0.996615895540124,1.5,-0.5,-0.7833494518006403,-0.8609460320922785,M,-2.077596580291638,-2.6442954838929187
-46.3633,-6.1876,-16.3185,-14.2823,-26.9294,-9.015,-0.43963,-2.9801,13.5105,-5.5473,5.7534,-19.6073,13.2057,0.25875,-19.84935,6.732225,-6.92695,3.9816,-1.7098650000000002,S28,G1,Boredom,-0.996615895540124,1.5,-0.5,-0.7833494518006403,-0.8609460320922785,M,-2.077596580291638,-2.6442954838929187
-42.1647,-0.6221,-21.4788,-16.7311,-29.5636,-15.5578,-6.5527,-1.384,10.4061,3.7577,4.9361,-4.3308,9.1076,-13.8568,-21.019683333333337,-2.3746,0.3026499999999998,7.0819,-3.96835,S28,G1,Boredom,-0.996615895540124,1.5,-0.5,-0.7833494518006403,-0.8609460320922785,M,-2.077596580291638,-2.6442954838929187
-35.8573,-3.4184,-19.2458,-5.3387,-19.2907,-12.7358,-7.1038,3.4212,0.33656,9.1986,-3.861,4.9681,3.8381,1.0746,-15.981116666666669,2.45635,0.5535499999999998,4.767580000000001,-1.8413,S28,G1,Boredom,-0.996615895540124,1.5,-0.5,-0.7833494518006403,-0.8609460320922785,M,-2.077596580291638,-2.6442954838929187
-29.4559,-10.2965,-11.9521,-5.4901,-15.7713,-11.4991,-5.2607,-1.9788,-1.1005,-2.2144,-6.9347,-9.43,-2.5311,15.1102,-14.0775,6.28955,-8.18235,-1.65745,-3.61975,S28,G1,Boredom,-0.996615895540124,1.5,-0.5,-0.7833494518006403,-0.8609460320922785,M,-2.077596580291638,-2.6442954838929187
-15.4101,-2.1234,-14.0682,-5.1611,-9.1581,-6.0865,-6.834,1.9174,0.85452,0.75166,0.092485,-5.6249,-4.2682,0.10354,-8.6679,-2.08233,-2.7662075,0.80309,-2.4583,S28,G1,Boredom,-0.996615895540124,1.5,-0.5,-0.7833494518006403,-0.8609460320922785,M,-2.077596580291638,-2.6442954838929187
-13.0687,-1.523,-15.5856,-2.4899,-10.0259,-9.0271,-1.2297,0.38593,2.2196,-2.5992,3.3927,-7.6489,4.0158,-14.0027,-8.620033333333334,-4.993450000000001,-2.1281,-0.1898000000000002,-0.421885,S28,G1,Boredom,-0.996615895540124,1.5,-0.5,-0.7833494518006403,-0.8609460320922785,M,-2.077596580291638,-2.6442954838929187
-20.7851,-2.3767,-18.4284,-1.3963,-7.535,-2.8182,-2.1002,1.307,-0.7463,-7.1654,-1.533,-14.7458,5.6642,-3.3803,-8.889949999999997,1.14195,-8.1394,-3.95585,-0.3966,S28,G1,Boredom,-0.996615895540124,1.5,-0.5,-0.7833494518006403,-0.8609460320922785,M,-2.077596580291638,-2.6442954838929187
-20.0101,-5.5395,-14.0165,-8.3962,-14.167,-6.8996,-4.3352,-1.1325,1.6595,-5.3187,-0.96935,-10.5557,3.9076,10.9225,-11.504816666666668,7.41505,-5.762525,-1.8296,-2.7338500000000003,S28,G1,Boredom,-0.996615895540124,1.5,-0.5,-0.7833494518006403,-0.8609460320922785,M,-2.077596580291638,-2.6442954838929187
-8.4196,-2.373,-3.7307,-11.6698,-17.0944,-11.2073,-1.2419,-4.842,4.3932,6.3346,5.7008,0.46753,0.83991,16.4739,-9.082466666666669,8.656905,3.084165,5.3639,-3.04195,S28,G1,Boredom,-0.996615895540124,1.5,-0.5,-0.7833494518006403,-0.8609460320922785,M,-2.077596580291638,-2.6442954838929187
-6.9702,2.4915,-12.0069,-2.4692,-2.8457,2.6873,-5.8896,0.1707,2.2411,13.5103,0.63661,13.6626,-8.6548,3.2075,-3.1855333333333333,-2.72365,7.149604999999999,7.8757,-2.85945,S28,G1,Boredom,-0.996615895540124,1.5,-0.5,-0.7833494518006403,-0.8609460320922785,M,-2.077596580291638,-2.6442954838929187
-2.7745,1.3969,-1.8422,-1.3768,-10.2316,4.4146,-1.7583,-3.6174,14.3846,8.9209,0.59752,11.8977,-1.5248,-6.4301,-1.7356,-3.97745,6.24761,11.65275,-2.68785,S28,G1,Boredom,-0.996615895540124,1.5,-0.5,-0.7833494518006403,-0.8609460320922785,M,-2.077596580291638,-2.6442954838929187
-1.6633,5.0914,4.8794,-4.1278,-16.2288,0.37227,-2.5975,-2.4557,6.9104,10.2755,1.5064,5.517,5.1777,0.56679,-1.946138333333333,2.872245,3.5117000000000003,8.59295,-2.5266,S28,G1,Boredom,-0.996615895540124,1.5,-0.5,-0.7833494518006403,-0.8609460320922785,M,-2.077596580291638,-2.6442954838929187
-9.5915,3.3691,-3.4408,-9.0749,-12.894,2.711,-5.747,0.99697,2.2453,8.2421,1.8886,1.8806,1.5618,13.2833,-4.8201833333333335,7.42255,1.8846,5.2437000000000005,-2.375015,S28,G1,Boredom,-0.996615895540124,1.5,-0.5,-0.7833494518006403,-0.8609460320922785,M,-2.077596580291638,-2.6442954838929187
-6.6549,0.80544,4.7935,-7.1135,-16.3704,2.0762,-3.0415,-1.4235,11.0827,7.2755,6.0253,6.0178,-1.8377,14.8478,-3.7439433333333336,6.50505,6.02155,9.1791,-2.2325,S28,G1,Boredom,-0.996615895540124,1.5,-0.5,-0.7833494518006403,-0.8609460320922785,M,-2.077596580291638,-2.6442954838929187
-6.7282,0.28499,4.9781,2.2854,-26.2497,5.2565,-4.2754,0.07831,3.3341,17.6996,3.3022,16.5183,-0.31109,4.0396,-3.362151666666667,1.864255,9.91025,10.51685,-2.098545,S28,G1,Boredom,-0.996615895540124,1.5,-0.5,-0.7833494518006403,-0.8609460320922785,M,-2.077596580291638,-2.6442954838929187
-8.213,-7.2879,-2.8764,4.0377,-37.8974,0.21898,0.70327,-4.6485,-0.64383,10.027,1.2156,5.1378,-2.1809,-10.3027,-8.669669999999998,-6.2418,3.1767000000000003,4.691585,-1.972615,S28,G1,Boredom,-0.996615895540124,1.5,-0.5,-0.7833494518006403,-0.8609460320922785,M,-2.077596580291638,-2.6442954838929187
6.3798,-2.1285,-1.7596,9.4627,-21.5235,0.20584,2.5505,-0.59173,-0.6052,5.6475,-3.5804,5.7737,-12.4395,4.4154,-1.5605433333333332,-4.01205,1.09665,2.52115,0.979385,S28,G1,Boredom,-0.996615895540124,1.5,-0.5,-0.7833494518006403,-0.8609460320922785,M,-2.077596580291638,-2.6442954838929187
7.4807,8.8612,5.4301,11.256,-6.4696,2.5555,4.7585,-3.8624,-1.9848,19.0034,-6.6709,19.123,-7.4427,18.2505,4.852316666666666,5.403899999999999,6.226050000000001,8.5093,0.4480499999999998,S28,G1,Boredom,-0.996615895540124,1.5,-0.5,-0.7833494518006403,-0.8609460320922785,M,-2.077596580291638,-2.6442954838929187
0.42033,3.6074,9.8264,9.6355,-13.6372,-3.2652,8.2509,-4.5749,-0.92148,19.7517,-10.0485,19.8641,-1.3297,3.0555,1.0978716666666664,0.8628999999999999,4.9078,9.41511,1.838,S28,G1,Boredom,-0.996615895540124,1.5,-0.5,-0.7833494518006403,-0.8609460320922785,M,-2.077596580291638,-2.6442954838929187
4.173,1.5016,-0.20833,13.7805,-8.0968,4.4865,2.0886,9.7996,-3.6998,7.2329,-14.1678,15.8386,-7.8615,-9.8784,2.606078333333333,-8.86995,0.8353999999999999,1.7665499999999998,5.9441,S28,G1,Boredom,-0.996615895540124,1.5,-0.5,-0.7833494518006403,-0.8609460320922785,M,-2.077596580291638,-2.6442954838929187
7.701,-0.47701,0.74931,12.9536,-13.2774,0.43946,1.019,4.5568,0.30005,-5.479,-12.3734,3.5546,-10.2225,4.8143,1.34816,-2.7041,-4.4094,-2.589475,2.7879,S28,G1,Boredom,-0.996615895540124,1.5,-0.5,-0.7833494518006403,-0.8609460320922785,M,-2.077596580291638,-2.6442954838929187
10.5447,9.4685,6.8433,17.3711,-7.2869,-1.0037,-0.45897,0.032893,-3.0233,0.9887,-7.3806,9.4803,-10.0818,16.3991,5.989499999999999,3.1586500000000006,1.0498499999999995,-1.0173,-0.2130385,S28,G1,Boredom,-0.996615895540124,1.5,-0.5,-0.7833494518006403,-0.8609460320922785,M,-2.077596580291638,-2.6442954838929187
9.4394,14.0946,4.0712,13.9673,6.8455,8.0296,-2.7921,4.2809,-4.2591,2.3467,-4.5771,11.273,-4.2817,4.5536,9.407933333333334,0.1359500000000002,3.34795,-0.9562000000000002,0.7444,S28,G1,Boredom,-0.996615895540124,1.5,-0.5,-0.7833494518006403,-0.8609460320922785,M,-2.077596580291638,-2.6442954838929187
5.5673,8.0547,4.2991,1.3235,0.29534,3.2978,7.2919,-4.0038,5.9137,-11.4894,-2.8852,-3.5034,4.9474,-9.8197,3.8062899999999993,-2.43615,-3.1943,-2.78785,1.64405,S28,G1,Boredom,-0.996615895540124,1.5,-0.5,-0.7833494518006403,-0.8609460320922785,M,-2.077596580291638,-2.6442954838929187
0.51111,7.5714,-2.5695,5.022,-0.66663,2.1547,2.1322,-6.5973,0.83675,-4.1885,-4.6015,-10.4442,-1.0158,2.508,2.0038466666666666,0.7461,-7.52285,-1.6758750000000002,-2.23255,S28,G1,Boredom,-0.996615895540124,1.5,-0.5,-0.7833494518006403,-0.8609460320922785,M,-2.077596580291638,-2.6442954838929187
-2.3532,0.50513,-4.3052,6.6096,-8.1829,-0.80773,1.0596,-0.53457,-3.9361,-3.9376,-6.2144,-10.7622,-8.5111,9.9129,-1.422383333333333,0.7008999999999999,-8.4883,-3.93685,0.262515,S28,G1,Boredom,-0.996615895540124,1.5,-0.5,-0.7833494518006403,-0.8609460320922785,M,-2.077596580291638,-2.6442954838929187
-0.79519,-5.6637,-6.4075,-4.6485,-20.442,-2.1765,-1.3655,2.8033,-3.2278,-7.9514,-11.0358,-7.755,-5.6398,-4.7819,-6.688898333333333,-5.210850000000001,-9.3954,-5.5896,0.7189000000000001,S28,G1,Boredom,-0.996615895540124,1.5,-0.5,-0.7833494518006403,-0.8609460320922785,M,-2.077596580291638,-2.6442954838929187
2.5578,-0.13006,-11.2178,-6.7307,-6.4649,1.2603,-1.7553,0.274,-0.67303,2.4426,-11.7904,-3.0401,6.5048,0.16027,-3.4542266666666666,3.332535,-7.41525,0.884785,-0.74065,S28,G1,Boredom,-0.996615895540124,1.5,-0.5,-0.7833494518006403,-0.8609460320922785,M,-2.077596580291638,-2.6442954838929187
13.739,7.4349,-0.15573,0.28423,8.023,2.1294,12.4501,-2.5756,-4.4101,-8.093,-8.2498,-11.3573,6.115,14.2507,5.242466666666667,10.18285,-9.80355,-6.25155,4.937250000000001,S28,G1,Boredom,-0.996615895540124,1.5,-0.5,-0.7833494518006403,-0.8609460320922785,M,-2.077596580291638,-2.6442954838929187
20.9425,14.072,4.1041,5.4619,21.6416,11.9185,19.7983,11.6789,-14.0624,-21.7074,-5.3938,-12.0927,-6.0582,24.3245,13.023433333333331,9.13315,-8.74325,-17.884900000000002,15.738600000000002,S28,G1,Boredom,-0.996615895540124,1.5,-0.5,-0.7833494518006403,-0.8609460320922785,M,-2.077596580291638,-2.6442954838929187
18.2692,8.033,4.3295,-1.0048,34.4431,9.7865,17.1936,11.0446,-3.3017,-22.3608,-7.4312,-25.4671,-0.49998,8.765,12.309416666666666,4.13251,-16.44915,-12.83125,14.1191,S28,G1,Boredom,-0.996615895540124,1.5,-0.5,-0.7833494518006403,-0.8609460320922785,M,-2.077596580291638,-2.6442954838929187
24.2562,8.9678,9.2645,1.4166,33.9949,12.5047,16.6346,3.2987,3.0353,-14.8802,-13.1243,-38.0391,2.8353,-5.8609,15.06745,-1.5128,-25.5817,-5.92245,9.96665,S28,G1,Boredom,-0.996615895540124,1.5,-0.5,-0.7833494518006403,-0.8609460320922785,M,-2.077596580291638,-2.6442954838929187
34.135,17.8749,15.321,15.4316,46.0552,25.8544,20.3586,17.2008,-6.5911,-9.2652,-10.4474,-36.8352,-6.7791,2.8571,25.778683333333333,-1.961,-23.6413,-7.92815,18.7797,S28,G1,Boredom,-0.996615895540124,1.5,-0.5,-0.7833494518006403,-0.8609460320922785,M,-2.077596580291638,-2.6442954838929187
39.6422,19.6352,20.0682,26.851,57.3919,22.482,27.6371,15.2918,-11.8629,-8.7093,-12.6542,-20.5251,-12.0396,16.7856,31.011750000000003,2.373,-16.58965,-10.2861,21.46445,S28,G1,Boredom,-0.996615895540124,1.5,-0.5,-0.7833494518006403,-0.8609460320922785,M,-2.077596580291638,-2.6442954838929187
41.0421,23.1797,13.1972,22.4067,68.0484,22.0777,16.5342,7.7623,-15.8737,-2.5199,-24.1734,-7.8935,-17.9283,5.4559,31.65863333333333,-6.2362,-16.033450000000002,-9.1968,12.14825,S28,G1,Boredom,-0.996615895540124,1.5,-0.5,-0.7833494518006403,-0.8609460320922785,M,-2.077596580291638,-2.6442954838929187
44.2468,26.511,16.1833,32.396,78.0655,30.1983,23.0988,10.1302,-0.82131,-11.813,-14.222,-21.5199,-8.3517,-8.9714,37.933483333333335,-8.661549999999998,-17.87095,-6.3171550000000005,16.6145,S28,G1,Boredom,-0.996615895540124,1.5,-0.5,-0.7833494518006403,-0.8609460320922785,M,-2.077596580291638,-2.6442954838929187
33.0911,12.6424,15.2123,19.1185,82.1505,16.1075,24.5456,1.9666,-3.5383,-25.2042,-11.4802,-34.3287,-5.0178,-15.1111,29.72038333333333,-10.06445,-22.90445,-14.37125,13.2561,S28,G1,Boredom,-0.996615895540124,1.5,-0.5,-0.7833494518006403,-0.8609460320922785,M,-2.077596580291638,-2.6442954838929187
34.8835,13.7724,12.4102,5.6935,77.2215,17.9747,24.9623,10.3487,-15.604,-22.815,-9.8472,-46.369,-2.8274,-4.7593,26.99263333333333,-3.79335,-28.1081,-19.2095,17.6555,S28,G1,Boredom,-0.996615895540124,1.5,-0.5,-0.7833494518006403,-0.8609460320922785,M,-2.077596580291638,-2.6442954838929187
46.8905,17.6686,15.4439,9.1293,69.755,21.6179,29.1305,5.0052,-11.8345,-12.0014,-6.4231,-35.2879,-6.4361,-12.0299,30.0842,-9.233,-20.8555,-11.91795,17.06785,S28,G1,Boredom,-0.996615895540124,1.5,-0.5,-0.7833494518006403,-0.8609460320922785,M,-2.077596580291638,-2.6442954838929187
49.3391,27.4701,14.9894,18.4989,77.3755,23.6266,22.1884,5.177,-4.0408,-8.9207,-9.3435,-24.198,-6.522,-4.2245,35.2166,-5.3732500000000005,-16.77075,-6.4807500000000005,13.6827,S28,G1,Boredom,-0.996615895540124,1.5,-0.5,-0.7833494518006403,-0.8609460320922785,M,-2.077596580291638,-2.6442954838929187
36.934,24.8781,12.2011,8.8885,69.8998,13.7094,14.246,6.7562,-4.7431,-15.9408,-15.394,-36.8461,-4.2418,-13.4157,27.751816666666667,-8.82875,-26.12005,-10.34195,10.5011,S28,G1,Boredom,-0.996615895540124,1.5,-0.5,-0.7833494518006403,-0.8609460320922785,M,-2.077596580291638,-2.6442954838929187
35.1901,20.0796,15.719,5.9945,60.5115,20.9148,21.4192,4.9345,-8.7085,-17.345,-16.831,-30.4522,-8.2373,-14.0272,26.40158333333333,-11.13225,-23.6416,-13.02675,13.17685,S28,G1,Boredom,-0.996615895540124,1.5,-0.5,-0.7833494518006403,-0.8609460320922785,M,-2.077596580291638,-2.6442954838929187
37.8013,25.4859,13.8312,15.0796,68.2141,33.7599,25.8009,15.9716,-11.9634,-9.6932,-14.8773,-14.5251,-6.7984,0.91445,32.362,-2.941975,-14.7012,-10.8283,20.88625,S28,G1,Boredom,-0.996615895540124,1.5,-0.5,-0.7833494518006403,-0.8609460320922785,M,-2.077596580291638,-2.6442954838929187
28.9212,13.5669,9.2239,0.074825,50.0212,28.968,20.4745,4.6243,-9.3576,-23.2116,-18.7073,-27.7536,-2.613,13.204,21.796004166666663,5.2955000000000005,-23.23045,-16.2846,12.5494,S28,G1,Boredom,-0.996615895540124,1.5,-0.5,-0.7833494518006403,-0.8609460320922785,M,-2.077596580291638,-2.6442954838929187
29.5475,16.0587,10.0868,-9.9148,37.98,20.1463,17.8296,2.9296,-8.3231,-22.3588,-19.9455,-36.0052,-3.8726,1.5511,17.317416666666663,-1.16075,-27.97535,-15.34095,10.3796,S28,G1,Boredom,-0.996615895540124,1.5,-0.5,-0.7833494518006403,-0.8609460320922785,M,-2.077596580291638,-2.6442954838929187
29.191,21.2346,8.0652,4.7801,39.007,22.2432,21.9541,10.7817,-6.4073,-15.823,-15.4439,-21.0949,-2.2239,1.9301,20.753516666666663,-0.1469,-18.2694,-11.11515,16.3679,S28,G1,Boredom,-0.996615895540124,1.5,-0.5,-0.7833494518006403,-0.8609460320922785,M,-2.077596580291638,-2.6442954838929187
19.8842,14.2936,9.4703,-0.63407,29.1112,8.6303,22.5267,5.4131,-4.1339,-24.3175,-13.5716,-33.9292,-3.9794,-12.2857,13.459255,-8.13255,-23.7504,-14.2257,13.9699,S28,G1,Boredom,-0.996615895540124,1.5,-0.5,-0.7833494518006403,-0.8609460320922785,M,-2.077596580291638,-2.6442954838929187
21.0522,16.7413,11.2631,-0.12345,31.6141,8.5841,19.7583,4.6158,-10.0249,-18.6088,-16.0636,-35.2661,-6.1017,-12.088,14.855225,-9.09485,-25.66485,-14.31685,12.18705,S28,G1,Boredom,-0.996615895540124,1.5,-0.5,-0.7833494518006403,-0.8609460320922785,M,-2.077596580291638,-2.6442954838929187
16.4838,6.7651,10.1148,0.35653,19.8004,2.8753,19.9896,-7.4674,-15.5624,-15.1303,-16.5166,-21.3438,-5.263,-13.7238,9.399321666666667,-9.4934,-18.9302,-15.34635,6.2611,S28,G1,Boredom,-0.996615895540124,1.5,-0.5,-0.7833494518006403,-0.8609460320922785,M,-2.077596580291638,-2.6442954838929187
9.3562,6.8314,8.0915,1.7524,8.6959,4.1191,16.4287,-5.6021,-11.3228,-4.3052,-5.6083,-5.9632,-3.5309,-2.9831,6.474416666666667,-3.257,-5.78575,-7.814,5.4133,S28,G1,Boredom,-0.996615895540124,1.5,-0.5,-0.7833494518006403,-0.8609460320922785,M,-2.077596580291638,-2.6442954838929187
2.655,14.4489,4.3007,-3.5484,-5.9258,12.8446,13.0819,4.6509,3.0513,3.0363,-0.077039,8.4946,-0.013688,11.2959,4.129166666666666,5.641106,4.2087805000000005,3.0438,8.866399999999999,S28,G1,Boredom,-0.996615895540124,1.5,-0.5,-0.7833494518006403,-0.8609460320922785,M,-2.077596580291638,-2.6442954838929187
-0.81009,8.3873,2.6258,-4.7523,-19.6703,7.8234,9.9359,7.6781,6.1735,2.3816,-5.2671,10.4802,4.2376,19.1856,-1.066031666666667,11.7116,2.60655,4.27755,8.807,S28,G1,Boredom,-0.996615895540124,1.5,-0.5,-0.7833494518006403,-0.8609460320922785,M,-2.077596580291638,-2.6442954838929187
-6.4283,4.1066,-1.3101,2.1449,-32.59,4.5208,4.6172,5.3275,0.13628,16.3387,-4.0064,16.4634,4.928,10.4782,-4.9260166666666665,7.703099999999999,6.2285,8.23749,4.9723500000000005,S28,G1,Boredom,-0.996615895540124,1.5,-0.5,-0.7833494518006403,-0.8609460320922785,M,-2.077596580291638,-2.6442954838929187
-14.0705,-3.2239,-3.5925,-6.0122,-44.7346,-3.7788,6.7012,-9.0921,6.2671,21.5642,1.4287,19.7252,2.2713,-2.901,-12.56875,-0.3148499999999998,10.57695,13.91565,-1.19545,S28,G1,Boredom,-0.996615895540124,1.5,-0.5,-0.7833494518006403,-0.8609460320922785,M,-2.077596580291638,-2.6442954838929187
-16.5316,-4.4464,-1.9602,-4.2346,-56.1506,-2.1343,0.16018,-5.7794,6.3636,15.0765,-1.9624,18.07,-2.1155,-4.1429,-14.24295,-3.1292,8.0538,10.72005,-2.80961,S28,G1,Boredom,-0.996615895540124,1.5,-0.5,-0.7833494518006403,-0.8609460320922785,M,-2.077596580291638,-2.6442954838929187
-13.1791,-3.7079,-2.3151,-1.6195,-61.1461,2.2433,-1.2663,1.6497,3.6207,13.6994,1.4598,17.4574,1.3168,9.7995,-13.287399999999998,5.55815,9.4586,8.66005,0.1916999999999999,S28,G1,Boredom,-0.996615895540124,1.5,-0.5,-0.7833494518006403,-0.8609460320922785,M,-2.077596580291638,-2.6442954838929187
-10.9715,-6.7908,-2.6479,-8.6064,-53.2269,-11.9913,4.9487,-7.421,6.7088,10.5163,3.7342,17.8268,1.7104,13.462,-15.705799999999998,7.5862,10.7805,8.612549999999999,-1.2361500000000003,S28,G1,Boredom,-0.996615895540124,1.5,-0.5,-0.7833494518006403,-0.8609460320922785,M,-2.077596580291638,-2.6442954838929187
-10.3133,-4.4944,-9.101,-5.256,-49.0895,-18.4228,-4.793,-3.1983,6.3067,16.4965,-3.1018,21.4798,-3.1149,8.876,-16.11283333333333,2.8805499999999995,9.189,11.4016,-3.99565,S28,G1,Boredom,-0.996615895540124,1.5,-0.5,-0.7833494518006403,-0.8609460320922785,M,-2.077596580291638,-2.6442954838929187
-15.3613,-8.9473,-9.4997,-18.1632,-60.2441,-14.4843,-5.4501,-5.8396,11.5952,13.6177,-1.0268,6.091,3.6831,-5.7566,-21.116650000000003,-1.0367499999999998,2.5321,12.60645,-5.64485,S28,G1,Boredom,-0.996615895540124,1.5,-0.5,-0.7833494518006403,-0.8609460320922785,M,-2.077596580291638,-2.6442954838929187
-13.4949,-5.5773,-7.0398,-26.5186,-70.7295,-13.6148,2.4332,-8.3224,10.899,13.7454,1.8689,-0.95332,11.0184,-12.0892,-22.82915,-0.5354000000000001,0.45779,12.3222,-2.9446000000000003,S28,G1,Boredom,-0.996615895540124,1.5,-0.5,-0.7833494518006403,-0.8609460320922785,M,-2.077596580291638,-2.6442954838929187
-9.3799,-3.8258,-14.6458,-13.1217,-64.2584,-15.1589,-1.0182,-1.6841,3.1619,8.6702,-1.5494,-2.3129,9.8847,2.7362,-20.06508333333333,6.31045,-1.93115,5.91605,-1.35115,S28,G1,Boredom,-0.996615895540124,1.5,-0.5,-0.7833494518006403,-0.8609460320922785,M,-2.077596580291638,-2.6442954838929187
3.4613,1.1259,-0.54397,-0.055567,-46.3029,-7.6379,2.8208,-1.5831,8.6385,-5.95,3.2666,-11.6189,14.9589,-0.66688,-8.325522833333334,7.14601,-4.17615,1.3442500000000002,0.6188500000000001,S28,G1,Boredom,-0.996615895540124,1.5,-0.5,-0.7833494518006403,-0.8609460320922785,M,-2.077596580291638,-2.6442954838929187
11.2815,12.865,8.4608,7.9757,-29.4247,6.9204,4.068,12.6119,2.926,-6.1325,4.4869,3.1782,10.7556,0.79041,3.0131166666666664,5.773005,3.83255,-1.60325,8.33995,S28,G1,Boredom,-0.996615895540124,1.5,-0.5,-0.7833494518006403,-0.8609460320922785,M,-2.077596580291638,-2.6442954838929187
12.9657,7.8422,8.4253,12.6914,-13.5592,20.6052,8.0739,22.312,-1.4996,0.37486,-2.8659,17.0875,6.8045,14.843,8.161766666666667,10.82375,7.110799999999999,-0.56237,15.19295,S28,G1,Boredom,-0.996615895540124,1.5,-0.5,-0.7833494518006403,-0.8609460320922785,M,-2.077596580291638,-2.6442954838929187
18.3276,5.0115,11.226,17.1256,-1.6826,21.8646,3.3399,7.2785,-4.715,-9.5645,-9.7772,10.0584,-3.5206,28.0524,11.978783333333332,12.265899999999998,0.1406,-7.13975,5.309200000000001,S28,G1,Boredom,-0.996615895540124,1.5,-0.5,-0.7833494518006403,-0.8609460320922785,M,-2.077596580291638,-2.6442954838929187
19.1165,13.2109,8.6631,20.8202,12.5184,34.6527,1.2501,11.5639,-11.9879,-8.0464,-5.4127,13.2328,-7.0873,18.9477,18.163633333333333,5.930200000000001,3.91005,-10.01715,6.407,S28,G1,Boredom,-0.996615895540124,1.5,-0.5,-0.7833494518006403,-0.8609460320922785,M,-2.077596580291638,-2.6442954838929187
5.6911,11.4735,5.3101,10.1253,12.7784,26.0289,6.8419,14.6475,-9.3805,-8.5083,-6.9769,-1.6611,-3.8289,3.7108,11.901216666666665,-0.05905,-4.319,-8.9444,10.7447,S28,G1,Boredom,-0.996615895540124,1.5,-0.5,-0.7833494518006403,-0.8609460320922785,M,-2.077596580291638,-2.6442954838929187
0.62703,14.5621,2.1578,1.962,19.5675,10.3672,5.4863,9.9908,-1.2619,-13.6651,-1.8361,-15.6615,-0.76548,-8.8575,8.207271666666665,-4.81149,-8.7488,-7.463500000000001,7.73855,S28,G1,Boredom,-0.996615895540124,1.5,-0.5,-0.7833494518006403,-0.8609460320922785,M,-2.077596580291638,-2.6442954838929187
3.4235,7.0782,-0.80484,-4.7668,25.9506,9.6783,7.9912,-4.7086,-1.1858,-26.9452,0.16301,-28.8218,2.1145,-7.3814,6.759826666666666,-2.63345,-14.329395,-14.0655,1.6413000000000002,S28,G1,Boredom,-0.996615895540124,1.5,-0.5,-0.7833494518006403,-0.8609460320922785,M,-2.077596580291638,-2.6442954838929187
3.6898,2.403,-1.2291,-12.5092,11.6422,12.4029,14.5949,-5.9098,-4.4199,-32.4786,-8.8194,-41.1925,10.9594,-0.79954,2.733266666666667,5.07993,-25.00595,-18.44925,4.342550000000001,S28,G1,Boredom,-0.996615895540124,1.5,-0.5,-0.7833494518006403,-0.8609460320922785,M,-2.077596580291638,-2.6442954838929187
-10.6316,6.5093,-6.3501,-18.8418,3.8604,1.7419,8.5254,-2.2499,-3.6831,-24.3909,-8.7628,-24.8229,6.9965,-6.8905,-3.951983333333333,0.0529999999999999,-16.79285,-14.037,3.13775,S28,G1,Boredom,-0.996615895540124,1.5,-0.5,-0.7833494518006403,-0.8609460320922785,M,-2.077596580291638,-2.6442954838929187
-15.7275,1.8683,-1.7186,-11.5724,17.7288,-1.6689,15.0971,-11.0875,5.5105,-18.677,5.4586,-18.1393,-6.1738,-20.5771,-1.8483833333333333,-13.37545,-6.340349999999999,-6.58325,2.0047999999999995,S28,G1,Boredom,-0.996615895540124,1.5,-0.5,-0.7833494518006403,-0.8609460320922785,M,-2.077596580291638,-2.6442954838929187
-4.3944,0.81148,-0.67081,3.222,30.7651,12.5313,23.636,1.8561,1.4025,-3.4564,11.7422,-2.9509,-6.7481,-5.2425,7.044111666666667,-5.9953,4.39565,-1.0269499999999998,12.74605,S28,G1,Boredom,-0.996615895540124,1.5,-0.5,-0.7833494518006403,-0.8609460320922785,M,-2.077596580291638,-2.6442954838929187
-18.2307,-5.3762,-11.4926,-4.9319,15.8312,16.0976,17.0232,4.1058,-5.7658,1.0684,6.7872,11.3261,-2.0927,9.1721,-1.3504333333333325,3.5397000000000003,9.05665,-2.3487,10.5645,S28,G1,Boredom,-0.996615895540124,1.5,-0.5,-0.7833494518006403,-0.8609460320922785,M,-2.077596580291638,-2.6442954838929187
-25.7047,-1.7483,-6.5525,-6.0528,0.78132,11.8256,19.308,1.4984,4.497,-1.3568,9.6862,21.1707,5.1161,22.7217,-4.575229999999999,13.9189,15.42845,1.5701,10.4032,S28,G1,Boredom,-0.996615895540124,1.5,-0.5,-0.7833494518006403,-0.8609460320922785,M,-2.077596580291638,-2.6442954838929187
-16.6066,2.1345,-8.0488,8.4103,-6.417,25.216,17.2044,8.9643,-0.49496,7.2247,6.2714,32.1784,0.086959,21.9652,0.7814000000000002,11.0260795,19.2249,3.36487,13.08435,S28,G1,Boredom,-0.996615895540124,1.5,-0.5,-0.7833494518006403,-0.8609460320922785,M,-2.077596580291638,-2.6442954838929187
-13.7213,4.8401,4.713,2.3058,-18.3099,20.9368,17.1163,1.8149,6.1463,6.7912,6.8393,16.1477,10.4712,30.0916,0.1274166666666669,20.2814,11.4935,6.46875,9.4656,S28,G1,Boredom,-0.996615895540124,1.5,-0.5,-0.7833494518006403,-0.8609460320922785,M,-2.077596580291638,-2.6442954838929187
-26.998,4.0776,-1.7092,-11.9326,-31.3113,6.9305,2.395,-11.0441,10.0275,-1.6442,5.9569,1.0788,14.0929,14.1861,-10.157166666666669,14.1395,3.51785,4.19165,-4.32455,S28,G1,Boredom,-0.996615895540124,1.5,-0.5,-0.7833494518006403,-0.8609460320922785,M,-2.077596580291638,-2.6442954838929187
-34.8897,-7.0287,-15.3019,-8.4503,-31.3885,-1.5133,-4.8323,-5.1863,10.8432,0.81507,5.1273,-13.0859,1.4415,-0.76504,-16.428733333333334,0.33823,-3.9793,5.829135,-5.0093,S28,G1,Boredom,-0.996615895540124,1.5,-0.5,-0.7833494518006403,-0.8609460320922785,M,-2.077596580291638,-2.6442954838929187
-18.6964,-7.5512,-0.28377,6.1567,-15.4052,3.2997,1.124,3.6249,9.2474,-1.1223,7.6533,-2.1133,-7.1459,-14.8191,-5.413361666666667,-10.9825,2.77,4.06255,2.37445,S28,G1,Boredom,-0.996615895540124,1.5,-0.5,-0.7833494518006403,-0.8609460320922785,M,-2.077596580291638,-2.6442954838929187
-5.7014,0.93024,8.7732,7.2715,-0.38088,17.2017,-2.2487,4.8243,-5.0022,-2.4718,6.7216,12.1135,-9.0773,0.17001,4.682393333333333,-4.453645,9.41755,-3.737,1.2878,S28,G1,Boredom,-0.996615895540124,1.5,-0.5,-0.7833494518006403,-0.8609460320922785,M,-2.077596580291638,-2.6442954838929187
-13.3877,-8.0982,3.9963,0.6962,-14.458,8.6811,-0.697,-1.6051,-0.45159,9.4828,11.513,24.6771,-6.1725,14.2598,-3.761716666666666,4.04365,18.09505,4.515605,-1.15105,S28,G1,Boredom,-0.996615895540124,1.5,-0.5,-0.7833494518006403,-0.8609460320922785,M,-2.077596580291638,-2.6442954838929187
-21.0845,-8.557,-1.9094,0.65398,-27.6905,-5.9397,-8.2105,2.2696,3.353,23.0138,15.5448,37.2965,-8.6353,9.5594,-10.75452,0.4620499999999996,26.42065,13.1834,-2.97045,S28,G1,Boredom,-0.996615895540124,1.5,-0.5,-0.7833494518006403,-0.8609460320922785,M,-2.077596580291638,-2.6442954838929187
-30.2089,-9.933,-11.24,-13.4853,-40.1291,-4.7069,-18.1073,-6.3666,-3.4598,20.7556,12.7227,42.6813,-2.4499,23.0859,-18.283866666666665,10.318,27.702,8.6479,-12.23695,S28,G1,Boredom,-0.996615895540124,1.5,-0.5,-0.7833494518006403,-0.8609460320922785,M,-2.077596580291638,-2.6442954838929187
-28.3963,-10.2808,-5.8439,-25.0214,-51.8214,0.29813,-13.2434,-10.7072,1.4704,15.7319,14.7925,30.6757,10.9197,17.9897,-20.177611666666664,14.4547,22.7341,8.60115,-11.9753,S28,G1,Boredom,-0.996615895540124,1.5,-0.5,-0.7833494518006403,-0.8609460320922785,M,-2.077596580291638,-2.6442954838929187
-32.3594,-10.6091,-14.9376,-17.8533,-56.403,-8.2198,-25.6719,-3.4532,-0.50631,21.3995,9.1828,27.8909,-2.0143,2.8103,-23.39703333333333,0.3979999999999999,18.53685,10.446595,-14.56255,S28,G1,Boredom,-0.996615895540124,1.5,-0.5,-0.7833494518006403,-0.8609460320922785,M,-2.077596580291638,-2.6442954838929187
-27.1125,-9.5004,-14.5134,-12.5321,-48.7683,-14.8103,-25.548,-5.6076,5.6626,9.254,10.0483,21.0223,-8.032,-11.4583,-21.206166666666668,-9.74515,15.5353,7.458299999999999,-15.5778,S28,G1,Boredom,-0.996615895540124,1.5,-0.5,-0.7833494518006403,-0.8609460320922785,M,-2.077596580291638,-2.6442954838929187
-14.1516,-5.1521,-4.1979,-2.3345,-31.7422,-5.4212,-23.0704,-2.437,2.4896,12.4771,13.2237,32.0403,-10.3833,3.3292,-10.499916666666666,-3.52705,22.632,7.48335,-12.7537,S28,G1,Boredom,-0.996615895540124,1.5,-0.5,-0.7833494518006403,-0.8609460320922785,M,-2.077596580291638,-2.6442954838929187
-14.2472,-2.954,-3.9465,0.63786,-23.1597,0.57094,-28.2982,0.5415,-2.3823,22.1175,18.0971,34.8395,-7.8722,14.8688,-7.1831,3.4983,26.4683,9.8676,-13.87835,S28,G1,Boredom,-0.996615895540124,1.5,-0.5,-0.7833494518006403,-0.8609460320922785,M,-2.077596580291638,-2.6442954838929187
-20.0039,-5.6099,-4.6535,-9.7894,-35.8701,-13.5633,-27.5441,-11.7685,3.4274,6.6904,24.5675,18.6492,0.15636,-0.1233,-14.915016666666668,0.0165299999999999,21.60835,5.0589,-19.6563,S28,G1,Boredom,-0.996615895540124,1.5,-0.5,-0.7833494518006403,-0.8609460320922785,M,-2.077596580291638,-2.6442954838929187
-9.3585,-5.2738,-11.9305,-8.2573,-29.0622,-12.8169,-30.614,-6.3398,-1.4999,9.0553,20.2603,5.1849,-2.6862,-12.4612,-12.7832,-7.5737,12.7226,3.7777,-18.4769,S28,G1,Boredom,-0.996615895540124,1.5,-0.5,-0.7833494518006403,-0.8609460320922785,M,-2.077596580291638,-2.6442954838929187
2.0641,-3.5405,-6.9642,2.155,-16.4574,-4.0204,-24.5276,2.0681,1.8954,22.2068,15.7385,18.9738,-5.8313,1.0361,-4.460566666666668,-2.3976,17.35615,12.0511,-11.22975,S28,G1,Boredom,-0.996615895540124,1.5,-0.5,-0.7833494518006403,-0.8609460320922785,M,-2.077596580291638,-2.6442954838929187
-10.3372,-0.49401,-3.7132,2.0261,-15.4695,-14.1672,-26.8334,-4.6671,-0.10726,16.1527,11.9609,29.7086,-15.8704,-8.4699,-7.025835,-12.17015,20.83475,8.02272,-15.75025,S28,G1,Boredom,-0.996615895540124,1.5,-0.5,-0.7833494518006403,-0.8609460320922785,M,-2.077596580291638,-2.6442954838929187
-22.4679,0.95155,-7.7408,-6.1238,-21.6245,-21.3456,-27.5845,-4.8596,0.37175,9.0436,14.5486,20.8428,-2.1676,-11.2679,-13.058508333333334,-6.71775,17.695700000000002,4.707675,-16.22205,S28,G1,Boredom,-0.996615895540124,1.5,-0.5,-0.7833494518006403,-0.8609460320922785,M,-2.077596580291638,-2.6442954838929187
-20.1752,-7.6056,-9.1649,-19.8564,-34.4271,-26.6764,-25.9294,-9.2902,10.7389,4.7231,17.4536,5.4923,12.0624,-7.7582,-19.65093333333333,2.1521,11.47295,7.731,-17.6098,S28,G1,Boredom,-0.996615895540124,1.5,-0.5,-0.7833494518006403,-0.8609460320922785,M,-2.077596580291638,-2.6442954838929187
-13.2983,-4.3156,-16.1708,-14.9544,-23.9292,-23.1873,-29.0958,-7.7886,11.0379,10.1061,12.6285,3.206,5.7387,-10.1264,-15.975933333333336,-2.1938500000000003,7.91725,10.572,-18.4422,S28,G1,Boredom,-0.996615895540124,1.5,-0.5,-0.7833494518006403,-0.8609460320922785,M,-2.077596580291638,-2.6442954838929187
-18.1668,-2.1677,-16.1452,-7.4452,-25.3262,-30.2957,-23.5726,-12.9881,4.7097,9.5002,9.0376,17.1136,-0.27246,-23.6188,-16.59113333333333,-11.94563,13.0756,7.10495,-18.28035,S28,G1,Boredom,-0.996615895540124,1.5,-0.5,-0.7833494518006403,-0.8609460320922785,M,-2.077596580291638,-2.6442954838929187
-17.5493,0.32342,-1.0765,-1.8046,-29.0018,-20.4505,-23.5751,-7.0141,0.17663,15.0692,14.6343,16.6263,4.9386,-13.2959,-11.593213333333331,-4.178649999999999,15.6303,7.622915,-15.2946,S28,G1,Boredom,-0.996615895540124,1.5,-0.5,-0.7833494518006403,-0.8609460320922785,M,-2.077596580291638,-2.6442954838929187
-18.3853,-2.5292,4.2497,-7.3632,-27.2617,-19.223,-28.7717,7.5068,0.16559,13.2203,9.0336,1.5287,4.6427,-25.7217,-11.752116666666666,-10.5395,5.28115,6.692945,-10.63245,S28,G1,Boredom,-0.996615895540124,1.5,-0.5,-0.7833494518006403,-0.8609460320922785,M,-2.077596580291638,-2.6442954838929187
-8.3096,-3.7947,13.912,-10.2272,-21.376,-27.9869,-12.9454,0.039578,14.2557,7.2328,-5.6084,-7.603,10.5027,-38.2784,-9.6304,-13.887849999999998,-6.6057,10.74425,-6.452910999999999,S28,G1,Boredom,-0.996615895540124,1.5,-0.5,-0.7833494518006403,-0.8609460320922785,M,-2.077596580291638,-2.6442954838929187
5.4116,3.9892,14.9662,-3.9467,-5.9934,-12.2077,1.9314,-7.5181,19.6066,13.4099,-19.3719,6.9532,10.8172,-40.2986,0.3698666666666665,-14.7407,-6.209350000000001,16.50825,-2.79335,S28,G1,Boredom,-0.996615895540124,1.5,-0.5,-0.7833494518006403,-0.8609460320922785,M,-2.077596580291638,-2.6442954838929187
-0.57946,-4.7506,9.3457,-15.9874,1.9902,-5.7406,-4.1893,-1.4002,15.597,-1.4946,-32.3096,-7.564,8.2793,-23.7807,-2.62036,-7.7507,-19.9368,7.0512,-2.79475,S28,G1,Boredom,-0.996615895540124,1.5,-0.5,-0.7833494518006403,-0.8609460320922785,M,-2.077596580291638,-2.6442954838929187
1.8164,-1.1598,12.0907,-16.445,0.45355,-14.3692,-0.63214,10.4896,17.967,-15.505,-43.7952,-21.2102,21.8825,-20.8697,-2.9355583333333333,0.5063999999999993,-32.502700000000004,1.230999999999999,4.92873,S28,G1,Boredom,-0.996615895540124,1.5,-0.5,-0.7833494518006403,-0.8609460320922785,M,-2.077596580291638,-2.6442954838929187
3.1242,5.993,2.3926,-1.3583,-0.045786,-19.6461,-0.12163,7.4992,11.6942,-1.4863,-47.3065,-5.8375,21.5816,-32.368,-1.5900643333333333,-5.3932,-26.572,5.10395,3.688785,S28,G1,Boredom,-0.996615895540124,1.5,-0.5,-0.7833494518006403,-0.8609460320922785,M,-2.077596580291638,-2.6442954838929187
0.57479,1.3834,5.5549,3.5127,-14.143,-21.7731,2.2463,-0.034447,7.6868,12.7029,-42.1074,8.6127,6.1867,-29.9538,-4.148385,-11.88355,-16.747349999999997,10.19485,1.1059265,S28,G1,Boredom,-0.996615895540124,1.5,-0.5,-0.7833494518006403,-0.8609460320922785,M,-2.077596580291638,-2.6442954838929187
-0.40349,2.2451,8.9999,-3.3092,-11.0003,-11.9662,-3.5553,11.3018,-2.2191,25.7037,-40.5248,22.1959,-8.2845,-31.934,-2.572365,-20.10925,-9.16445,11.7423,3.87325,S28,G1,Boredom,-0.996615895540124,1.5,-0.5,-0.7833494518006403,-0.8609460320922785,M,-2.077596580291638,-2.6442954838929187
-4.6298,-8.7516,-4.2906,-17.2106,-7.0349,-15.4987,-14.2031,-3.4763,-5.3913,17.0774,-45.1774,34.9642,-6.9779,-15.918,-9.569366666666664,-11.44795,-5.1066,5.84305,-8.8397,S28,G1,Boredom,-0.996615895540124,1.5,-0.5,-0.7833494518006403,-0.8609460320922785,M,-2.077596580291638,-2.6442954838929187
9.748,-1.1424,10.0668,-2.078,7.4872,-2.7625,0.34382,-9.9466,9.0322,8.0244,-28.3668,18.7663,7.5408,-0.86291,3.5531833333333336,3.338945,-4.80025,8.5283,-4.80139,S28,G1,Boredom,-0.996615895540124,1.5,-0.5,-0.7833494518006403,-0.8609460320922785,M,-2.077596580291638,-2.6442954838929187
4.98,0.81508,1.5013,-3.8427,10.411,0.23645,-11.9552,-1.7936,-1.3597,-6.5571,-31.7917,3.5404,-5.5944,13.2889,2.350188333333333,3.84725,-14.12565,-3.9584,-6.8744,S28,G1,Boredom,-0.996615895540124,1.5,-0.5,-0.7833494518006403,-0.8609460320922785,M,-2.077596580291638,-2.6442954838929187
-4.291,6.9051,-2.8383,-11.64,-4.3136,-7.8052,-10.7653,9.1751,11.4724,-10.481,-35.0789,-10.7721,8.4361,-1.6085,-3.9971666666666654,3.4138,-22.9255,0.4957000000000002,-0.7950999999999997,S28,G1,Boredom,-0.996615895540124,1.5,-0.5,-0.7833494518006403,-0.8609460320922785,M,-2.077596580291638,-2.6442954838929187
-3.0888,-3.8986,-3.6123,-12.8306,-18.1548,-11.1148,-13.8973,7.6804,14.5619,-0.40696,-34.8631,3.9743,17.3751,-6.5725,-8.783316666666668,5.4013,-15.444400000000002,7.07747,-3.10845,S28,G1,Boredom,-0.996615895540124,1.5,-0.5,-0.7833494518006403,-0.8609460320922785,M,-2.077596580291638,-2.6442954838929187
0.4014,-16.4152,-1.0353,-4.9775,-8.7001,-12.8099,-14.4803,-1.7531,2.8262,-0.85512,-24.7434,17.8358,2.6369,-0.04004,-7.2561,1.29843,-3.453800000000001,0.98554,-8.1167,S28,G1,Boredom,-0.996615895540124,1.5,-0.5,-0.7833494518006403,-0.8609460320922785,M,-2.077596580291638,-2.6442954838929187
9.8225,-7.874,6.583,7.5991,5.9219,-12.986,-3.2225,-3.5368,7.3792,2.0294,-11.9256,2.6657,1.534,-10.4266,1.5110833333333336,-4.4463,-4.629949999999999,4.7043,-3.37965,S28,G1,Boredom,-0.996615895540124,1.5,-0.5,-0.7833494518006403,-0.8609460320922785,M,-2.077596580291638,-2.6442954838929187
16.7894,-1.7348,4.2991,8.0883,17.9127,1.8932,-12.4739,3.2874,7.8812,8.5196,-14.0423,-11.5943,5.2203,-1.2996,7.87465,1.96035,-12.8183,8.2004,-4.59325,S28,G1,Boredom,-0.996615895540124,1.5,-0.5,-0.7833494518006403,-0.8609460320922785,M,-2.077596580291638,-2.6442954838929187
25.6989,-4.9369,10.1801,3.3525,11.6432,7.0421,-11.2529,0.72816,13.5473,12.258,-8.006,1.3802,10.1018,-7.3615,8.829983333333333,1.3701500000000002,-3.3129,12.90265,-5.26237,S28,G1,Boredom,-0.996615895540124,1.5,-0.5,-0.7833494518006403,-0.8609460320922785,M,-2.077596580291638,-2.6442954838929187
24.157,2.9156,2.9582,6.9292,18.5,2.8412,-15.3003,-1.2045,5.1791,13.4115,-12.2473,9.797,5.7174,-3.1415,9.716866666666666,1.2879499999999997,-1.2251499999999993,9.2953,-8.2524,S28,G1,Boredom,-0.996615895540124,1.5,-0.5,-0.7833494518006403,-0.8609460320922785,M,-2.077596580291638,-2.6442954838929187
20.346,8.8796,3.2524,12.6525,20.6953,6.9212,-16.7433,5.0068,-2.2158,4.5793,-15.763,-4.8908,7.7354,11.147,12.1245,9.4412,-10.3269,1.18175,-5.868250000000001,S28,G1,Boredom,-0.996615895540124,1.5,-0.5,-0.7833494518006403,-0.8609460320922785,M,-2.077596580291638,-2.6442954838929187
14.4031,-2.9864,14.3914,8.1159,11.8983,-1.0503,-19.5171,-1.9047,-3.9718,-9.7954,-14.8176,-15.5254,-5.9514,-3.6218,7.462000000000001,-4.7866,-15.1715,-6.8836,-10.7109,S28,G1,Boredom,-0.996615895540124,1.5,-0.5,-0.7833494518006403,-0.8609460320922785,M,-2.077596580291638,-2.6442954838929187
12.1226,0.49809,11.1668,15.6573,12.6012,1.3747,-22.5956,3.4043,1.4612,4.8923,-7.7887,-0.49386,-6.066,-17.5045,8.903448333333332,-11.78525,-4.14128,3.17675,-9.59565,S28,G1,Boredom,-0.996615895540124,1.5,-0.5,-0.7833494518006403,-0.8609460320922785,M,-2.077596580291638,-2.6442954838929187
9.0337,-1.8929,4.3579,4.801,0.038846,-3.9025,-23.601,0.83893,4.6798,17.8214,-6.8497,13.6358,7.0485,-9.4379,2.072674333333333,-1.1947000000000003,3.39305,11.2506,-11.381035,S28,G1,Boredom,-0.996615895540124,1.5,-0.5,-0.7833494518006403,-0.8609460320922785,M,-2.077596580291638,-2.6442954838929187
1.8801,-5.5572,3.1512,-9.5871,-1.8529,-10.2799,-35.408,-2.9902,-4.1019,9.1963,-10.2166,26.9176,-2.8196,5.2284,-3.707633333333333,1.2044,8.3505,2.547200000000001,-19.1991,S28,G1,Boredom,-0.996615895540124,1.5,-0.5,-0.7833494518006403,-0.8609460320922785,M,-2.077596580291638,-2.6442954838929187
2.2399,-1.918,6.2688,-3.8849,5.3429,-3.5237,-30.922,-2.3378,-2.4386,8.1724,-3.4642,22.1979,-7.8447,7.3426,0.7541666666666668,-0.2510499999999998,9.36685,2.8669,-16.6299,S28,G1,Boredom,-0.996615895540124,1.5,-0.5,-0.7833494518006403,-0.8609460320922785,M,-2.077596580291638,-2.6442954838929187
11.0777,-5.1087,10.1427,6.2655,1.7165,-6.618,-16.3166,-3.6148,0.068381,7.209,-6.5621,18.5054,-5.9576,-7.1979,2.912616666666666,-6.57775,5.97165,3.6386905,-9.9657,S28,G1,Boredom,-0.996615895540124,1.5,-0.5,-0.7833494518006403,-0.8609460320922785,M,-2.077596580291638,-2.6442954838929187
9.4683,1.8089,5.7558,7.7776,4.4467,-8.1108,-24.7824,4.1584,-6.5468,10.5548,-9.9467,27.7841,-11.267,-14.8618,3.524416666666666,-13.0644,8.9187,2.004,-10.312,S28,G1,Boredom,-0.996615895540124,1.5,-0.5,-0.7833494518006403,-0.8609460320922785,M,-2.077596580291638,-2.6442954838929187
4.1781,5.4787,7.2994,2.5893,-1.4869,-8.568,-23.2959,-0.81374,0.45709,3.3105,1.04,14.7829,-6.8127,-18.6918,1.5817666666666677,-12.75225,7.91145,1.883795,-12.05482,S28,G1,Boredom,-0.996615895540124,1.5,-0.5,-0.7833494518006403,-0.8609460320922785,M,-2.077596580291638,-2.6442954838929187
9.1221,1.8442,3.5557,0.072374,1.9081,-1.9154,-18.5923,-0.29279,-0.042461,-5.8612,-2.3282,4.9238,-1.2096,-14.2645,2.431179,-7.73705,1.2978,-2.9518305,-9.442545,S28,G1,Boredom,-0.996615895540124,1.5,-0.5,-0.7833494518006403,-0.8609460320922785,M,-2.077596580291638,-2.6442954838929187
13.2969,1.7336,-0.43556,5.7353,15.8936,5.7554,-15.5874,5.3921,-4.7621,1.102,-10.6895,13.1284,1.6966,0.69139,6.99654,1.193995,1.2194499999999993,-1.83005,-5.09765,S28,G1,Boredom,-0.996615895540124,1.5,-0.5,-0.7833494518006403,-0.8609460320922785,M,-2.077596580291638,-2.6442954838929187
16.277,-1.2041,6.2021,12.0019,21.6179,-4.0343,-8.9858,-4.3766,2.1343,5.758,0.34134,13.2849,-4.0725,2.6057,8.47675,-0.7333999999999998,6.8131200000000005,3.94615,-6.6812,S28,G1,Boredom,-0.996615895540124,1.5,-0.5,-0.7833494518006403,-0.8609460320922785,M,-2.077596580291638,-2.6442954838929187
18.6066,5.9523,4.4132,14.588,18.9049,2.3468,-10.8077,3.9143,4.3682,5.8851,7.405,18.6277,-7.1335,-11.6506,10.801966666666669,-9.39205,13.01635,5.12665,-3.4467000000000003,S28,G1,Boredom,-0.996615895540124,1.5,-0.5,-0.7833494518006403,-0.8609460320922785,M,-2.077596580291638,-2.6442954838929187
8.5171,5.1221,-1.991,3.7954,17.2976,0.78869,-11.5765,5.0958,-0.14479,-3.4411,-2.9566,7.5927,-0.56694,-10.0742,5.588315000000001,-5.32057,2.31805,-1.792945,-3.24035,S28,G1,Boredom,-0.996615895540124,1.5,-0.5,-0.7833494518006403,-0.8609460320922785,M,-2.077596580291638,-2.6442954838929187
10.8393,1.9812,1.9063,6.4013,21.9271,-6.8144,-8.0483,-1.8215,-5.8025,-6.0682,-11.2802,8.0814,-6.1993,4.6302,6.040133333333333,-0.7845499999999999,-1.5994000000000002,-5.93535,-4.9349,S28,G1,Boredom,-0.996615895540124,1.5,-0.5,-0.7833494518006403,-0.8609460320922785,M,-2.077596580291638,-2.6442954838929187
18.2178,4.2243,-4.3461,14.9898,25.8062,-6.8772,-11.8149,-3.1281,-10.6491,-1.4528,-11.075,21.6965,-16.6885,13.3924,8.669133333333333,-1.6480500000000005,5.3107500000000005,-6.05095,-7.4715,S28,G1,Boredom,-0.996615895540124,1.5,-0.5,-0.7833494518006403,-0.8609460320922785,M,-2.077596580291638,-2.6442954838929187
9.0963,-0.27967,-11.1695,-0.0095562,10.1578,-10.7142,-9.6892,-4.3572,-0.093259,-4.6718,-4.2716,11.962,-7.6597,-1.5112,-0.4864710333333333,-4.58545,3.8452,-2.3825295,-7.023199999999999,S28,G1,Boredom,-0.996615895540124,1.5,-0.5,-0.7833494518006403,-0.8609460320922785,M,-2.077596580291638,-2.6442954838929187
1.4669,-3.5687,-19.4724,-14.109,-1.8532,-6.7665,-10.5251,-2.6794,-1.504,5.5258,-5.4316,12.6607,-4.8386,10.7906,-7.383816666666667,2.976,3.61455,2.0109000000000004,-6.60225,S28,G1,Boredom,-0.996615895540124,1.5,-0.5,-0.7833494518006403,-0.8609460320922785,M,-2.077596580291638,-2.6442954838929187
10.3515,-2.8824,-11.2204,-10.0909,5.3426,-5.8874,-6.587,-6.7687,-3.7753,11.3337,-7.4673,21.8183,-5.0204,13.4489,-2.3978333333333333,4.21425,7.1755,3.7792,-6.677849999999999,S28,G1,Boredom,-0.996615895540124,1.5,-0.5,-0.7833494518006403,-0.8609460320922785,M,-2.077596580291638,-2.6442954838929187
22.4809,2.4852,0.31487,-0.51283,19.122,-6.951,-3.8307,-8.7236,-6.8541,-2.0978,-13.1582,8.703,-2.3581,3.6694,6.1565233333333325,0.6556500000000001,-2.2276000000000007,-4.47595,-6.27715,S28,G1,Boredom,-0.996615895540124,1.5,-0.5,-0.7833494518006403,-0.8609460320922785,M,-2.077596580291638,-2.6442954838929187
26.7989,7.0587,-0.64872,0.46174,30.7921,0.077138,0.17662,2.1888,-11.1655,-5.7494,-12.3683,2.514,-0.32767,8.1718,10.756643000000002,3.922065,-4.92715,-8.45745,1.1827100000000002,S28,G1,Boredom,-0.996615895540124,1.5,-0.5,-0.7833494518006403,-0.8609460320922785,M,-2.077596580291638,-2.6442954838929187
28.4972,-0.44801,2.6964,-3.8155,17.1383,-7.955,3.4722,-5.0258,-5.3008,-8.7097,-5.4872,-6.6086,-5.5027,2.4868,6.0188983333333335,-1.50795,-6.0479,-7.00525,-0.7768000000000002,S28,G1,Boredom,-0.996615895540124,1.5,-0.5,-0.7833494518006403,-0.8609460320922785,M,-2.077596580291638,-2.6442954838929187
24.8975,3.3563,5.3669,-0.7534,18.9432,-3.7011,-2.4038,-5.6689,-0.26108,-7.2433,-1.3805,-6.2134,-7.0615,4.2256,8.018233333333335,-1.4179499999999998,-3.79695,-3.75219,-4.03635,S28,G1,Boredom,-0.996615895540124,1.5,-0.5,-0.7833494518006403,-0.8609460320922785,M,-2.077596580291638,-2.6442954838929187
11.1257,1.2655,-1.5657,-6.3755,17.8066,-4.4233,-2.2596,-2.4951,-1.1897,-12.4751,-6.0198,-10.5628,-5.6936,-0.75008,2.9722166666666663,-3.22184,-8.2913,-6.8324,-2.37735,S28,G1,Boredom,-0.996615895540124,1.5,-0.5,-0.7833494518006403,-0.8609460320922785,M,-2.077596580291638,-2.6442954838929187
18.0144,-1.6436,9.8624,-2.2146,21.4608,-9.8238,8.2659,-0.45648,-9.6179,-6.0598,-8.4918,2.3494,-10.0737,6.8512,5.9426,-1.61125,-3.0712,-7.838850000000001,3.90471,S28,G1,Boredom,-0.996615895540124,1.5,-0.5,-0.7833494518006403,-0.8609460320922785,M,-2.077596580291638,-2.6442954838929187
16.9336,-3.4335,8.3255,3.5847,28.6732,-7.3459,4.9363,4.2931,-23.1408,6.5818,-14.5939,16.3084,-20.8038,20.5401,7.7896,-0.13185,0.8572499999999996,-8.279499999999999,4.6147,S28,G1,Boredom,-0.996615895540124,1.5,-0.5,-0.7833494518006403,-0.8609460320922785,M,-2.077596580291638,-2.6442954838929187
10.2502,-2.2832,5.9374,-4.1853,12.8528,-7.8494,8.418,4.0355,-14.2639,2.4089,-11.8288,15.3973,-7.2768,23.1529,2.45375,7.93805,1.78425,-5.9275,6.226749999999999,S28,G1,Boredom,-0.996615895540124,1.5,-0.5,-0.7833494518006403,-0.8609460320922785,M,-2.077596580291638,-2.6442954838929187
5.8573,1.6317,2.7475,-9.6015,-1.2079,-2.6563,0.35711,-1.874,-7.7417,0.37501,-8.2864,17.3071,3.5484,29.3195,-0.5381999999999997,16.43395,4.510349999999999,-3.683345,-0.758445,S28,G1,Boredom,-0.996615895540124,1.5,-0.5,-0.7833494518006403,-0.8609460320922785,M,-2.077596580291638,-2.6442954838929187
6.4501,2.4776,2.5822,-6.1922,-3.0243,-4.3859,-0.60901,-5.539,-3.4988,-0.59219,-2.1223,18.1567,-0.44196,19.0599,-0.34875,9.30897,8.0172,-2.045495,-3.074005,S28,G1,Boredom,-0.996615895540124,1.5,-0.5,-0.7833494518006403,-0.8609460320922785,M,-2.077596580291638,-2.6442954838929187
7.4809,3.7462,7.6225,-3.4592,-5.2035,-13.0949,5.5669,-4.7345,-2.8168,-11.4173,-2.4671,9.0403,-14.5154,3.8163,-0.4846666666666668,-5.34955,3.2866,-7.11705,0.4162000000000003,S28,G1,Boredom,-0.996615895540124,1.5,-0.5,-0.7833494518006403,-0.8609460320922785,M,-2.077596580291638,-2.6442954838929187
10.3364,6.8267,5.7483,8.5538,0.30253,-2.3932,7.594,7.3549,-6.8982,-7.427,-1.8474,14.6359,-13.7123,17.6873,4.895755,1.9875,6.39425,-7.162599999999999,7.47445,S28,G1,Boredom,-0.996615895540124,1.5,-0.5,-0.7833494518006403,-0.8609460320922785,M,-2.077596580291638,-2.6442954838929187
2.6335,-2.555,6.8198,2.8463,-13.8156,-11.2218,7.6105,-7.1864,-7.9007,-9.3429,-10.7087,17.0644,-7.6944,30.7261,-2.5488,11.51585,3.1778499999999994,-8.6218,0.21205,S28,G1,Boredom,-0.996615895540124,1.5,-0.5,-0.7833494518006403,-0.8609460320922785,M,-2.077596580291638,-2.6442954838929187
1.0586,2.7934,17.2731,8.8149,-23.4426,-10.0755,1.9596,-2.0995,-7.8988,1.1359,-13.3711,24.0685,-8.6491,22.3387,-0.5963500000000002,6.844799999999999,5.3487,-3.38145,-0.0699499999999999,S28,G1,Boredom,-0.996615895540124,1.5,-0.5,-0.7833494518006403,-0.8609460320922785,M,-2.077596580291638,-2.6442954838929187
0.52255,1.2086,13.8743,16.3139,-28.1754,-4.2767,2.3141,9.8323,-4.1191,6.262,1.1255,9.8734,-6.7138,9.1917,-0.0887916666666663,1.2389500000000004,5.49945,1.0714499999999996,6.0732,S28,G1,Boredom,-0.996615895540124,1.5,-0.5,-0.7833494518006403,-0.8609460320922785,M,-2.077596580291638,-2.6442954838929187
-2.8141,-9.7255,8.7927,6.3629,-27.9013,-11.1037,8.3147,-4.8576,1.3223,-4.9752,10.031,-4.819,0.77271,17.6133,-6.064833333333333,9.193005,2.6060000000000003,-1.82645,1.7285500000000005,S28,G1,Boredom,-0.996615895540124,1.5,-0.5,-0.7833494518006403,-0.8609460320922785,M,-2.077596580291638,-2.6442954838929187
5.8548,-0.64149,3.5425,5.0365,-12.1272,-4.7707,4.9817,-3.2167,-2.5345,-5.6214,4.7066,8.1533,-3.052,27.8897,-0.5175983333333333,12.41885,6.42995,-4.07795,0.8825000000000001,S28,G1,Boredom,-0.996615895540124,1.5,-0.5,-0.7833494518006403,-0.8609460320922785,M,-2.077596580291638,-2.6442954838929187
17.7814,-0.60301,3.33,6.6228,2.7004,-4.4844,4.6828,8.3109,-4.2718,-10.0063,-2.1874,15.2208,-8.5353,28.1057,4.224531666666667,9.7852,6.5167,-7.139049999999999,6.49685,S28,G1,Boredom,-0.996615895540124,1.5,-0.5,-0.7833494518006403,-0.8609460320922785,M,-2.077596580291638,-2.6442954838929187
10.576,0.84955,2.658,7.6427,5.0333,-0.90959,4.874,9.2286,-4.4876,-3.2674,-1.584,13.8355,-5.6616,30.6694,4.308326666666667,12.5039,6.12575,-3.8775,7.0513,S28,G1,Boredom,-0.996615895540124,1.5,-0.5,-0.7833494518006403,-0.8609460320922785,M,-2.077596580291638,-2.6442954838929187
-4.1585,5.9942,-0.80676,3.8788,7.0932,-0.38244,5.0541,3.4802,0.97637,5.9022,3.7058,8.7549,1.7613,17.0239,1.9364166666666665,9.3926,6.23035,3.439285,4.26715,S28,G1,Boredom,-0.996615895540124,1.5,-0.5,-0.7833494518006403,-0.8609460320922785,M,-2.077596580291638,-2.6442954838929187
-5.3932,-3.8106,1.1301,0.81152,-7.4324,-9.8047,7.5845,-0.50652,11.3072,-3.8972,5.3719,-5.8704,2.5999,1.9024,-4.083213333333334,2.25115,-0.2492499999999999,3.705,3.53899,S28,G1,Boredom,-0.996615895540124,1.5,-0.5,-0.7833494518006403,-0.8609460320922785,M,-2.077596580291638,-2.6442954838929187
-0.34701,-1.6931,1.0619,10.2085,-9.8879,0.22834,7.129,2.3571,8.7398,2.0035,6.9394,-9.363,0.55491,14.9436,-0.071545,7.749255,-1.2117999999999998,5.371650000000001,4.74305,S28,G1,Boredom,-0.996615895540124,1.5,-0.5,-0.7833494518006403,-0.8609460320922785,M,-2.077596580291638,-2.6442954838929187
-5.9935,-0.64768,1.9429,6.7619,-3.6277,-0.73006,8.5902,-9.1176,-0.28504,-0.95079,9.3563,-8.8017,2.4106,20.6581,-0.3823566666666667,11.53435,0.2772999999999994,-0.617915,-0.2637,S28,G1,Boredom,-0.996615895540124,1.5,-0.5,-0.7833494518006403,-0.8609460320922785,M,-2.077596580291638,-2.6442954838929187
0.97767,6.9474,3.7152,13.9124,10.6899,-1.631,8.0752,-3.8488,-3.1011,-14.9937,10.6838,-8.274,-0.56726,5.3186,5.768595,2.37567,1.2049000000000003,-9.0474,2.1132,S28,G1,Boredom,-0.996615895540124,1.5,-0.5,-0.7833494518006403,-0.8609460320922785,M,-2.077596580291638,-2.6442954838929187
8.0027,14.5585,5.8539,19.2171,24.1485,-1.0601,10.8965,-1.2564,-4.3323,-24.0774,5.7928,-21.8776,-4.7832,-9.1005,11.786766666666663,-6.9418500000000005,-8.0424,-14.20485,4.82005,S28,G1,Boredom,-0.996615895540124,1.5,-0.5,-0.7833494518006403,-0.8609460320922785,M,-2.077596580291638,-2.6442954838929187
11.3004,13.6859,16.8363,14.2861,27.0848,-3.8301,24.3427,-9.6811,1.5949,-14.1327,8.2789,-21.1035,0.22589,-18.606,13.227233333333333,-9.190055,-6.4123,-6.2689,7.3308,S28,G1,Boredom,-0.996615895540124,1.5,-0.5,-0.7833494518006403,-0.8609460320922785,M,-2.077596580291638,-2.6442954838929187
-0.23918,3.8912,1.7261,3.5112,11.3597,-5.9623,17.7539,-2.017,-3.6955,-2.4237,3.5317,-5.7373,2.5734,-3.3897,2.381120000000001,-0.40815,-1.1028000000000002,-3.0596,7.868450000000001,S28,G1,Boredom,-0.996615895540124,1.5,-0.5,-0.7833494518006403,-0.8609460320922785,M,-2.077596580291638,-2.6442954838929187
-14.3248,-6.2587,-12.4774,-10.7995,-3.4219,-17.4104,14.328,-1.4238,1.7205,-3.6946,7.5698,-19.493,15.17,-17.2863,-10.782116666666669,-1.0581500000000004,-5.961599999999999,-0.98705,6.4521,S28,G1,Boredom,-0.996615895540124,1.5,-0.5,-0.7833494518006403,-0.8609460320922785,M,-2.077596580291638,-2.6442954838929187
-11.6433,1.2005,-2.8908,-10.2184,-16.1018,-14.0042,24.3299,-10.3106,7.7567,5.5001,17.9772,-8.4066,19.454,-30.3491,-8.943,-5.44755,4.7853,6.6284,7.009649999999999,S28,G1,Boredom,-0.996615895540124,1.5,-0.5,-0.7833494518006403,-0.8609460320922785,M,-2.077596580291638,-2.6442954838929187
3.1553,0.18334,-2.7174,0.78371,-1.0357,-2.7745,14.3701,-11.5804,-6.8087,8.9471,7.4533,6.1978,4.1868,-14.4282,-0.4008750000000001,-5.1207,6.82555,1.0692000000000004,1.3948500000000008,S28,G1,Boredom,-0.996615895540124,1.5,-0.5,-0.7833494518006403,-0.8609460320922785,M,-2.077596580291638,-2.6442954838929187
12.9502,2.5339,0.75142,2.154,13.1265,7.3093,9.2578,-4.7471,-8.8282,-3.3955,0.86763,-1.1904,-8.8818,-1.2841,6.470886666666668,-5.08295,-0.1613849999999999,-6.11185,2.25535,S28,G1,Boredom,-0.996615895540124,1.5,-0.5,-0.7833494518006403,-0.8609460320922785,M,-2.077596580291638,-2.6442954838929187
17.84,15.6045,4.4838,4.8579,9.1673,20.9707,8.7019,4.0382,-6.4095,-1.3028,5.5373,-15.219,-3.6263,2.5704,12.154033333333333,-0.5279500000000001,-4.84085,-3.85615,6.37005,S28,G1,Boredom,-0.996615895540124,1.5,-0.5,-0.7833494518006403,-0.8609460320922785,M,-2.077596580291638,-2.6442954838929187
11.1028,4.2792,0.43731,5.5111,-5.4827,16.001,8.1793,-1.8709,-0.35811,-2.1694,5.2055,-16.2626,0.36872,-11.6838,5.308118333333334,-5.65754,-5.528549999999999,-1.263755,3.1542,S28,G1,Boredom,-0.996615895540124,1.5,-0.5,-0.7833494518006403,-0.8609460320922785,M,-2.077596580291638,-2.6442954838929187
