"AF3","AF4","F3","F4","F7","F8","FC5","FC6","O1","O2","P7","P8","T7","T8",
-16.1484,-1.2053,32.0564,6.0255,-64.3537,16.6308,137.1436,98.0974,-4.0974,-7.4718,5.0617,1.2053,-9.8819,-9.8819,
-16.3851,-0.40985,34.2306,2.0488,-48.2002,4.3046,126.2637,100.1655,-6.5028,-6.3004,0.17846,1.3737,-8.084,-15.7967,
-7.689,-3.7595,38.4435,5.7825,-46.2723,8.8672,132.7879,102.3505,-4.1842,-2.5481,3.542,3.2197,-9.5269,-11.9566,
-10.1197,-6.426,28.906,1.0968,-47.8343,18.4581,129.0389,92.835,-3.9332,-0.94898,8.1502,2.0627,-8.9553,-9.311,
-12.6462,-3.3895,25.0023,-0.17409,-44.2413,14.6993,107.5575,92.8083,-4.4203,0.79496,7.42,-0.23049,-3.3565,-13.3319,
-9.7181,-1.9807,21.3332,-0.88677,-27.4869,12.6123,115.2041,101.3398,-5.3602,0.98846,0.46706,0.98841,-0.50379,-12.2908,
-9.8581,1.7534,15.4737,-1.5567,-11.7376,17.3989,122.3918,103.3339,-4.7978,2.1342,-4.6224,4.0624,-1.6786,-9.3844,
-6.6153,1.8894,18.1605,-1.2221,-9.5871,18.5244,129.1483,91.5904,-4.7507,1.283,-5.5501,2.6136,-4.2292,-11.4727,
-2.603,-0.39361,22.6145,-4.2823,-20.3401,19.1001,135.4994,93.5668,-2.2965,1.9294,0.32649,5.1078,-5.1808,-9.579,
-10.6417,0.5941,9.2063,-10.2921,-29.7247,23.7385,141.4695,100.4861,-10.8356,2.2953,-0.6572,6.7298,-9.2085,-13.3428,
-11.6904,4.6563,0.70016,-11.3613,-16.6131,28.8221,147.0813,108.1952,-13.3189,1.4347,-1.8231,2.7106,-4.5586,-13.7471,
1.5445,7.7509,14.1555,-6.8237,-4.5295,29.021,152.3564,111.3445,-4.807,-1.0615,4.0709,-0.34457,-2.3569,-9.5483,
6.7542,11.1425,17.1628,-6.896,-15.3447,24.3874,157.315,99.8438,-10.3029,-6.3002,-0.5119,-1.7699,-10.8924,-17.1698,
8.2772,15.7761,18.5427,-7.9285,-7.6756,25.3343,161.9761,93.3708,-9.2033,-4.9583,-2.8913,6.049,-2.0441,-17.104,
6.3345,10.9734,14.5383,-12.7552,6.7649,16.1017,166.3576,89.2146,-6.2407,-6.5893,-1.2718,9.5427,0.006961,-12.7035,
2.0978,7.4227,2.5785,-16.8108,-7.621,2.6019,170.4761,85.7901,-7.7943,-6.6756,2.6611,3.6673,-10.5985,-16.7618,
3.418,10.8339,-0.95039,-13.3918,-5.7172,8.2306,174.3475,81.1244,-5.3986,0.47361,4.9114,-1.3732,-1.7677,-17.2021,
3.2131,13.0762,-2.8218,-14.5163,8.7258,19.7881,177.9867,66.6162,-9.8952,-1.9652,-2.6139,-1.2906,7.0153,-19.0623,
1.0921,9.3991,-4.5807,-20.8761,22.3023,10.888,181.4075,56.3527,-14.1217,-6.668,-2.939,0.23308,3.2199,-22.2569,
4.883,5.4607,0.032482,-18.6597,13.974,1.0757,184.5026,60.6839,-10.8643,-3.8578,0.12937,-2.6734,0.13418,-19.4757,
10.3748,13.328,7.744,-13.6835,3.9768,3.9034,159.4533,64.7558,-5.392,0.23032,0.60377,-4.441,3.5008,-14.9324,
3.7266,14.2153,-1.157,-16.9601,3.9794,-0.42834,163.9861,49.0601,-7.2378,-3.3987,-0.63752,-7.3082,4.9778,-17.1702,
6.1541,8.7831,-5.6669,-12.809,10.2485,4.659,168.247,40.5734,-7.0445,-2.9538,-0.3583,-2.29,3.4743,-15.4166,
14.4617,4.8819,1.4218,-16.379,-3.382,11.1282,172.2522,43.9233,-8.5503,-1.8125,-5.1573,2.6679,-3.9653,-15.9381,
15.5224,8.4451,-1.5558,-18.2885,0.67752,6.1219,161.5551,46.1084,-12.3754,-2.1859,-4.8476,0.57939,2.0575,-19.8023,
9.0472,4.3232,-10.8627,-20.3245,2.3239,1.1751,152.103,36.3523,-15.7304,-6.1523,-9.6187,-4.9988,7.4774,-18.8549,
20.7969,4.3048,3.8891,-17.4178,-11.9156,4.72,143.6997,32.4839,-8.7611,-1.6854,-8.3182,-0.11955,2.4495,-5.9135,
26.298,14.1699,6.669,-11.0701,-25.3006,-9.6632,139.4165,34.8732,-10.1636,-2.5486,-1.0707,0.37002,-5.8927,-7.9688,
11.7047,12.3554,-7.8312,-13.7803,-9.6826,-20.0499,136.3537,35.6733,-11.9639,-2.3957,5.2606,-2.0628,-0.23646,-19.0598,
2.5663,-2.486,-16.1591,-21.3896,4.9984,-4.7469,126.0033,26.0611,-9.5588,1.3635,-1.0811,-0.73371,3.3931,-20.0859,
16.5123,4.5328,-9.6455,-20.3468,-9.4015,-5.0647,126.3973,14.1336,-13.5646,1.0407,-8.9695,1.4795,0.53846,-15.7468,
24.5599,16.5529,-5.9337,-20.3317,-22.9374,-5.9662,129.1774,15.9366,-16.8485,-5.0473,-7.2265,0.6678,1.711,-14.5615,
8.9863,1.4597,-15.7008,-24.4142,-7.4612,8.4918,110.3397,25.5855,-14.8735,-6.6729,-9.2033,-0.33636,3.5368,-15.6157,
-5.4117,-11.5228,-21.0253,-22.467,7.0865,22.0823,117.8193,30.7993,-12.0525,2.4046,-6.7229,4.5041,10.5554,-8.8942,
9.013,3.2686,-8.6763,-15.8165,15.8203,34.8574,124.8502,29.4335,-12.7753,-0.63195,-7.2831,-2.5148,3.6553,-9.3247,
22.5722,17.1725,5.9443,-7.6369,0.7711,46.8659,119.0459,37.3082,-4.2963,2.7802,-1.5442,0.0464,-3.7951,-3.4628,
19.5307,2.0421,9.323,-16.8197,-13.3752,58.154,108.0468,28.8032,-6.931,1.6495,-2.4154,1.0075,-3.085,-8.0752,
8.9591,-10.4934,-3.5286,-20.872,-12.0907,68.2828,115.664,27.7982,-14.9511,0.34502,-8.7782,-1.2219,2.6435,-16.991,
10.3495,-1.1869,-8.1374,-18.1736,-25.4653,70.9345,99.2039,40.2303,-6.8234,4.1809,-9.2156,-1.6307,2.4851,-14.5255,
8.7647,-2.0796,-4.2747,-13.2264,-9.8374,80.7784,79.1517,50.2294,3.7094,2.0019,-0.94943,0.39529,-0.55604,-10.7614,
17.6385,0.21458,2.0076,-7.8537,4.8529,78.4623,88.5026,45.0458,1.7998,-7.0361,3.6866,-0.83349,-0.76387,-11.3208,
26.7034,5.0222,1.8869,-11.2386,-5.9226,87.8546,97.2924,38.4869,-1.6829,-6.1317,-0.87315,-2.2295,3.6201,-9.1955,
14.0139,-0.099858,-2.5647,-13.9388,-19.6673,94.5144,105.5549,40.998,-5.9202,-0.94358,-7.5692,0.31439,0.99272,-9.6081,
4.9784,3.2806,-0.96497,-10.6923,-5.3516,79.2026,97.7753,52.6381,-7.0113,-1.3689,-5.6693,1.7418,-0.5131,-10.4774,
10.2235,6.6994,-8.3787,-18.4867,9.0695,74.2092,87.3297,56.3497,-14.5441,-13.5791,-10.3901,-9.2088,-2.1693,-14.9102,
14.1894,7.5023,-14.3834,-18.5828,22.6253,83.8567,96.1899,67.0687,-12.4666,-10.1132,-10.49,-4.0769,4.4683,-10.8826,
8.2764,-4.2761,-13.2794,-19.1546,33.8011,92.9253,104.5186,77.1446,-9.5495,-4.9267,-10.5835,0.26503,1.5491,-13.3627,
20.7952,8.514,1.6173,-5.4723,17.673,97.2317,112.3474,86.6159,-4.6377,-1.2571,-3.682,-2.161,3.8663,-6.7763,
13.5219,11.6186,-3.6616,-10.2052,27.0972,77.2978,119.7066,82.7445,-14.2414,-12.5094,-10.9329,-14.8058,-0.94495,-11.4314,
9.8183,-0.166,-4.8884,-12.9675,20.6509,71.0932,126.6242,86.9386,-7.1206,-3.0824,-5.9384,-2.3485,3.9322,-4.4788,
8.7471,-6.4228,-7.9694,-12.6716,5.3118,80.9276,131.1981,81.7221,-6.6931,-3.3792,-6.5462,1.1671,1.2859,-5.6566,
7.017,-1.4581,-3.3938,-10.7061,12.1035,86.7977,109.2262,89.5932,-5.0867,-7.2742,-4.4666,-4.4466,6.7524,-6.0401,
4.9087,-6.4319,-3.4312,-9.8227,13.5464,68.8154,109.0599,98.3176,-2.6124,-5.1506,-3.9572,-8.2771,18.6398,-10.257,
12.3272,5.041,-7.5639,-2.9666,14.1797,60.8303,116.6163,96.8773,-0.52719,3.8353,-1.7918,-1.0318,21.3775,-12.5338,
14.4798,17.7542,1.5668,-5.6809,17.6675,43.0805,95.5193,92.9931,-5.798,2.1597,-6.9867,-2.8979,5.9949,-14.1922,
13.8523,9.6989,14.2471,-7.0275,17.8125,29.7697,75.6881,101.5135,-5.2094,2.7527,-6.3268,0.4088,-1.7159,-6.351,
3.6209,-4.9831,8.3308,-11.6673,2.6437,42.0835,85.2468,109.5227,-5.1375,4.275,-5.706,3.9999,10.197,-4.2829,
-0.69395,-14.6863,2.7695,-10.7261,-0.76864,41.8483,94.232,89.4538,-9.4088,4.7412,-8.4969,1.5905,6.9343,-14.872,
4.4094,0.29492,4.2905,-10.3235,13.3775,25.2374,74.4781,98.1866,-13.424,0.84177,-12.0844,-3.5661,-1.436,-20.9691,
0.52962,-8.0384,1.3818,-15.2479,8.598,9.6232,69.2865,106.3954,-9.9673,-3.3063,-11.6005,-3.5933,2.7478,-10.7931,
2.1848,-14.5458,-6.1727,-13.1275,16.9999,23.1458,79.2293,114.1116,-12.5025,-7.2055,-11.6276,-4.1009,-0.55036,-6.5303,
9.5256,-1.8629,-1.223,-10.6531,25.8619,32.4826,63.7498,98.7086,-19.2241,-11.8349,-17.9199,-8.9165,-11.8455,-12.6464,
7.9902,-2.2331,7.5274,-10.0135,16.5974,16.4336,58.9609,106.886,-21.4451,-12.0886,-22.6288,-10.7916,-5.8322,-9.959,
9.9209,-11.2581,10.9322,-4.1105,16.0835,1.3476,65.0638,114.5729,-16.302,-8.9532,-17.8971,-9.6622,-1.6258,0.76144,
10.0487,-2.1467,14.8558,-1.2125,14.3958,8.9798,60.4373,121.7985,-7.37,-5.2828,-11.7618,-8.8413,-5.1439,0.47456,
5.5892,12.0821,25.0514,5.127,-0.56796,22.541,68.8619,128.5906,3.1954,6.6036,-7.1995,-1.0802,2.8777,1.4102,
-3.9047,6.4164,17.7637,1.9273,-0.4134,18.6579,74.8536,134.9752,0.11159,1.8691,-6.7675,-3.4255,6.5614,2.2899,
-12.5885,-5.2968,6.3341,-4.2143,13.7114,3.4384,56.2624,128.6846,-11.2238,-12.3431,-13.8333,-15.0301,-7.9323,-8.2114,
-10.8696,0.8054,18.0049,4.7154,7.2246,-8.458,38.7866,135.0635,-5.7298,-9.7948,-9.629,-0.028297,0.6179,-3.8625,
-15.2788,-13.3429,2.8246,-5.9316,6.068,1.9317,47.3052,128.0438,-12.8576,-1.2536,-13.6308,6.8426,6.6066,-2.9076,
-0.2621,-10.0115,-3.4912,-5.8169,13.6574,-12.2842,40.8517,106.2612,-11.363,-5.7579,-15.4643,-2.0039,-2.2257,-3.9387,
13.8536,4.6892,10.8183,7.307,-1.262,-25.6472,24.3006,113.9855,3.4187,-0.35073,-1.2796,4.6238,-0.88686,4.2518,
27.1224,-7.764,23.5463,-1.5676,-15.2863,-19.2879,32.6043,121.2464,-1.2454,0.39321,-3.3724,4.1054,-0.59269,3.2733,
11.3951,-21.3981,8.0335,-3.4015,-0.2691,-7.0431,44.748,100.595,-10.8119,-0.59402,-10.4007,0.0029397,3.299,3.0772,
16.7376,-14.9319,5.0211,2.8284,13.847,-7.8256,27.9631,86.6058,-3.655,-1.2815,-8.5711,-0.23843,3.3423,3.1337,
29.8333,0.064057,18.8199,4.3457,-1.0838,-15.31,12.1853,89.3629,4.9997,2.4106,-1.5496,3.8735,-0.95583,6.5609,
23.3429,-12.835,31.7907,-6.0382,13.0812,-19.2119,25.5542,79.1807,-0.12073,-1.5902,-3.3846,-5.5182,3.4401,3.275,
14.4707,-16.6444,43.9832,-3.0246,26.3964,-25.0489,33.4212,79.0093,-0.35422,-7.5206,-1.0121,-14.5869,7.8132,-1.5006,
27.7025,-1.5457,55.4442,11.2569,10.7126,-26.4384,17.3159,88.3688,13.767,5.9461,13.1486,-2.1425,3.9699,8.7123,
40.1403,12.647,66.2176,13.1123,-4.0302,-26.057,2.177,69.6896,12.0974,8.7228,7.1773,3.0477,0.11632,12.287,
23.7524,-2.2118,76.3445,-1.7744,10.3116,-23.0475,2.528,51.4082,-2.7285,-5.9006,-7.3534,-11.2352,-6.6393,-1.9478,
27.3887,9.8518,73.4509,-5.1626,23.7929,-14.1926,-6.0591,39.5263,-16.6647,-19.6465,-15.7095,-19.8403,-18.5333,-6.8924,
39.8454,23.3607,83.1438,9.2471,8.2654,0.63798,-10.9984,51.2548,-1.5649,-4.9706,-0.66693,-4.5499,-3.9237,7.6211,
28.1751,7.859,69.3581,0.37664,-0.66623,-13.5003,-15.6407,44.685,-5.4478,-12.8671,-10.8703,-6.3256,2.0963,3.187,
21.9051,-3.4588,55.3144,-9.0457,13.4737,-18.1134,-16.3897,27.9039,-19.221,-20.531,-22.5104,-13.4181,-6.4654,-11.1042,
33.3653,8.0769,66.0955,-12.6008,23.1501,-22.5702,-29.5063,16.2268,-19.8754,-15.6837,-20.9188,-10.9258,-17.4056,-11.7638,
26.7838,6.8692,67.7935,-2.4445,7.6611,-35.316,-25.2053,16.4582,-6.3906,-11.6094,-6.4075,-7.137,-6.4791,1.2344,
19.1513,-7.643,58.6646,0.35324,21.3015,-24.8814,-21.0415,17.158,-0.94595,-13.5639,-3.8539,-6.9497,3.3096,1.4013,
26.1967,-16.9458,55.1445,1.2961,34.1234,-9.2885,-9.1744,13.7181,1.0392,-5.52,-7.4793,1.6617,8.4135,7.1015,
26.3121,-1.8291,53.0411,-2.397,30.268,-22.8312,-19.4697,4.9413,-4.0848,-12.1782,-17.8763,-12.538,-6.1914,0.6499,
35.0979,12.3807,63.9587,10.0391,14.3519,-35.5613,-32.4015,15.4909,2.1861,-8.7962,-7.404,-17.9317,-13.4122,-2.04,
23.8328,-0.17231,49.6366,-3.0965,27.5908,-31.379,-44.5574,1.5462,-3.2475,-9.7144,-11.7802,-10.1071,-7.305,-4.8099,
36.5028,-14.262,48.8273,0.22252,40.0354,-15.3962,-43.5714,-7.9468,9.7216,2.6783,-2.1556,4.5993,7.2333,9.5787,
48.4126,0.69375,56.9851,13.2248,23.5333,-27.3672,-47.7058,-12.2905,10.1024,2.5179,-0.097806,-1.3405,-7.3007,10.5705,
59.6079,10.5343,51.1557,10.021,8.0213,-39.8251,-43.8789,-6.2502,3.2295,1.8846,-4.4305,-3.1885,-10.4779,1.7414,
46.27,-4.1978,34.107,-1.6675,21.64,-42.6178,-41.2467,-12.1421,0.62558,-4.9769,-8.021,-2.5148,4.2508,2.6012,
52.4114,-15.1538,36.6399,5.9039,12.8695,-25.9607,-51.5463,-20.3317,3.2391,-8.2942,-3.4424,-0.67717,8.9367,11.3627,
63.3667,-0.14461,48.5415,8.9243,-2.0026,-24.2826,-62.5535,-22.486,1.5988,-7.7963,-0.82553,-4.9751,-4.1327,8.753,
54.6237,4.0821,45.0264,0.19394,12.2175,-24.7541,-72.9003,-32.7062,-5.7282,-11.1847,-8.9709,-9.0147,-9.6696,-4.3054,
41.4646,-0.26038,39.6735,2.8336,25.5845,-37.3688,-71.9005,-38.2154,-1.287,-7.3803,-5.7814,-0.037887,-4.9918,-0.91384,
38.0126,6.022,38.2572,4.592,9.9494,-49.2267,-53.4865,-37.8505,-2.1738,-8.8659,-8.8087,-8.7125,-10.9591,2.0333,
34.2856,0.35802,35.9617,1.9059,3.8093,-47.7193,-64.3773,-42.8103,-2.0434,-4.4776,-5.87,-11.5642,-4.9989,3.3575,
32.4697,-13.7635,35.0095,5.8891,17.6807,-30.7562,-74.6147,-43.8568,10.8539,8.0838,8.5822,3.2297,9.4011,11.1101,
40.1625,-11.1299,39.1755,11.8028,15.7765,-36.5026,-56.0378,-31.5845,9.2383,6.1525,9.152,4.6026,7.0293,8.0329,
47.8754,3.6379,44.5375,7.7199,0.72992,-48.4125,-66.7755,-33.5465,1.9349,5.3008,-3.4489,-5.7971,-7.4925,1.7661,
45.7264,14.1451,42.5884,7.9799,-13.4139,-31.4077,-76.869,-45.6337,11.7014,17.2755,5.6764,1.0589,-13.4301,7.6859,
39.3674,-0.80358,34.4899,14.009,-13.8143,-32.8977,-58.1568,-45.1848,14.6148,16.4799,8.9512,2.2006,-7.0807,9.8763,
30.7386,5.8731,22.2969,3.5273,1.1145,-45.0239,-45.6289,-34.2793,5.0605,5.368,-0.74514,-1.3061,-10.0306,5.909,
31.0633,8.6539,19.7541,-4.6383,8.8807,-28.2224,-56.9912,-46.3225,-0.78648,-0.49794,-5.2795,-2.4328,-17.3822,3.3851,
43.2995,9.8217,32.6688,9.74,-5.7522,-12.4291,-67.6717,-42.4586,13.3607,13.6319,9.1373,11.8132,-2.2393,17.282,
29.7352,-4.7469,16.8499,11.2042,-19.507,-25.7833,-74.4572,-39.4287,14.1258,14.8632,5.3351,17.0095,-3.9127,8.6532,
13.8511,-7.3544,1.7389,-2.0013,-4.2366,-22.7905,-55.8898,-38.0271,6.0472,9.1509,2.6046,11.1684,-8.9803,0.90298,
13.8636,1.0409,2.9601,1.2521,-6.754,-30.8229,-64.9496,-49.8454,8.3357,6.9144,7.5098,1.5805,-6.7545,3.5001,
27.1318,9.1729,16.8825,14.1921,-17.4362,-43.0735,-75.1526,-55.6525,17.4767,16.1407,14.2903,11.1264,7.6303,11.4851,
16.4651,-5.4775,8.277,8.2792,-6.9898,-26.3891,-72.21,-39.5387,14.2587,13.0029,10.7815,12.6282,5.9674,6.2164,
9.4517,-18.0433,10.432,7.0595,7.5296,-10.7057,-61.3699,-29.2126,16.0548,14.8743,15.1959,10.1833,6.3323,10.9051,
12.9822,-8.0429,10.0472,5.4309,15.152,-15.7275,-57.4465,-41.5599,12.4402,13.7406,10.6689,8.3672,1.8552,7.1176,
21.362,-7.0781,-1.6431,-2.608,2.1916,-24.425,-54.9638,-53.1663,7.3552,7.6137,2.3162,9.3112,0.2974,-1.0225,
29.7215,-6.6537,1.8302,-0.04115,-12.0399,-8.8595,-63.2354,-57.2069,5.9498,6.6748,4.1052,8.7528,0.76172,0.0029544,
29.625,-6.0135,12.0843,5.9869,-18.6688,-22.428,-73.1796,-49.6771,14.5109,15.6743,12.777,7.5042,5.7777,7.9565,
30.2578,-17.2221,9.4308,1.771,-31.6487,-35.1823,-70.7172,-45.2505,16.0501,14.7336,11.5282,7.0542,6.8771,9.8895,
37.3604,-5.8244,6.6958,2.8701,-30.3522,-36.807,-68.6433,-47.5971,8.0977,10.7165,6.2568,8.8001,2.3671,6.6446,
24.7549,0.068653,4.1249,-0.91756,-18.1667,-35.322,-78.6247,-53.177,3.5145,11.7608,3.2303,4.6567,-1.8723,0.22034,
20.6183,-6.9251,8.9393,5.6457,-28.8871,-36.3359,-85.8379,-51.1914,12.7034,14.1884,10.9904,6.5467,5.7116,7.1972,
25.4065,-3.8583,8.6437,8.9221,-41.2539,-29.0943,-83.8209,-59.4484,3.0233,7.3113,5.7515,7.8409,3.6819,6.5242,
17.3747,3.3631,4.9916,1.8793,-35.2837,-29.0354,-76.6224,-66.7273,-4.6299,6.6317,-1.5835,6.6475,-4.0108,-1.3391,
9.3425,-3.3469,8.3077,0.56103,-47.2667,-37.6578,-86.1251,-64.4111,3.1195,7.4388,2.6091,5.0436,-8.8321,1.3926,
22.0382,-7.7251,18.1734,6.5531,-58.5307,-25.9981,-95.0576,-62.2334,11.3687,9.6438,13.781,12.695,2.5444,13.6013,
13.0033,-14.0107,3.1034,3.7496,-40.9188,-24.438,-103.4541,-72.5994,-1.3647,4.7266,3.3129,5.6665,8.176,7.0004,
-1.5157,-18.7132,-3.5903,8.1044,-24.3637,-24.177,-96.6445,-80.8974,-1.5243,11.4329,0.46306,-1.6633,11.3009,6.3395,
2.4321,-16.6266,10.6045,12.4384,-23.625,-27.0647,-104.9458,-78.9356,12.065,10.7469,7.1837,-1.5635,11.1052,12.2261,
14.3371,-1.529,13.8243,16.9945,-20.7615,-36.0464,-112.7491,-77.5742,16.1611,5.2816,5.7886,3.3508,12.8488,12.4561,
12.2722,-4.691,3.1132,11.8777,-5.4158,-26.4116,-91.8841,-79.9094,8.2023,5.6879,1.8261,2.4266,12.3191,10.9861,
12.0176,-18.5095,7.7469,12.1291,-10.2728,-10.7269,-81.6708,-81.3815,7.7099,9.2028,7.9828,-1.5752,8.6877,16.5937,
10.0915,-13.6633,8.4871,14.0527,-23.7564,-17.6753,-90.8706,-85.8984,9.4167,4.5535,7.745,2.6165,3.1049,17.285,
9.9682,-13.8076,11.3521,14.1736,-31.1284,-29.6304,-99.5184,-89.9038,15.118,5.7263,12.1008,7.28,6.7748,21.0684,
16.1183,-14.4252,16.9377,21.0358,-34.5636,-26.8885,-107.6473,-91.7402,15.175,11.6495,16.6772,5.3971,9.7425,20.2865,
9.1261,-5.6055,4.1113,16.1586,-18.3897,-23.588,-109.0217,-90.3331,4.8649,5.8888,5.3127,3.3861,0.72232,9.1874,
0.38337,-6.7158,-2.4023,9.886,-16.2018,-17.8344,-88.983,-79.1285,3.6087,-0.2491,3.0657,5.593,2.1252,12.0101,
0.36014,-14.9898,0.63412,11.2213,-29.3297,-18.2103,-97.744,-82.0938,6.2845,-1.1982,8.6661,6.7035,6.8182,15.6281,
10.7031,-0.83376,6.6218,13.1993,-23.8338,-27.9638,-105.9794,-91.2682,7.5944,7.7915,7.9054,10.8813,5.686,12.5214,
12.4713,-0.30157,8.6349,13.8534,-36.5037,-23.3936,-107.3336,-93.1432,7.139,9.7344,5.9851,7.818,4.8627,13.6981,
-1.2927,-14.3835,-0.078138,13.5044,-48.4135,-11.8674,-104.2683,-85.6266,9.6025,0.47342,9.4821,1.0822,6.4989,17.2143,
-1.2151,-5.6872,-0.55538,19.9249,-31.4087,-22.2421,-112.1122,-87.7194,14.8114,2.3732,13.252,4.3917,4.1812,17.1462,
8.7402,0.67957,5.9859,22.8268,-30.6088,-19.7023,-117.5568,-87.0356,12.7179,10.185,6.9133,8.2256,-3.5415,15.8765,
5.8052,-9.4841,4.1805,14.2268,-42.8722,-4.4201,-119.18,-77.4751,10.9905,8.6096,-1.2143,3.8756,-7.1854,16.3697,
-0.086502,4.8235,0.31399,17.4703,-54.3999,-9.819,-124.8039,-73.5497,11.5361,5.4417,0.063605,0.99178,-7.9593,15.1468,
-4.1789,6.2211,-1.8742,19.0734,-37.0359,-23.3299,-128.1617,-75.6444,7.7107,6.3203,7.0494,-1.2371,-9.1692,18.3351,
-2.7233,-8.2522,-2.4847,17.6881,-33.9704,-12.651,-110.5901,-70.3829,7.489,8.5921,7.3494,-2.3677,-5.9675,22.7786,
5.8764,5.8608,3.2082,28.4371,-46.0321,-20.3279,-98.4108,-77.9703,11.6192,11.2103,2.8113,-7.2871,-5.3687,16.3505,
-4.1171,19.6091,3.4977,19.982,-57.3702,-33.2082,-106.6062,-87.3921,5.6194,4.7531,0.23202,-16.0089,-11.795,3.3183,
-10.3778,6.9839,3.529,16.6141,-39.828,-19.2846,-104.1867,-76.002,8.8979,7.1193,9.6183,-1.3098,-0.72325,12.519,
-8.791,-7.5351,-0.05741,23.3298,-41.6559,-27.2868,-94.5613,-59.3906,7.3999,3.7998,2.7745,0.69673,-4.0541,14.6602,
-2.238,-21.183,8.3822,26.5093,-53.2566,-19.6241,-87.6828,-69.9272,8.1607,1.8846,0.43885,-4.8887,-12.247,15.4678,
-1.3808,-6.1735,1.8532,21.7853,-56.2077,-14.3493,-75.9138,-79.8315,7.9121,0.083833,7.4019,-0.49802,-8.8611,14.2987,
-3.4672,8.2969,-12.358,15.417,-38.7352,-27.5883,-72.0824,-72.632,7.1964,-4.5005,6.2349,-0.7091,3.9631,7.4148,
-11.4541,-6.3009,-9.3264,13.0459,-30.0236,-40.033,-81.7365,-61.043,9.1749,-3.2664,0.55841,-9.3434,7.582,8.8983,
-23.3001,-20.0228,-1.0543,14.1911,-14.1222,-23.531,-80.207,-55.9344,8.1423,-2.5882,0.042741,-8.3007,-6.973,15.1131,
-15.3946,-26.414,-3.1602,14.5449,-22.7956,-23.9266,-61.2946,-54.2655,6.4485,-2.192,2.6913,2.0793,-17.2804,12.5191,
-3.8659,-10.7291,-6.8272,17.0465,-35.5279,-30.686,-57.9788,-63.0609,7.0256,2.2777,3.4939,2.9187,-2.1435,8.3937,
-10.1416,-12.8572,-8.5869,13.3724,-19.5374,-33.4243,-47.9919,-58.0722,5.881,-2.4381,3.5255,-4.2466,12.0851,7.167,
-11.4611,-3.4089,-6.1433,13.0522,-4.2651,-43.4702,-34.5073,-40.4879,8.9028,-8.0766,10.0626,-2.0634,9.9135,5.2909,
-4.9888,3.5445,-3.3646,13.2329,2.6192,-37.0054,-30.0268,-27.5738,15.5995,-0.36115,8.9769,0.95297,-4.1787,3.0453,
-0.59192,-4.1397,-2.4396,11.7163,16.562,-28.2773,-35.6967,-33.8729,12.4941,1.8299,0.96626,-1.2736,-9.4713,2.1394,
10.5306,6.2318,7.348,20.654,13.7606,-17.9038,-45.1243,-19.7892,4.5139,-6.4748,5.2468,3.6233,-1.1901,9.7241,
5.8012,8.5088,4.2558,14.3533,-1.165,-9.3578,-28.3169,-12.0946,2.5556,-11.6302,5.6552,3.6471,2.9785,12.2734,
-0.33125,1.2496,-6.1227,11.5642,13.0049,-22.8963,-12.5178,-24.866,11.5615,-2.7374,2.4236,1.9822,0.3894,6.2346,
2.8219,1.4158,-4.5502,16.8956,26.3246,-32.2481,-13.9357,-29.8818,8.6984,-1.8501,3.4832,1.1402,2.5354,5.6198,
-2.891,-3.2489,3.677,15.159,23.9015,-16.2132,-10.4485,-13.9889,-1.7054,-10.1747,5.4434,-2.5437,7.445,14.2002,
-9.2253,-6.1872,-0.1593,16.4189,18.852,-14.879,4.2784,-6.5216,-3.7725,-11.7336,-1.3909,-3.1142,8.6853,15.5176,
-7.7077,-1.4775,-4.0059,18.3256,28.3259,-16.8785,-10.0783,-20.2303,-1.1358,-7.6554,-4.1998,-7.2659,9.1283,7.8379,
-7.9681,-13.6811,0.81374,16.9855,12.5264,-10.3222,-23.5736,-27.3317,3.0297,-5.0264,1.5958,-17.194,2.555,6.1627,
-13.9975,-26.9602,-4.7782,14.7611,-2.3252,-23.8029,-16.9768,-18.2199,4.5352,-4.9658,2.2234,-15.439,0.71449,4.5877,
-11.4707,-29.5607,-1.8407,12.188,-9.4163,-36.4747,-25.8408,-24.1164,9.8064,-1.0527,2.3308,-7.0413,2.841,0.69678,
-6.9265,-27.787,3.09,10.9748,-3.5489,-24.8864,-38.3903,-34.239,15.0026,3.3488,5.0834,-3.7263,-1.6682,-0.30889,
-10.1259,-20.094,-9.8694,6.7008,10.764,-24.1162,-29.4587,-30.4975,11.9333,0.49677,5.0194,-0.85165,2.0473,-3.9058,
-15.5439,-14.791,-11.9283,2.6834,24.2182,-36.7692,-18.7731,-25.5341,6.1561,-6.041,3.5129,0.40474,9.3963,-4.8767,
-19.9139,-23.5446,-4.9461,3.9686,28.7909,-34.6835,-31.7467,-25.9303,9.1607,-7.1248,4.7484,-1.0658,4.4942,-2.6559,
-18.2371,-25.0244,-5.6137,4.2125,12.9634,-18.5025,-40.8085,-32.5696,11.9855,-2.8409,7.838,4.7827,-3.4883,2.8061,
-13.0455,-11.7123,-6.9636,5.6469,26.0446,-12.4514,-24.2599,-38.5687,-2.8336,-8.2136,4.7166,8.1112,-3.5199,9.1456,
-10.8168,-3.2968,-3.654,8.2004,38.582,-16.0429,-33.7711,-29.024,-7.1224,-9.1673,5.8796,2.3221,2.4756,15.8275,
-11.3726,-0.92986,-1.7475,8.4313,24.336,-16.7675,-45.8448,-27.0416,0.77676,-3.0736,6.2498,0.49554,-3.6985,8.8519,
-7.7982,2.0184,-2.1246,10.336,21.9119,-21.5458,-48.0351,-35.542,-0.7161,-0.96101,0.57213,7.2147,-14.5638,1.0904,
-5.6431,-6.0566,-2.2381,7.5467,34.3356,-10.3711,-52.6248,-35.0967,-1.396,0.30194,4.1532,6.0585,-8.6283,9.4606,
-10.8481,-17.0214,-5.7192,2.5141,27.2142,-4.2052,-63.5673,-35.6424,-0.10744,-3.8135,6.5556,-8.405,-4.4952,9.134,
-7.7866,-6.8413,-4.8941,3.8095,25.099,-18.0529,-73.3713,-41.2167,0.86333,-1.6565,5.1979,-7.0571,-7.5999,6.6577,
-6.8375,-4.0207,-7.0106,0.20651,31.7877,-31.0698,-55.9536,-44.0463,2.7397,-1.5571,2.9579,-0.36718,-11.9646,6.7402,
-11.4887,-11.733,-12.1333,-2.4567,21.9269,-26.7952,-66.6964,-44.5368,3.7804,-4.597,1.5753,-7.8167,-15.8258,3.203,
-8.63,-5.9676,-6.3439,-0.14041,6.5113,-24.9465,-76.7946,-49.3362,3.7948,-6.0081,2.2039,-13.373,-13.1893,1.3233,
-8.3534,-1.03,-8.6146,1.5555,-7.9793,-27.0652,-86.287,-43.2427,2.844,-7.817,4.723,-8.4735,-7.3365,1.9671,
-7.129,-5.0655,-13.1592,0.73901,-17.6235,-11.3413,-95.2097,-37.9969,5.3246,-2.7685,12.8755,0.95272,-4.7269,7.3929,
-5.0143,-6.4488,-10.2002,-4.8487,-30.6661,-4.9965,-103.5972,-49.817,3.3182,-2.8436,9.9336,3.0649,-12.8792,1.4055,
-4.9544,3.82,-8.3834,0.98537,-26.7777,-15.061,-111.4813,-51.5282,1.4314,-2.432,4.2759,6.0145,-11.8655,0.59825,
-8.9957,0.69853,-11.737,2.8547,-18.9043,-4.0342,-118.8924,-34.3366,-0.58245,-0.35766,4.5015,5.6534,-5.8511,7.311,
-5.8046,-0.066511,-8.3814,1.9603,-15.6006,10.3079,-125.8589,-29.2636,-3.1988,2.3151,7.8471,7.9655,-2.8487,10.97,
-3.7691,5.4811,-7.6376,4.0118,-16.352,-4.4106,-132.4074,-41.6078,-2.7659,-3.3679,5.2066,7.2466,-3.8831,6.2139,
-1.615,7.0806,-8.1434,8.5916,-14.8888,-18.246,-133.0193,-38.7499,2.7024,-6.54,4.4125,2.9552,-0.75781,9.6977,
-3.2053,8.825,-7.8958,8.317,-1.221,-3.0512,-139.1382,-41.968,1.3355,-3.4961,5.835,2.537,-0.95331,14.6595,
-5.4231,6.3673,-9.3502,2.5154,3.1906,11.2318,-142.9617,-53.5499,1.7373,-3.2868,5.9668,1.9028,2.4783,10.8874,
-5.098,-1.2458,-15.056,2.8466,0.10688,2.4835,-120.284,-42.9861,1.1509,-8.392,8.5011,-6.8882,6.1863,6.3775,
-5.0331,10.1571,-12.4654,6.2912,13.8388,16.4345,-111.9824,-37.7554,0.84085,-0.89858,17.3911,-1.8957,6.056,7.2002,
-4.7309,20.6351,-6.897,3.0215,22.6497,29.5484,-119.3634,-49.59,1.2726,3.4939,14.9011,2.5566,4.2462,7.7323,
-2.0367,16.9867,-11.3036,5.2505,19.8446,13.6755,-122.204,-47.4582,-1.2142,-7.3208,3.8844,-4.3454,7.3661,9.1967,
-5.5296,15.7267,-19.0609,1.8023,30.4641,8.3962,-104.9896,-36.6568,-4.2746,-13.8712,2.4462,-1.9153,10.0574,7.4399,
-6.6446,16.7109,-10.6868,-2.1627,38.7591,21.9924,-97.2444,-40.2424,-2.5723,-6.7729,7.6017,6.3943,5.5976,7.4754,
2.4314,21.0111,-3.7789,3.2699,23.9003,27.301,-105.5098,-41.684,-2.4177,-4.4381,5.2176,1.1902,-2.9332,5.5809,
4.2137,26.0169,-8.8548,2.5913,8.969,11.563,-113.2792,-51.2345,-4.2008,-8.0282,1.0481,-5.1482,-4.2035,1.8716,
-1.101,21.8046,-16.7594,2.677,20.2412,1.5895,-94.4311,-51.2937,-3.7076,-6.8234,0.26213,2.1508,4.0027,3.4463,
-4.6501,14.9529,-16.477,5.1677,33.1267,15.5941,-85.1498,-34.1161,-4.2083,-8.5833,-1.923,6.1189,4.4857,2.5164,
-2.6839,20.0813,-8.9804,5.0986,20.8953,15.9842,-90.8869,-27.3689,-2.2686,-6.8631,-1.5666,4.065,1.083,3.5707,
-5.4154,21.2866,-14.2266,3.3465,12.8931,0.92517,-76.7568,-38.2603,-2.1324,-2.5949,-0.026383,1.4105,3.4282,5.2846,
-6.5365,14.707,-15.301,-4.0849,26.2195,9.667,-74.5617,-35.4825,-2.4867,-1.4751,3.8314,0.36174,2.2584,3.5215,
-3.7339,11.8961,-8.5981,-3.3577,28.382,23.187,-84.188,-28.0511,-1.8553,1.0238,5.5299,3.7147,3.0874,3.31,
-8.5714,6.6028,-17.0005,0.45898,12.5791,8.4189,-80.7033,-36.2502,-3.4314,-1.689,0.13665,3.2506,6.5174,3.8345,
-7.5754,11.5095,-16.9446,2.8418,3.027,-6.1862,-61.7611,-35.5212,-0.81519,-3.5161,0.12823,0.64525,3.716,3.6042,
-0.37195,24.919,-5.8046,4.5995,-5.8315,0.57217,-65.4067,-30.4974,-1.2482,-1.8588,-0.84333,-4.6961,-7.1123,-0.46842,
-4.9291,22.58,-7.1437,2.6365,1.9902,14.6378,-68.472,-21.196,0.51368,1.3859,-2.4797,-1.2811,-2.5879,1.2471,
-8.7308,17.6098,-14.1865,0.7911,15.9708,0.62367,-50.2636,-20.6472,-0.72198,-3.2765,-3.5362,5.3037,-0.26351,2.3776,
0.95213,12.6968,-4.6586,1.2256,0.91255,-10.9831,-42.3069,-33.5083,-2.6069,-2.116,-4.7703,6.4318,-12.2988,-0.17564,
-1.9973,2.2942,1.8876,0.66987,1.5807,0.76307,-53.8685,-27.039,0.92378,10.5446,-2.0738,9.902,-5.2941,1.2814,
-15.9775,0.7101,-12.2052,-2.2626,15.5859,-9.4058,-36.5363,-11.3167,-1.542,7.5016,-3.3954,4.4874,4.1823,-1.6882,
-13.4521,5.4882,-11.4728,-1.1625,28.7507,-5.949,-20.2442,-4.9736,-1.9314,-3.5538,-2.7097,-1.084,1.0393,0.34171,
-5.6555,4.9179,-6.6871,2.5222,39.5591,0.43351,-15.0526,-16.4853,0.35363,-3.5815,-3.2705,1.6321,-3.1208,-0.88409,
-10.3774,3.4176,-14.2396,-1.726,30.6781,-13.6925,-28.2495,-19.1116,-4.2469,0.24879,-6.6892,3.2214,-4.1384,-9.7491,
-8.5499,2.4896,-6.8778,-5.2384,22.3295,1.2291,-32.2186,-3.8649,-4.7154,0.95676,-2.1905,4.233,1.6535,-6.0307,
-9.7242,0.65302,-3.3316,-2.2725,25.569,15.2553,-16.1855,10.467,-3.7091,-3.6799,-0.37185,1.8098,4.2054,1.321,
-12.7559,3.7471,-13.0134,1.9614,26.2043,0.23999,-1.1144,9.8392,-0.35333,-2.736,-1.0727,-0.94964,6.1224,0.03671,
-5.724,6.4148,-10.3049,3.7719,15.473,-11.8257,11.7269,-4.8511,1.5961,2.2484,0.91989,-0.89312,5.2732,-10.0889,
-7.3088,5.0656,-8.7223,-2.2394,28.6446,2.9838,4.7566,4.7192,-2.8385,3.5598,-2.5098,3.9812,1.5823,-11.4117,
-20.9703,4.0385,-22.2989,-13.915,34.7592,-3.8234,10.0146,18.5361,-8.2116,-2.1972,-11.7594,1.091,-1.6463,-8.0757,
-17.6631,4.5193,-17.4663,-7.0547,23.2739,-2.8709,6.2804,10.5547,-2.1755,1.5498,-3.5818,-0.17953,3.5144,-6.3861,
-6.7214,4.0072,-7.0183,-4.9438,20.1902,11.4014,-3.9783,0.039516,0.12467,3.6264,2.1767,0.072205,-1.7582,-11.0641,
-8.4871,12.6846,-16.4789,-11.6372,24.5226,-2.4186,-2.5343,14.1371,-2.0522,0.75754,-2.5334,4.6474,-5.7498,-10.6415,
-12.0752,7.8262,-29.5902,-15.0364,23.2922,10.5012,11.7177,23.2913,-4.5802,-2.9033,-0.69417,7.984,3.9952,-8.3158,
-11.5919,-5.4176,-28.6586,-7.1445,7.7947,23.9711,25.1147,7.7939,-0.20823,-3.9347,3.4451,3.4073,3.9962,-9.5043,
-12.825,6.4766,-22.1188,6.2996,-1.953,13.4938,9.5078,5.7595,3.1787,-0.32413,-0.13609,2.2386,-2.9925,-8.4521,
-19.2859,15.2466,-26.0944,-0.82732,12.2642,-1.4158,-5.1627,19.5139,-4.7248,1.1416,-3.5024,2.5867,3.936,-7.463,
-17.1646,0.23178,-26.4562,-7.044,25.6284,12.7692,9.2471,20.1508,-8.2974,-0.37294,-0.39995,1.4674,10.449,-6.0507,
-16.8581,-11.4713,-27.5204,-2.524,38.1907,26.103,22.7923,4.8417,-6.5948,-2.0378,-1.0989,-0.30791,5.7242,-6.8929,
-13.4361,3.317,-22.9771,-0.92674,37.225,23.6934,12.7476,18.6512,-3.789,4.8329,-1.0334,-2.2176,5.3807,-5.0331,
-5.64,17.218,-17.0187,-0.14777,43.91,8.1718,20.9008,29.1018,-7.1766,6.2306,-0.72995,-8.592,2.4068,-2.562,
-9.3992,7.267,-18.6489,-2.3078,33.3215,16.961,16.9955,22.2938,-1.6845,3.6874,2.929,-11.2102,1.0573,-6.0234,
-18.7174,-6.9075,-26.4478,-10.1233,17.2222,17.1484,1.8757,6.8561,6.8524,2.743,3.9588,-12.2246,1.7166,-16.5081,
-15.6664,-4.0832,-25.8251,-6.1417,11.7293,7.4427,0.67838,-3.7988,5.4772,4.0245,4.203,-9.5632,2.5777,-11.6614,
-14.4852,0.74132,-21.6242,-4.0862,25.1256,13.0219,14.7377,10.5291,-4.7336,0.64975,0.33562,-3.4456,3.1461,-2.0439,
-13.6159,9.8561,-22.2552,-3.3589,37.718,14.1685,20.7228,22.0691,-8.7881,-3.2458,-4.9874,-0.34653,4.8858,-2.8854,
-10.6295,12.398,-23.0888,-3.8805,33.286,14.0416,5.3794,13.2734,-4.1633,-5.22,-3.4826,-5.8691,5.3158,-3.4354,
-16.9819,-1.6025,-19.0522,-6.7809,21.8891,23.0812,4.2133,5.9693,-6.0829,-9.4863,-0.14041,-10.5784,3.7918,-4.4343,
-18.1321,-1.2654,-16.7042,-0.3485,34.6758,18.0809,17.2166,11.1548,-3.0663,-6.2661,-0.37295,-1.508,5.7334,-5.3731,
-17.0444,5.5592,-23.415,-3.7018,40.4285,2.8961,19.5581,3.7363,5.3121,-3.9617,-4.6891,1.9567,2.4971,-9.8716,
-16.7444,-2.7278,-21.2869,-4.6848,31.4951,-0.29046,7.5384,-5.8876,7.1628,-0.10879,0.17174,-3.2222,2.588,-9.5201,
-18.1503,-11.2413,-15.6714,2.8267,35.3895,13.827,10.9424,-3.1242,-0.49782,3.7541,4.9817,-1.5831,5.8072,-3.1643,
-19.9536,-6.2282,-17.6234,0.2472,27.9637,9.0205,3.0553,-0.044484,-2.3959,-1.2916,1.7905,1.8866,3.5304,-0.56408,
-11.7665,4.9917,-12.9501,1.4377,13.9938,5.8277,-11.228,-1.7286,1.3633,-9.1679,-1.9324,0.086187,3.56,-1.7355,
-9.8552,1.5587,-10.9683,2.0743,6.6462,4.7551,-14.7724,-8.6147,-2.334,-14.1614,-4.4675,-4.4983,3.5873,-1.3904,
-14.3254,1.7064,-19.228,-2.1477,0.22214,3.7467,0.21393,-18.9439,-3.8814,-13.0705,-2.5125,-4.9515,-5.5458,4.2368,
-13.9478,6.9067,-25.7871,-5.8748,1.1731,4.4862,-7.391,-26.9663,-1.7198,-7.948,-0.91545,-0.79803,-8.1055,2.5364,
-11.9063,-1.4617,-20.6247,-5.764,10.9845,10.7243,-20.6863,-20.2869,-4.2684,-0.96337,-1.5837,3.347,2.263,0.2148,
-5.4071,-1.8562,-12.1561,3.2592,0.20226,16.83,-18.9629,-11.839,-2.5658,3.9149,0.92172,5.0746,1.1631,5.9867,
-7.2516,3.799,-12.6318,-1.5159,-13.9099,4.0098,-31.9252,-23.9029,-0.72489,-1.8634,-0.33865,-0.29134,-12.6452,1.5299,
-11.8787,0.91954,-18.3819,-6.4866,-4.7601,-0.81052,-35.1918,-34.7613,1.0058,-2.4749,1.8508,3.3411,-13.0918,-0.73102,
-13.5763,-1.546,-25.9563,-3.2051,-3.9923,6.9511,-20.0651,-37.978,0.46332,-0.39847,0.77569,6.5153,-12.7885,-0.68739,
-10.3511,0.95736,-21.5059,-3.4947,-17.2501,14.7292,-28.9839,-35.6993,3.328,0.58977,0.72915,5.1605,-21.6617,-0.16376,
-10.6939,1.3819,-14.4314,-2.8031,-5.6098,6.6146,-41.2244,-40.7882,5.0566,-0.40948,3.5779,1.9584,-26.6289,0.80994,
-9.5706,4.1912,-13.5653,1.7036,5.3318,-7.8823,-38.269,-44.1253,4.7529,-3.7596,0.95288,-4.9078,-22.1389,2.2074,
-6.586,5.3858,-16.608,7.8681,-9.0881,-5.8428,-38.3832,-32.8009,6.3962,-4.0162,-1.0327,-3.6492,-18.8822,7.8597,
-13.9036,-2.1677,-24.7701,4.504,-22.6428,-0.18959,-46.685,-40.4738,6.0124,-3.7748,0.47551,4.2825,-26.4261,4.0142,
-17.1668,-2.2791,-25.4535,-0.82793,-19.3558,-13.4346,-40.7507,-52.1454,7.3389,0.06715,4.0624,3.7846,-23.1535,-0.80644,
-16.1368,0.26777,-19.588,-0.77871,-17.7125,-18.4133,-47.9468,-59.7426,3.5241,1.027,0.4442,-7.0478,-18.3899,-0.27612,
-10.5888,1.457,-10.9405,0.9557,-28.4599,-4.0519,-57.3621,-45.7938,7.41,8.9196,4.033,0.36495,-17.5274,6.7303,
-14.0511,-1.7637,-17.2741,-6.0917,-20.2451,-6.4601,-41.6283,-54.3746,2.8678,7.6608,2.5859,4.4406,-21.0553,1.2651,
-15.6186,1.7166,-23.4685,-2.3518,-4.9304,-8.965,-25.0306,-57.3786,1.25,7.6831,0.98451,3.2099,-16.8999,-0.25711,
-16.8504,-0.073399,-21.8192,-1.9695,-17.0471,-4.8115,-29.1926,-48.8742,4.3082,6.0175,0.20231,-1.5622,-21.9115,3.8559,
-9.5729,7.1614,-8.4585,3.4513,-24.219,-4.5228,-39.4924,-41.6034,6.4598,6.6203,3.5646,-0.022245,-22.525,5.5527,
-10.204,6.9724,-7.2283,3.0026,-14.8123,-12.2054,-37.8462,-52.8458,3.4209,6.4638,0.69943,-0.74404,-15.6299,-0.8062,
-14.653,-2.3635,-12.8202,-1.7568,-12.7183,-15.0887,-39.1906,-60.0391,2.9747,7.2813,-0.065439,-3.8329,-13.0049,-1.9631,
-11.1223,-1.0164,-16.6303,-3.3382,-8.8217,-12.014,-39.4905,-45.1084,1.109,9.496,0.66139,-6.254,-13.4299,-0.64004,
-8.527,0.49061,-15.1507,-3.6201,-7.8107,-10.811,-33.2647,-36.1353,1.5246,6.5159,0.62193,-8.2891,-11.178,-1.0838,
-5.364,2.6306,-8.6978,8.4075,-16.2599,-10.4033,-30.0635,-46.7414,6.4946,3.9555,5.1641,-6.1043,-6.4098,4.5251,
-6.9706,4.4007,-8.6581,11.7592,-11.9101,-8.3331,-26.3317,-53.096,2.7307,1.3078,8.7104,-9.1127,-4.0968,7.1454,
-8.2391,2.4494,-9.3435,2.1356,2.9045,-4.2175,-21.6184,-45.3307,-4.905,2.4347,4.5724,-11.2171,-6.0201,4.0656,
-4.8527,7.6051,-7.3371,8.274,9.5994,0.85585,-23.2138,-44.5393,-2.6825,7.5912,0.44167,-4.7595,-5.177,5.7498,
-6.4898,7.1488,-11.7171,8.2599,-1.0994,-5.9442,-35.9209,-55.9669,-0.11139,2.7974,-0.066767,-4.4739,-7.7586,5.4048,
-6.8235,1.6584,-14.6293,0.77467,-7.5412,-10.649,-47.8657,-58.0318,-0.82783,1.4245,0.66037,-1.0722,-6.5702,2.9116,
-6.1727,-1.0922,-13.5105,0.48723,-0.098844,-4.9486,-55.8396,-48.5241,-1.5011,6.4003,-1.0665,6.4639,-1.5963,4.9061,
-4.1153,3.0705,-8.1209,6.4833,1.5941,-5.857,-51.7663,-51.6387,0.276,6.7394,-0.27936,4.3891,-1.7419,9.6732,
-3.8684,5.7783,-8.5975,10.915,-4.2861,-14.1824,-61.6757,-55.771,0.25944,4.4068,-0.2626,-1.1769,-5.0116,9.0928,
-5.8057,-0.11178,-13.1431,6.6445,-1.3777,-22.2493,-60.6265,-57.0042,0.967,5.8294,-0.96997,1.0631,0.35052,8.306,
-4.0111,-0.10507,-10.9087,4.8,-0.33112,-22.3606,-50.7222,-59.8505,-0.53728,6.9259,-1.3937,6.3015,4.6683,8.772,
-1.601,9.7834,-4.7103,7.1633,-10.193,-17.8855,-61.7788,-59.393,-2.192,6.2696,-1.0693,10.021,0.77252,7.5225,
-4.3975,9.6783,-2.9814,7.6974,-9.0994,-27.8996,-72.1721,-69.3267,-0.61426,4.9291,-1.4871,11.3479,-1.684,7.0712,
-6.3028,-0.30237,-9.7924,8.9228,1.3285,-40.3256,-65.6726,-79.2671,-0.81837,1.0179,-2.1208,5.6054,-2.306,7.3698,
-5.6839,-3.4175,-12.8205,6.218,3.4181,-52.0061,-48.9578,-76.801,1.3997,3.1263,-0.78848,1.6539,2.4116,10.5433,
-8.4761,-1.525,-10.8458,5.1223,4.9,-48.8857,-57.3485,-70.5055,2.0388,5.59,-1.4643,3.724,8.7751,8.7056,
-7.0034,-3.3619,-12.6054,5.7786,10.8728,-59.4501,-56.318,-73.9881,0.95239,3.8081,-2.3405,4.9466,6.8021,5.7729,
-5.6189,-3.6421,-15.2235,3.5041,5.8821,-69.9831,-52.9387,-79.1898,0.89525,1.6519,-0.27192,0.3115,-0.35472,8.801,
-2.1485,4.5299,-10.6945,8.8373,-1.9429,-67.8328,-63.8624,-79.5001,2.0466,1.7935,-1.4607,-1.8766,-2.5026,10.9243,
-0.33261,5.9456,-3.0631,8.5478,3.7175,-61.5937,-69.5513,-81.7197,2.6469,4.3372,-2.0962,-1.0409,4.1553,9.0633,
-2.4816,2.9375,-6.495,3.4558,9.0379,-67.2978,-51.2782,-86.6985,1.283,4.8001,-0.76532,-1.7015,8.0035,7.7968,
-2.3331,7.5815,-16.2282,6.1405,8.9775,-65.1884,-36.5119,-84.3891,1.2061,4.0297,-0.7194,-0.15364,3.1845,7.8109,
-4.6033,1.824,-18.147,3.8439,-0.23821,-65.1335,-42.034,-80.2901,1.1337,4.7523,-1.1586,-1.1083,-3.7554,4.9317,
-10.5936,-9.8542,-16.5758,1.2032,-9.8644,-75.2048,-48.1886,-78.8467,1.0657,4.4671,1.3215,-0.077468,-1.1195,4.1543,
-9.958,-7.8171,-16.0632,4.9874,-10.7188,-75.513,-40.9589,-79.4183,4.3762,4.1991,6.5448,4.2655,7.6247,10.1716,
-11.2887,-5.9018,-20.8845,4.2057,-9.5938,-71.4646,-38.0197,-82.3664,0.73917,-0.87355,0.84949,-6.1138,2.3463,5.2225,
-10.6114,-3.1376,-19.6314,5.8816,3.5149,-63.3203,-45.3795,-76.4603,-2.1977,3.9996,-1.1297,-5.265,-1.1689,2.0166,
-11.9031,-5.8416,-18.9357,2.6364,3.7866,-58.0748,-46.5129,-74.2828,-0.13742,5.2056,-0.57973,-0.61012,-0.61639,4.306,
-12.1528,-6.455,-15.8709,7.2989,1.1488,-50.2518,-29.6221,-72.236,3.7272,1.0369,0.41893,-8.7687,4.7232,8.8683,
-10.9417,-2.2113,-12.9904,11.6817,5.9006,-44.8263,-13.9857,-70.7941,-0.3528,-2.3998,-0.088144,-13.063,8.7782,8.8182,
-4.0185,4.1877,-8.3548,10.9806,4.5825,-36.8343,-20.3777,-65.1005,0.63246,-0.32735,-1.047,-5.0484,7.2872,11.1814,
-2.3311,3.4549,-10.7456,7.9116,8.6459,-31.7318,-15.7803,-60.2301,3.969,0.17422,-4.8405,-5.7094,6.3682,11.9568,
-4.3606,-0.36802,-10.3421,6.7138,22.2271,-28.1409,-7.8439,-58.7857,2.0434,1.8512,-2.8631,-7.5362,8.6372,11.9625,
-7.4732,-1.792,-5.383,8.2394,9.445,-27.8984,-21.4732,-59.5969,-2.8993,5.5963,-2.6911,-3.2274,1.8525,7.3886,
-10.8814,-4.5767,-8.9166,2.4421,-5.2217,-25.2604,-32.5976,-55.5391,0.16653,10.081,-7.3501,0.82238,1.7411,1.6424,
-10.7102,-7.6768,-16.5761,-0.59668,0.99647,-20.8525,-16.5417,-52.6887,5.4594,5.62,-7.8732,0.29088,5.0113,1.5441,
-9.8267,-4.0827,-17.7507,5.9471,-0.26816,-20.3243,-15.4285,-51.6965,1.9988,2.1493,-5.7136,-1.4133,0.61328,2.1743,
-10.6833,-3.3558,-8.9729,4.6259,-7.001,-14.2843,-20.7696,-42.3282,-0.53169,5.8767,-2.4787,1.0816,1.0584,4.9364,
-7.1498,-6.0465,-7.4707,5.3127,7.3988,-7.6427,-8.4364,-33.0399,-0.017857,5.5241,1.0445,6.3193,8.2255,10.4248,
-5.034,-3.5146,-12.566,12.4657,18.765,-8.8713,-6.243,-35.1548,-0.73969,2.5416,1.2228,6.1811,9.4194,10.5222,
-8.5882,-3.7859,-10.848,9.3074,4.6235,-10.7494,-18.8838,-36.9019,0.75073,3.8351,-2.2248,-0.9384,10.7822,6.9986,
-10.242,-11.5125,-10.92,6.0974,-0.71515,-10.3454,-21.8481,-35.8931,3.3568,0.47153,1.5241,-4.4975,14.2327,2.9632,
-12.761,-15.4015,-10.0238,3.5624,4.8709,-16.7146,-23.1886,-43.6217,6.7708,-6.5466,10.3503,-6.8792,10.7276,0.13389,
-17.2982,-13.0313,-7.9764,2.3846,4.5789,-20.5324,-21.7975,-45.3429,6.8467,-7.1179,9.7295,-9.8409,9.6018,-0.3563,
-16.742,-8.3928,-10.872,3.2056,-0.51633,-9.1771,-14.2227,-31.0527,2.0974,-1.388,6.7353,-4.9117,12.8823,1.5935,
-12.1221,-7.1659,-12.8712,0.8441,5.0583,0.77352,-14.5746,-21.718,0.28428,0.38253,4.644,0.92663,11.8679,3.1851,
-6.8155,2.1816,-6.5554,3.9269,17.0468,6.7527,-16.3515,-22.1021,-0.45567,0.11815,-1.6602,5.4503,10.433,4.1993,
-5.6834,9.0409,-6.8847,2.0043,8.0705,12.8554,-19.9497,-22.9449,-1.6334,2.2804,-8.0683,6.8108,8.6019,4.6705,
-10.6448,6.088,-16.5952,0.43758,-0.12673,12.0839,-16.8245,-21.5685,1.3569,3.5901,-6.6201,1.5812,9.0499,1.498,
-10.0059,7.6512,-17.5275,4.2679,13.9809,13.7694,-12.9225,-15.4537,8.5066,3.3745,-1.8843,1.4865,9.9534,5.7466,
-10.8518,6.2278,-18.8859,-2.2551,13.5035,13.425,-26.2471,-13.0804,5.1036,3.172,-4.6638,5.2537,3.5712,4.9194,
-10.6831,5.8537,-21.1277,-2.1198,2.5704,15.0296,-33.2292,-11.8139,-1.9515,4.9099,-2.9377,6.8667,4.3207,0.28595,
-4.9807,6.226,-15.2801,1.1406,9.8877,14.369,-17.1354,-13.7561,-0.62933,0.03577,1.3361,1.8752,9.6053,3.884,
-1.5483,8.5036,-8.8196,4.2057,10.4998,15.676,-4.1764,-8.3513,4.4701,-3.0999,0.050676,3.4499,8.7881,7.7488,
-4.3477,7.9936,-11.6651,7.81,5.5312,17.6278,-18.0259,-0.61934,4.2017,0.46081,-2.8447,6.6171,8.2605,5.3554,
-6.497,2.2113,-10.9648,7.8233,9.5381,14.16,-17.3058,-0.58218,3.4676,0.9151,-0.74578,3.81,10.6574,6.9623,
-9.2407,-2.5011,-8.6201,9.0411,8.2425,11.6231,-12.1701,-8.0191,0.60803,-4.6834,0.50426,1.4122,10.259,8.2318,
-9.6501,-2.833,-10.995,8.0167,14.0149,18.1566,-11.4396,-8.0198,-2.8024,-4.8844,1.4383,4.22,14.4641,5.8097,
-1.8402,2.6396,-9.3714,3.1969,18.4762,21.4058,-8.8251,-3.2003,-3.1162,-2.1812,-0.57662,5.8945,11.1857,1.6047,
5.2598,13.3278,-2.7833,3.7287,8.4502,18.4344,-15.7674,3.4996,-1.2423,0.1191,-1.2647,3.8539,3.5254,4.1597,
-0.35864,9.6353,-2.6166,4.4686,6.9787,23.1127,-16.7497,6.6639,-2.1318,-3.7447,0.73915,1.2123,6.2057,7.2844,
-6.1217,1.3445,-8.2442,7.0926,20.66,30.4026,-5.6219,5.7819,-2.0039,-7.3764,0.6948,3.0677,8.7254,5.883,
-6.4771,-0.42321,-9.9184,4.0162,13.2743,23.0353,-4.079,4.7121,2.2139,-0.42608,-0.55195,5.535,4.5871,4.8073,
-8.499,-5.2185,-4.985,1.3651,-1.6221,9.1197,-9.1369,-0.39114,2.0811,2.9739,2.3737,1.8289,3.8295,6.929,
-12.0867,-14.3054,-4.4447,6.8265,-11.2863,0.13658,-15.0964,-5.4294,-1.1775,-8.0508,4.8821,-3.8249,6.733,6.7545,
-11.6024,-12.242,-5.8653,8.1042,-11.3324,-0.59474,-16.842,-4.3805,6.8473,-8.2908,6.7584,-1.9082,8.0163,3.6977,
-9.2191,-1.1432,-5.7543,5.9307,-11.3754,4.9846,-18.0006,-0.020281,7.6418,0.16081,6.1119,2.3039,3.9199,0.82471,
-13.2452,-2.2799,-9.0245,1.9594,-8.5237,-1.8222,-19.5719,1.1862,1.1573,-3.9467,6.4685,3.8529,-0.41269,-0.912,
-15.3428,-8.8918,-9.9295,-0.086552,-1.2636,-15.8129,-13.0952,-1.2955,3.0163,-4.674,10.9009,5.0677,3.9506,0.58875,
-14.1815,-10.0453,-12.467,-0.3221,3.8737,-28.9641,-12.5504,-8.6894,1.6302,-1.7422,10.0057,4.0405,4.4367,-3.5437,
-14.5354,-11.6117,-11.4775,-2.4719,1.9545,-26.021,-18.3049,-11.3013,4.6654,-0.9143,9.1644,4.0391,3.9295,-4.0544,
-14.3867,-10.6743,-7.1739,5.1482,-1.2963,-16.024,-18.894,-4.1157,8.9653,3.2379,4.5171,2.5919,4.8986,2.2144,
-14.2461,-4.0078,-10.3587,4.5981,-5.798,-4.6983,-16.5551,-3.1454,-0.97289,2.3205,-1.7797,-1.6612,6.2921,2.3227,
-9.5352,2.4989,-13.5933,-3.8727,1.2985,3.7783,-18.9362,-4.4029,-6.2169,-4.0855,1.7018,-4.4538,7.8426,-0.22701,
-7.5168,0.90275,-18.5628,-7.9787,15.3206,8.3721,-27.9232,-4.6209,-4.3977,-6.2505,-2.2572,-4.6685,4.48,-3.5878,
-9.2352,-1.3203,-16.2437,-7.2588,18.3783,12.9315,-26.9707,-2.1743,-0.036213,-0.33205,-1.8805,2.6012,5.4162,0.24308,
-11.3322,-2.4464,-13.0999,-6.1003,3.1756,4.2016,-27.5219,-2.285,-2.6856,-1.5174,0.88339,2.6861,3.886,0.46946,
-7.0371,0.35169,-13.519,-4.5293,6.9619,2.2625,-28.5216,2.9138,-4.2115,2.1893,-2.7848,3.73,2.4477,0.20055,
-3.9635,1.5357,-13.431,-3.5344,10.6418,4.7779,-30.426,3.4618,-4.2,5.6731,-7.1972,5.1932,-0.35044,-0.052675,
-2.0385,8.9153,-11.4198,3.6676,-1.8069,0.39383,-30.2874,0.60303,-1.7788,2.6816,-3.6319,6.5693,-0.08845,1.1558,
-2.6391,9.5857,-15.3142,1.7603,-0.49362,1.5753,-27.7471,4.1823,-2.8774,-1.0947,-3.173,3.5236,2.5684,4.2195,
-4.168,3.4669,-14.6365,-0.032555,13.636,9.4345,-26.3234,8.0287,-3.9096,0.17628,-2.7417,3.0712,5.5473,7.0998,
-9.2208,1.3305,-11.8301,2.8617,13.9026,5.4942,-34.8669,4.1725,-3.6752,-1.2808,-2.095,4.333,2.3222,2.8172,
-8.9083,1.9738,-11.8434,3.4131,2.7044,0.58503,-37.3547,2.7171,-1.2853,-0.96274,-2.2105,3.3499,0.97781,1.925,
-5.9639,1.3732,-14.5071,6.1006,3.0238,5.8523,-33.1852,8.8206,-2.1723,2.9512,-1.1138,0.73852,4.2934,4.7018,
-8.2571,-0.39595,-15.8058,2.1192,7.4221,8.1528,-36.7375,5.1583,-4.2111,3.9794,-1.7699,-0.99256,3.3129,2.7329,
-5.3513,7.3404,-12.4473,0.54598,7.9409,12.0019,-37.4255,-0.45406,-2.0305,4.2228,-3.5921,-0.93324,1.6681,2.5687,
3.6464,14.6127,-8.326,8.7079,11.3208,19.4767,-32.2877,8.2503,-2.3906,3.9694,-1.9303,-0.39531,4.942,6.7529,
8.9717,11.0848,-2.7648,11.3189,13.7751,20.4773,-32.5196,16.1912,-0.55993,0.59801,-2.5376,0.8337,13.0816,10.4451,
4.8176,7.2864,-2.358,7.5064,15.5998,18.5256,-39.0044,10.6401,-0.28525,-4.4994,-7.4469,0.5426,11.5734,9.5775,
1.3954,10.9464,-9.6885,2.4762,17.3148,16.6909,-42.6898,5.9042,-1.9555,-2.0602,-6.2771,2.1974,3.8895,5.8693,
-0.13457,9.3258,-10.071,-2.0102,9.5274,14.2436,-50.7333,9.8887,-5.2121,2.4017,-3.4899,3.0299,-0.20025,-0.74892,
-3.9829,7.32,-8.0207,-0.44383,5.0994,16.281,-55.4023,11.2234,-5.3818,1.2938,-1.8347,2.8476,1.258,-0.70445,
-12.4206,11.7015,-10.9137,-0.4172,14.9163,20.6068,-50.1499,4.7654,-2.1664,-0.71205,-2.2065,4.123,0.70015,1.7484,
-16.2551,14.1324,-11.4642,1.2951,20.5293,22.5037,-54.6127,1.3462,-4.206,1.9818,-3.2794,5.5629,-0.064758,0.92014,
-14.3159,6.5356,-8.8482,-0.22891,14.4768,23.0816,-61.4593,4.6397,-7.3281,3.7911,-2.1183,-0.55549,3.3131,-1.0633,
-6.949,8.3131,-4.2197,1.4721,19.6338,24.8302,-61.387,7.0126,-0.38048,1.3944,1.6242,-2.2094,4.802,3.0979,
-12.7988,9.7422,-7.341,5.2403,21.8304,15.6274,-63.4883,2.2535,2.5346,-4.474,-1.3656,-5.451,5.478,2.4303,
-19.2617,-2.8934,-9.3109,5.4079,16.6642,10.3515,-57.2687,2.6002,2.8645,-6.6157,0.16263,-11.3907,11.8978,2.7664,
-14.0084,-9.2275,-12.3674,4.3603,20.7258,14.3099,-53.1094,5.5777,1.0056,-7.4239,2.3218,-9.9842,9.4969,2.3592,
-11.9629,-6.5049,-17.6511,0.48299,22.6155,2.605,-57.3949,3.0737,-0.25977,-4.3271,0.97743,-5.2878,5.3114,0.53069,
-13.6552,-7.0785,-16.5921,1.4183,14.5097,-11.6513,-53.4693,1.9251,-0.24419,-2.6217,0.91878,-5.4526,7.8853,1.9447,
-8.9797,-4.2434,-12.2221,6.6357,12.1931,-17.5804,-46.4045,5.666,0.25263,-1.4998,0.38149,-2.7149,5.4837,2.3101,
-5.5482,1.3136,-9.5606,-0.028766,18.2102,-11.7051,-48.9226,4.362,0.71917,2.4463,-0.1231,-2.0703,-3.0398,-1.2027,
-4.9748,4.3683,-9.7101,-1.7143,26.9995,-12.2078,-44.7825,5.7875,-0.52881,3.9868,0.60719,-0.74079,1.24,1.5206,
-9.9785,-1.1965,-16.3581,-1.1295,15.2566,-9.065,-42.0953,6.4043,-3.3896,2.3013,-3.7676,4.6063,7.4321,2.8756,
-14.4415,-5.222,-15.6178,-3.7133,0.24122,-6.8341,-50.4158,0.95839,-1.9809,3.3685,-5.2287,10.3555,4.3351,0.051957,
-11.4058,-1.7757,-11.0653,-2.2852,9.506,-7.6291,-50.0422,-1.2683,-5.4775,0.51486,-1.2996,6.1187,-0.022851,-3.0846,
-2.7675,3.8747,-4.8578,4.8416,23.0357,-3.074,-33.3011,5.7977,-6.8361,-1.685,0.46538,2.6183,8.8968,4.0901,
-4.5299,3.642,-5.0485,9.3716,28.0408,-4.3358,-31.3033,9.7882,-4.9799,-1.1022,-0.52664,3.4253,13.6654,7.2189,
-12.2118,-1.6378,-7.8788,5.1939,22.7429,-7.6909,-43.5251,5.1035,-7.3324,-6.0975,0.71025,2.4965,9.2301,2.2065,
-7.1403,-3.4677,-0.17524,7.2928,26.199,-2.4087,-40.0695,5.2795,-0.62549,-5.7314,3.0778,-0.54539,9.6406,5.4485,
-6.471,-6.875,-2.816,12.3989,24.8681,-3.9514,-33.086,3.7574,5.9195,-1.7721,1.2059,-7.9845,6.893,6.3269,
-10.1803,-7.1857,-7.2264,10.4499,24.0991,-4.9196,-34.2341,4.7372,8.6981,3.3957,6.6774,-1.9618,9.6127,7.6343,
-11.2565,-8.9239,-7.034,1.387,17.5917,-0.044938,-42.5444,1.8017,5.0425,0.058452,1.6972,2.7352,5.9022,3.5611,
-4.3148,-5.9781,-6.6119,2.2678,17.5003,10.0809,-38.0636,2.1755,2.3296,-2.3552,-5.6357,2.5713,3.1382,1.9009,
-2.8508,-4.8963,-9.3487,4.3007,26.332,11.1628,-26.8619,6.1423,0.50279,-1.9731,0.72822,5.5503,10.9034,4.4382,
-5.8128,-6.7717,-10.4748,5.7299,28.8499,6.8781,-26.9372,10.8355,-2.1787,0.79681,2.8537,9.797,11.9369,7.3054,
-4.741,-6.1245,-11.5336,2.7347,19.1648,2.8499,-32.3107,8.9802,-2.2891,6.2927,-1.8972,9.4498,3.7485,6.6257,
-8.3128,-11.0596,-18.0723,-0.80376,3.9149,-2.6237,-39.0491,-4.092,-3.5979,3.5047,2.0732,5.5085,1.5955,0.44372,
-16.0092,-18.591,-21.3266,3.1011,0.42617,-6.8048,-44.9011,-5.2927,2.8848,1.8484,9.1794,4.2139,7.2841,-1.0289,
-23.4846,-29.2859,-20.7701,-3.1105,1.1235,-15.7965,-45.3402,-2.3239,4.8808,3.9066,4.0493,-0.61823,1.3035,-4.5826,
-22.5574,-27.5285,-14.7034,-4.8521,2.5023,-13.4025,-35.389,-3.6305,0.73159,3.1903,0.43192,0.86467,-4.5593,-6.2359,
-18.7936,-17.1999,-11.8928,-0.22265,5.2447,0.89904,-32.3016,-5.3408,2.134,1.5526,2.3342,6.1154,-1.8752,-4.8978,
-11.6405,-6.7679,-5.6356,4.8522,8.5452,11.6914,-31.5685,-0.92302,4.6572,2.1826,0.50715,3.0972,1.3706,-0.50638,
-3.711,2.7972,0.0051833,6.9714,14.7817,16.2925,-23.8896,8.2916,0.039257,4.462,-0.0049818,-3.3549,-0.15766,3.3806,
-1.3192,7.2087,-2.1645,3.902,21.3661,20.3764,-19.3232,13.8194,-2.1325,1.5427,0.71822,-1.9488,-3.7636,4.3826,
-1.2402,5.812,-10.2296,-0.18873,16.7099,18.1897,-19.1279,5.7597,-4.4147,-0.95973,-1.7352,2.0247,-4.5019,-0.21843,
1.2445,1.6072,-12.5079,-5.9618,11.3692,12.2779,-15.0877,-0.85243,-4.6315,2.954,-1.6309,0.45723,0.10676,-0.68749,
-0.99953,-0.65866,-10.0704,-6.3276,14.3023,12.7463,-16.834,4.7421,-2.1849,5.91,-1.7742,1.6349,2.2693,2.969,
-3.3497,2.7553,-10.9122,2.2472,15.3723,17.2841,-16.7878,6.8679,-0.12538,5.5559,-2.6316,7.3213,0.20494,2.7913,
-3.6309,0.66203,-13.1498,0.66633,6.255,13.3548,-10.9601,3.0814,1.3282,3.2941,-0.54578,4.4717,-2.6997,-0.26895,
-7.028,-2.0292,-14.5299,-3.9529,0.33613,10.8663,-11.0256,6.03,-0.92068,4.3018,1.6561,0.58799,-3.7425,-2.422,
-8.0526,-0.46123,-12.694,-3.7158,1.7622,15.0348,-11.8101,7.1142,-2.7936,5.9718,2.0387,2.9633,1.3023,-1.7943,
-3.954,1.7356,-7.3531,0.60454,4.3076,14.3737,-6.04,8.3746,0.98941,1.0338,4.0855,4.4723,6.7678,1.4464,
-3.476,2.3546,-5.7066,5.1478,9.111,11.8243,-5.4367,9.0772,0.20691,-2.6437,4.0816,2.5169,5.6386,1.6008,
-5.6778,1.7314,-4.8823,0.50013,9.5282,16.4172,-6.5567,4.194,-0.76937,0.88918,3.8367,2.8478,3.3721,1.9867,
-6.542,1.8682,-8.6869,-1.2169,2.9308,18.0835,-6.4043,0.32695,-0.9644,0.59509,2.4014,1.4719,4.3748,0.66245,
-6.3904,2.9614,-13.2272,2.9535,6.3703,15.7934,-6.7429,5.369,-0.66557,-4.5023,2.0164,2.1065,3.8714,-2.0289,
-6.4894,2.7838,-13.3976,-1.0801,10.8088,18.702,-9.2309,7.9392,-0.62564,-2.7859,4.3055,0.53385,2.1928,-3.8353,
-4.8947,7.196,-15.727,-2.2206,7.5088,27.9442,-10.8462,6.7397,0.61719,-0.93152,3.3243,-2.1493,4.2309,-2.8818,
-5.8063,9.4158,-14.5425,-2.8103,5.8534,25.0622,-6.58,6.5763,2.2674,-4.0091,0.47328,-3.7075,2.2898,-1.986,
-8.1093,4.7533,-8.1263,-5.7749,11.5275,16.5689,-5.9442,5.4586,0.44389,-2.5635,-1.2421,-1.3157,-1.4633,-4.5182,
-7.8635,0.85289,-8.3616,-7.1154,13.4876,21.6005,-15.9514,2.9621,-1.7517,2.1698,-1.8907,2.8608,-0.65233,-4.0059,
-1.1251,7.0682,-5.932,-3.3145,7.3757,28.4992,-19.3329,6.1586,0.28162,2.0396,-1.7773,5.0993,-2.5414,-1.3554,
2.3168,13.875,-7.9862,-2.1513,10.7896,26.7892,-7.5679,12.0558,-0.69961,1.9173,-3.1169,6.7215,-6.2453,-2.7204,
-6.9812,3.4015,-18.5942,-10.6993,15.4444,20.3614,-1.8111,9.4043,-3.0678,2.7665,-2.4479,7.2826,-4.4243,-1.5928,
-8.7315,-0.90016,-13.8631,-4.5135,8.4924,19.3809,-4.836,6.6709,0.24957,-0.050767,4.689,5.1582,1.8669,4.0461,
-6.2792,1.082,-7.7287,-1.8326,-3.5863,19.1822,-9.8482,3.8603,-1.6936,-10.653,2.4795,0.028416,-3.0658,-2.4631,
-2.0461,0.53519,-5.3368,-5.579,2.4135,28.1541,-2.9906,7.9672,-1.1101,-7.1213,1.3664,4.847,-1.9175,-3.7616,
-0.47726,-0.46102,-5.9809,1.022,10.4631,29.3572,-1.3651,7.007,-0.079352,0.53658,2.7304,5.5202,3.0175,0.80264,
-3.5821,-0.19239,-10.2013,1.2021,5.2561,16.7497,-5.8627,-0.88522,-0.31556,-3.593,1.8437,-0.35458,2.1136,0.51351,
-1.4392,-0.18108,-10.5536,-3.2086,3.9766,19.6009,-4.5471,3.9884,0.18554,-5.3058,-0.67726,-0.81547,0.54075,-3.3739,
1.2989,1.5172,-8.2329,0.11722,13.6202,27.3431,0.78763,17.4876,0.89754,-0.88989,-1.3598,-0.043414,1.7134,0.9261,
-1.6713,0.94404,-8.703,-2.3002,20.0336,19.9177,2.6686,14.5102,2.2897,-0.35433,-2.7242,-3.415,2.0927,4.7272,
-2.2942,4.985,-8.4221,-0.9571,19.0727,21.8559,0.82123,9.06,1.4292,2.3183,-1.8376,0.40506,2.2079,2.7561,
-1.9155,9.2652,-10.5681,-1.6226,12.8667,28.9805,-3.8076,12.1316,-1.79,2.4201,-1.0045,3.0323,-1.0576,-1.0247,
-2.7647,10.1558,-8.9696,-3.9356,10.1667,25.7956,-2.1328,12.3681,0.72772,1.3108,-0.94396,0.92241,0.45189,-0.48107,
-5.9735,7.618,-7.9495,-3.6992,5.2182,18.9452,0.40525,7.2874,1.1662,1.7139,-1.3695,-2.0257,0.42454,-0.93437,
-8.0252,4.2684,-8.4367,-4.4416,-3.772,15.3982,0.38093,4.4398,0.61431,2.0934,-0.80539,-0.45789,-1.5291,-2.3246,
-3.2049,4.0127,-6.9661,-1.2826,-1.1351,13.9926,-2.052,5.6199,1.0594,1.004,-1.239,4.8722,-0.47305,-1.2208,
-1.0849,1.8433,-2.6922,-0.24175,9.0554,17.0092,-1.9292,7.2105,0.99583,-0.98493,-1.1647,5.5438,1.4835,0.78067,
-6.563,1.0098,-0.36131,-2.8783,7.7892,18.158,-3.0185,3.6448,0.21318,-1.1668,-0.37188,0.63185,0.18922,-3.8455,
-7.1333,6.734,-3.2317,-1.2596,7.3221,19.4789,-4.7653,5.8365,-0.28178,0.3497,0.1326,-0.37015,0.66003,-1.2044,
-2.8489,9.2221,-4.9662,-2.6303,13.6312,20.7203,-0.14109,13.681,-1.2292,3.2208,-1.8036,3.9904,3.9949,7.0626,
0.69626,8.1866,-3.222,-1.9903,18.1162,20.4412,5.652,15.2705,-2.6015,3.5097,-2.1775,5.1974,2.3092,5.1924,
-1.7556,5.2853,-1.1005,-0.42463,20.8856,20.6607,5.7948,8.5695,-0.51719,-0.55727,0.84567,-0.41705,2.1706,2.9526,
-6.2301,1.8347,-3.2038,-1.6044,17.9453,17.7338,2.3138,7.3322,-0.72713,-1.2472,2.9641,-3.5255,3.2452,5.427,
-5.1331,1.4838,-9.0369,-1.267,11.8071,16.911,-5.2968,13.8823,-3.3348,1.479,-0.34701,1.7479,-0.56469,1.4862,
-3.1379,0.18951,-8.7361,-0.46806,10.3753,19.0294,-7.6305,12.326,2.4089,1.1493,-2.4958,3.3298,-0.28985,-1.2545,
-5.119,-1.9912,-6.5245,0.76508,13.8504,13.7905,-6.4494,3.6327,3.9513,-6.8737,-1.1405,-5.3059,-0.51365,0.025814,
-6.0169,2.708,-4.928,0.47821,17.1167,16.5785,-3.8932,2.6916,-0.38309,-1.8815,2.5433,-3.7822,0.72246,-3.5912,
-10.7174,-3.4798,-10.6578,-6.0577,4.2798,18.717,-8.7211,2.7713,-1.0828,3.2928,-1.7069,-0.90397,-5.3462,-9.8829,
-10.7975,-6.8867,-12.6697,-3.0434,-4.4129,15.4248,-10.8491,8.1487,5.9718,2.8541,-2.8095,-1.0909,-9.123,-5.1928,
-6.0523,-6.7147,-6.8483,-2.6196,-0.53292,9.9196,-3.2086,7.4183,4.8899,1.4778,0.97424,-4.1587,-7.371,-1.2661,
-6.412,-11.3732,0.070546,-1.2574,1.1861,5.7092,-0.84665,-0.016192,3.8739,0.18403,1.157,-2.2222,-7.1695,-1.4308,
-11.33,-14.5475,-3.7901,-1.6641,-5.6338,1.0281,-11.4011,-3.3897,8.9439,0.65515,0.6054,1.2858,-8.6678,-3.7554,
-11.6143,-8.372,-11.2754,-6.3845,-6.2596,2.4127,-13.6094,-2.2222,6.479,0.13345,2.4973,-1.2019,-8.1472,-8.8327,
-8.7482,-3.2901,-15.1784,-4.7964,4.48,9.7395,-3.8747,-2.3301,-0.89936,0.84857,1.6243,-3.7811,-6.4533,-9.5078,
-9.6696,-5.9853,-13.3039,-5.9548,8.5496,10.1193,-1.2321,-2.6724,3.011,0.31573,2.0088,-2.5899,-4.6203,-6.5272,
-6.6791,-5.1437,-6.7208,-3.6694,2.252,10.9584,-3.0864,1.3445,8.133,-3.5596,4.7808,-1.9526,-1.9325,-4.6893,
-8.6885,-2.425,-6.7995,-1.521,2.5993,14.6394,-2.4188,2.2282,3.3067,-2.8636,2.5662,-4.2456,-2.7804,-2.4797,
-11.7826,-5.4127,-9.525,-6.9731,8.9506,17.8586,-0.10476,2.8174,-0.50737,1.4053,2.171,-0.37566,-3.8191,-0.64396,
-6.2551,-2.1957,-12.8097,-6.555,9.86,21.6076,0.86585,5.5409,-1.441,-2.0532,-0.36959,0.61144,-4.0717,-2.5333,
-2.9873,3.7206,-12.0411,-6.1617,6.8578,23.2032,1.778,4.7263,1.056,-1.4481,-3.7219,-1.8358,-6.238,-1.8994,
-10.2801,-1.5641,-11.5598,-12.7816,-2.4715,16.7496,-0.98023,0.3451,-0.6948,5.6284,-2.7754,-1.4845,-8.515,-1.5442,
-8.6994,-4.3625,-12.3125,-13.9431,-7.1441,8.9959,1.0068,0.80633,-1.1353,4.8086,-1.1629,-0.91372,-7.522,-0.0055191,
-4.3206,0.71973,-8.1993,-9.2499,-5.269,8.4559,5.7669,3.1683,1.3432,1.6278,-1.0929,1.5515,-8.0347,-1.4512,
-10.0874,1.3997,-7.9485,-3.1516,-10.0143,10.118,5.1799,6.5936,0.057546,5.1457,-2.7148,3.6278,-13.0965,-4.4979,
-12.1332,-0.37153,-12.5331,-3.6854,-12.0645,11.1981,7.0385,10.2956,2.7052,6.5242,-2.7928,3.1691,-8.2129,0.35176,
-9.7182,-1.5543,-13.9505,-6.5975,-9.1717,7.8749,8.3032,7.0263,0.85588,0.58892,-1.9021,0.32766,-2.6587,-1.3568,
-9.6171,-1.4613,-10.2212,0.064638,-3.319,8.8484,10.2151,8.051,-3.534,0.55382,3.0325,3.2003,-0.57119,-1.7571,
-14.8246,-11.0143,-11.0539,-0.90288,-11.3143,8.3178,8.6383,9.4961,-0.91163,0.52036,0.92256,1.5622,-1.9829,-0.20564,
-11.766,-10.5947,-9.6676,1.8022,-18.1075,7.5775,8.8429,10.1314,1.7944,-0.23399,0.14408,-1.1828,-0.65891,-2.8446,
-7.6856,-0.79996,-8.1234,3.1403,-12.6823,11.4616,13.1331,11.9339,-4.0978,1.2263,3.0275,-2.0762,0.82689,-3.1559,
-8.9117,2.3811,-8.3591,-3.0737,-8.3064,16.7995,15.4783,13.387,-5.0573,0.91176,-1.2515,-1.2287,-0.90995,1.1308,
-5.2437,1.5151,-4.7243,-0.23793,-6.6029,16.9966,20.5752,15.7171,-0.17432,0.13392,-5.274,0.53248,-1.0966,-1.5884,
-2.2775,-1.2269,1.5849,3.8737,-2.109,13.3257,26.3305,15.9793,2.9696,1.3312,-2.7879,-2.633,4.9952,-3.6622,
-4.0691,-1.6352,5.3464,1.7131,-2.4644,9.6336,23.3047,10.6822,4.2373,4.1434,0.2714,-8.7415,7.5876,0.8963,
-7.1994,-5.8757,-3.1693,-4.656,-11.9577,-0.1032,18.5319,2.8105,5.4295,3.895,6.0399,-6.771,7.1326,-5.4242,
-10.6238,-15.1641,-13.1023,-8.7154,-14.1327,-10.2204,19.8304,-1.6967,3.1755,1.7331,8.0877,-4.4365,4.294,-14.2578,
-12.3967,-15.2184,-13.2805,-8.1927,-8.9462,-5.2686,21.0507,0.81522,-1.3535,1.6289,2.7819,-3.2062,-1.748,-10.9924,
-9.9657,-7.3154,-7.4219,-8.906,-7.6866,4.4475,23.885,5.828,-1.9957,0.80826,-1.4824,0.60156,-3.3303,-6.7175,
-2.8601,1.0773,-0.46892,1.0284,-0.71742,11.1705,29.4418,14.8783,-1.1526,5.339,-2.1168,8.0373,4.3413,0.19352,
-1.9653,-2.1206,1.2464,5.0643,-1.3975,14.5974,29.8444,12.7805,-0.84269,8.6344,-2.2305,11.6526,4.322,2.8332,
-6.4269,-9.4654,-0.51557,-1.2654,-10.7134,12.0346,25.4024,4.5419,-1.0329,0.64426,-1.8559,3.9638,-0.9992,-5.2907,
-6.0413,-5.0409,-2.4128,3.631,-4.7682,14.2048,25.8065,12.4643,-1.4531,-5.1787,1.1477,1.3156,3.3993,-1.5991,
-10.0174,-4.7384,-8.0529,-0.92561,-4.9645,15.2807,25.2222,13.1625,-6.1866,-2.4579,0.59691,0.27237,1.7491,3.3176,
-11.3445,-5.9006,-10.9439,-2.3161,-12.3792,11.4716,24.1908,5.6238,-5.3332,1.5457,-0.403,-0.22614,-2.212,-3.1482,
-7.0484,-1.9307,-8.1179,1.4383,-5.1285,9.0961,22.9805,6.0098,1.4947,0.24816,-2.066,-2.8637,-0.87401,-5.1285,
-4.9385,-2.056,-3.5337,-1.7813,3.1327,15.058,22.3246,12.6388,2.1277,-0.48986,-3.6291,-3.8969,-0.58083,-0.24125,
-6.5702,-1.4507,-7.1778,-4.0845,0.052707,20.9034,23.3957,10.9166,-0.89203,-0.46047,-1.9651,-0.28864,-1.9918,-0.22677,
-8.1042,1.5288,-10.1216,-3.3575,-5.735,13.3822,28.2585,4.4768,-0.35658,-1.8791,-1.3652,-1.7176,-1.8727,-1.1775,
-6.4131,5.5344,-4.4529,-0.50497,-4.1861,6.5538,32.5885,10.7157,-2.0224,-0.07913,-1.0424,-2.3379,-2.0013,0.098448,
-6.269,0.62286,-8.2828,-4.0899,-1.2836,10.7401,28.4643,16.5807,-3.5881,0.64875,-1.7029,1.9004,-3.0863,-1.5945,
-6.857,-7.6094,-8.268,-7.7006,-3.6165,13.4703,28.2025,13.1757,-0.48049,-0.83621,-0.63667,1.3042,-2.9009,-1.981,
-6.9277,-5.2247,-2.9517,-2.4183,-3.8819,7.8414,34.2231,9.4927,-0.93359,-3.1966,0.84779,-2.6309,-5.1374,-2.3445,
-6.2711,0.63241,-3.9796,-2.0323,0.93031,6.1656,39.1593,13.9846,-2.5648,-0.35327,2.0018,4.9988,3.1245,-0.51659,
-9.0283,-3.5031,-6.8744,-3.5978,-2.2588,6.5188,37.5327,14.3505,-1.2059,-1.5376,2.6048,9.2784,9.4448,0.23753,
-13.3071,-9.5597,-6.4617,-1.9354,-12.7283,6.1275,30.9424,11.5613,-0.1694,-6.7478,-0.92573,1.0091,1.1656,-5.5611,
-14.1957,-12.1191,-8.2431,-2.5422,-14.1338,6.4832,28.363,12.0729,-0.40021,-5.1376,-0.62922,-3.6312,-3.0017,-8.8428,
-9.9695,-8.0178,-11.123,-2.3899,-3.6445,6.094,32.9277,10.3845,-2.3046,-0.49079,0.37263,-0.52099,-1.3756,-5.42,
-2.8636,1.3816,-5.3939,-1.0414,4.5276,9.344,37.46,10.4845,-0.47888,0.26178,-0.37286,1.1977,-3.9444,-3.8897,
0.68243,7.0828,-0.73197,-0.97896,3.774,15.5318,35.2121,14.6759,0.031783,-0.23632,-0.83242,-0.80234,-7.5641,-5.1026,
-3.938,6.4171,-6.7136,-5.0173,1.3782,15.323,33.3406,15.0004,-3.1034,0.019059,-1.5056,-0.51346,-4.4589,-3.5914,
-3.9427,6.755,-8.4802,-10.7423,1.5365,7.8961,33.9913,10.9672,-3.6405,-3.1156,-2.1382,-2.6518,-2.9866,-2.6525,
6.6579,11.4111,-1.9456,-3.5901,6.0243,9.1094,31.2289,11.9964,0.67548,-2.6874,-1.7691,-4.1797,-4.0124,-6.591,
4.33,8.7985,0.58128,-2.4106,6.1445,9.5269,27.9089,11.2763,-0.81108,0.3661,-1.1808,-0.55469,-3.7715,-13.4266,
-2.1963,2.486,-0.89963,-8.5324,1.9195,3.6526,31.0548,11.5641,-4.6188,1.7904,-1.11,-0.039478,-3.0632,-12.6205,
-0.13607,3.301,-4.2199,-4.6458,-2.0519,6.3262,28.2277,17.6189,-3.3776,0.23694,-0.079284,-1.9651,-1.9154,-5.5965,
-4.7077,1.8976,-6.1361,-2.6803,-9.4006,9.0797,13.2774,13.4283,-1.9701,-4.357,1.1308,-1.6062,-2.0414,-5.5022,
-9.0047,2.0249,-5.5269,-2.2783,-8.5958,6.3655,7.9013,8.5252,-4.5032,-4.8187,3.2319,-2.233,1.2143,-7.341,
-5.5721,3.3495,-7.1235,-4.07,-0.36704,9.3583,16.104,11.8701,-5.1971,-4.0474,1.11,-3.545,4.9981,-6.4188,
0.78797,6.2818,-7.4192,-3.1027,2.3063,17.7146,18.2713,14.7733,-2.7159,-3.0815,-4.0181,0.76481,3.9751,-6.2744,
1.2226,10.7253,-4.0818,0.45771,3.132,16.6515,14.2827,11.4766,-4.9633,-1.4506,-4.7411,0.23722,1.8082,-5.8982,
1.1495,8.1536,0.019729,0.4307,9.2106,11.3141,22.1026,12.2342,0.15521,1.529,0.36363,-3.6334,7.0023,-0.24165,
1.8037,4.5314,-3.1147,0.64583,8.417,12.8049,24.3919,13.1874,2.3151,0.23197,-1.8273,-3.1744,4.413,0.49621,
0.73111,4.7414,-4.8563,-0.83918,3.0913,16.8568,20.518,9.5039,-5.5366,0.21805,-8.4666,-1.0558,-1.1544,-2.4261,
-2.205,2.0466,3.1479,-1.271,1.4598,11.5069,26.5178,10.8618,-5.6866,1.1691,-9.8866,-1.9565,0.36088,0.12984,
-4.4829,1.924,2.959,3.1438,-1.5201,7.9242,30.2291,15.5125,-1.9712,0.61676,-6.4011,-0.3931,-1.1068,0.12182,
-5.9014,1.5674,-4.2084,1.2677,-0.70577,12.0282,26.7282,15.3047,-2.0936,0.82095,0.49068,2.2818,-0.79966,-3.5007,
-9.1627,-0.21388,-3.7147,-1.9414,4.8802,8.1731,29.704,10.7712,-1.727,1.0127,2.1485,7.2061,6.7201,-4.014,
-12.2279,-2.8521,-6.6251,-5.4403,-2.4025,-0.75301,32.5015,5.0635,-3.3107,5.0493,-4.006,8.4614,4.1482,-3.0498,
-10.2892,-7.2608,-12.2531,-8.7293,-11.1759,-0.94879,30.3102,4.0366,-4.3168,7.3978,-3.0427,6.2665,-1.1624,-1.6615,
-8.9489,-9.4764,-11.277,-4.5904,-12.6748,5.1335,27.7685,8.3739,-3.3352,1.4101,1.2374,2.7573,2.0406,-3.7312,
-5.0375,-2.1592,-1.9235,0.98794,-7.0938,5.7895,31.8869,11.2457,-0.24276,0.36143,2.1273,5.4837,6.2568,-1.5794,
-5.4584,0.62193,1.8074,-1.2405,-3.5347,2.3091,32.6253,5.5095,-1.433,2.027,-1.1339,5.878,2.2659,-1.2432,
-7.782,-6.405,0.97602,-2.3711,-8.3841,7.232,35.7292,4.456,-3.034,4.0747,-1.789,4.8022,1.4068,-3.8199,
-5.8693,-9.3956,1.8811,-1.265,-16.0762,10.1721,39.3698,9.0089,-2.3705,2.384,-0.23535,3.0678,3.2506,-5.037,
-0.21424,-2.0828,0.80436,1.2213,-6.4347,8.1162,36.5259,11.8431,-0.29987,1.2769,0.74286,3.3659,3.0558,-1.3605,
-1.4067,-2.1988,-4.7875,-4.878,0.94121,4.0134,34.0932,6.0706,-1.9691,2.8875,-0.98893,1.4767,0.70285,-1.0379,
-4.9377,-6.6466,-6.1875,-6.7545,-9.9615,4.014,33.7348,4.0193,-6.4303,2.9552,-1.1706,-0.78104,1.866,-4.1087,
-0.30311,-0.46298,-1.9599,3.7739,-6.4715,7.6293,35.5669,15.3473,-2.6702,-0.11441,1.792,4.0863,6.0926,-1.4523,
0.43843,4.1443,-0.63697,2.8243,4.7628,10.7872,39.4589,19.4882,0.62326,-2.7589,0.96131,3.118,4.5219,-2.5702,
-2.9621,3.4135,-6.3833,-4.0933,-1.7893,11.1041,38.5376,14.4625,-4.7166,-0.18298,-4.3988,-0.92524,-1.0518,-7.7184,
-5.4359,-0.40651,-9.1338,-8.9096,-12.046,6.3402,34.5379,11.4254,-4.6748,3.4432,-5.3399,1.2992,-2.1942,-8.9423,
-3.1813,-0.86428,-2.3188,-4.5185,-12.7693,1.1393,33.9121,13.1504,-0.53766,3.7188,-2.1272,4.5959,-0.13413,-5.9954,
-2.9907,0.63361,-0.25172,-0.87312,-12.4853,1.5531,33.3232,14.2894,-5.3259,2.0496,-5.8562,6.7301,-3.5008,-1.2976,
-2.0881,-0.60924,-0.95975,-1.5436,-12.4595,5.5573,38.7956,18.0115,-1.8728,3.1315,-2.8533,10.906,-1.1211,5.2882,
-2.6857,-9.0088,-6.4455,-0.72812,-14.845,2.5728,40.5654,11.3872,1.8549,0.77442,1.4153,4.2261,0.6334,-0.090768,
-5.1759,-10.1555,-6.3,1.9667,-13.7133,1.695,39.8185,7.5707,2.4666,0.0050518,2.0532,0.83906,2.7646,-4.1827,
-1.9731,-2.3153,0.34473,2.813,-7.1059,6.896,43.6961,14.8292,2.3186,0.48668,1.4481,2.7169,4.5269,2.3348,
3.6889,-1.9352,-3.7733,3.3673,-1.1357,10.0979,47.1001,17.5549,1.4563,1.1806,0.6381,1.3488,2.5683,4.3641,
-2.7992,-10.4962,-10.2958,-3.5836,-1.0681,5.6352,45.238,9.2708,-0.077322,1.1098,0.59981,-3.5528,0.0035807,-0.71846,
-5.5235,-7.4563,-7.7499,-5.2968,-0.039644,5.2971,43.0059,8.7145,-0.55462,-0.40307,2.0101,-5.2678,-0.47857,-2.1216,
2.7619,-1.9473,-5.1155,-1.3636,0.68564,9.559,44.5231,18.0738,0.68395,-1.1018,2.6124,-0.85395,4.6118,0.65724,
1.6321,-6.169,-6.7368,-1.7634,-4.6579,8.5033,41.3696,17.9535,0.16075,0.41035,1.0096,3.0534,3.371,1.5819,
-4.4916,-7.968,-10.4301,-0.45281,-7.9939,5.3415,40.0925,8.4401,-2.5004,2.073,-0.7382,0.70107,-3.8211,0.28169,
-0.8479,-6.0439,-8.3581,-1.8717,-6.0682,1.1649,40.0973,4.0774,-4.2784,2.9127,-1.1761,-1.7513,-4.5559,-3.5914,
0.40826,-7.368,-9.0616,-6.3391,-6.9089,-4.9306,30.2196,8.4125,-5.7089,3.9432,-0.86454,0.040959,-4.5236,-8.4376,
-4.9189,-8.3724,-11.8924,-9.333,-10.833,-5.1169,27.9243,10.3178,-5.8485,1.7782,1.5977,3.4127,-6.6625,-9.3773,
-1.9724,-5.7007,-6.5993,-6.1217,-9.4599,-0.23036,40.3488,8.9759,-2.3639,-0.97982,1.743,7.3055,-4.0934,-4.2352,
1.2792,-2.7073,-3.0701,2.6815,-6.7233,2.9167,43.592,12.5344,0.42879,0.76642,-0.049011,8.5542,-0.23257,-0.36588,
-5.7874,-5.6786,-5.0553,0.83317,-10.8994,-0.39154,35.9148,11.0592,1.1262,2.4074,0.19513,6.8359,-4.7981,-1.0671,
-5.4402,-7.7482,-1.3775,-0.66285,-14.584,0.59605,36.1703,9.9135,0.57646,-0.6293,1.1475,7.8718,-4.5105,-0.52087,
0.67079,-5.8371,1.1152,2.269,-8.4063,4.8986,37.3743,14.6214,1.9881,-0.59154,1.0787,4.9893,2.991,3.3668,
-0.81525,-6.4507,0.084695,0.20511,-5.0094,4.1228,31.7578,11.8163,0.90498,1.3721,-0.91425,-0.61221,-0.080523,1.2366,
1.6438,-2.2073,4.4179,2.121,-5.6732,5.3216,32.7446,9.6611,0.36874,1.2898,-0.85939,4.2448,-2.4858,1.1624,
5.1606,-0.86957,6.322,-0.17543,-4.6094,8.1354,33.4311,17.0352,1.5515,-0.95673,1.3613,1.339,2.2426,6.1543,
1.4765,-3.2278,0.64005,-4.0215,-3.8512,6.6832,29.9792,20.8336,1.9405,0.5467,-0.16638,-7.4187,5.0004,5.3029,
-8.0121,-10.0237,-5.4239,-5.4672,-16.8763,-3.5995,25.0472,7.2912,1.101,-2.1374,2.4949,-9.1425,1.5671,-3.9331,
-8.0133,-15.689,-1.724,-3.211,-28.3972,-14.4708,26.9185,-2.7872,5.3732,-4.9012,13.4325,-8.5939,2.4369,-4.6615,
-3.9171,-15.4706,-3.3078,0.59685,-25.0059,-15.7719,24.5803,1.9593,3.3638,-3.4021,7.5646,-5.427,-0.36062,-2.6943,
-2.718,-5.3836,-1.6633,0.078881,-17.7212,-2.2924,23.1055,13.4112,2.1979,0.65818,-1.0838,7.9138,0.14318,-0.60469,
-2.073,-0.2403,3.257,2.0023,-16.176,5.558,27.0218,16.4626,2.066,-0.34518,-0.054861,8.4029,3.0266,1.8417,
-1.4666,0.25628,1.6155,5.7388,-8.4563,6.1886,34.0774,13.5469,2.9062,-2.2529,1.8769,1.6324,4.7735,3.6596,
-1.6198,-1.9283,-1.133,3.2249,-5.2978,5.0944,36.1301,11.0466,4.901,-0.91242,0.076557,5.6318,5.6919,2.7167,
1.6111,-0.1251,2.5507,4.2369,-8.5951,5.5118,31.7933,11.1072,1.9556,-0.13455,-0.16877,6.9814,4.6277,3.7592,
6.5759,1.5694,7.9412,4.2239,-5.4281,6.8681,31.0908,12.6099,0.15125,-0.84961,0.56448,1.5006,4.5912,3.7744,
8.5917,3.4037,9.393,3.9702,0.2,14.169,33.0817,15.71,3.5164,-3.2085,1.4947,-0.51742,8.1724,3.5482,
6.6299,5.1274,6.901,3.7318,-0.29416,16.2112,29.1684,16.6953,3.7876,-7.355,0.92286,-0.96854,7.6818,3.335,
5.509,1.2041,6.7281,1.3389,-5.8199,5.3563,26.2132,14.9705,3.8011,-4.7443,0.62675,-4.0437,5.5335,2.8942,
5.6606,2.0962,5.8423,6.0789,-10.2914,0.69664,26.5686,11.6621,3.573,-0.60329,0.58915,-2.8372,4.7195,1.2743,
5.321,11.1295,3.5638,3.304,-8.7096,8.3676,30.7593,14.3368,2.3947,-0.56709,1.0357,3.6,5.4007,2.6441,
3.7964,11.6667,1.1803,-3.402,-6.9824,5.6962,32.529,14.1993,1.5279,-5.5945,0.25046,0.73223,4.353,1.7619,
5.0151,8.5568,-1.3004,2.587,-8.9734,0.051985,31.0596,10.9374,2.4004,-2.8485,1.1995,-2.6855,3.1282,-1.2357,
3.5089,2.9815,-0.49925,-0.21957,-16.3889,-0.67426,29.9189,9.0761,1.5332,-2.9188,1.8507,0.60891,2.2174,-1.4027,
-3.6913,-2.7408,2.664,-2.3753,-22.3953,-8.1054,28.8469,10.2188,2.1643,-8.287,1.0165,-0.63268,0.39735,2.2971,
-4.6753,-6.192,4.1911,6.6846,-23.2209,-11.7166,28.321,7.9182,2.7576,-5.6209,0.2324,-1.3183,3.5063,3.3639,
-1.9844,-6.3026,4.4218,6.7657,-23.2737,-4.7469,28.5501,5.033,2.5919,-1.427,0.21868,4.0637,2.8142,3.6442,
-5.7215,-6.4061,2.7105,3.9498,-21.877,-3.0161,28.2834,8.5874,-0.45588,-2.7874,3.0979,4.7839,-3.1394,4.3901,
-10.1989,-10.8425,3.0298,4.1945,-17.6726,-5.2455,27.5502,8.0722,-1.3926,-5.0305,3.8761,4.0147,-1.505,3.6445,
-5.0075,-8.5047,3.089,7.5583,-14.4426,1.5772,24.6922,5.9006,1.8244,-1.1133,0.51003,6.9073,0.75488,4.1488,
-2.5379,-6.3074,-3.6041,2.525,-13.8175,3.1694,21.0412,7.7157,3.4022,0.15835,-1.2078,0.94883,-0.9781,1.2483,
-5.5189,-5.2059,-5.0751,-3.1698,-10.819,-1.1179,22.9123,8.4578,1.993,1.3539,0.069729,-6.5797,-1.1601,-1.4775,
-5.1875,-1.5191,-3.8062,-1.051,-11.1338,2.3236,24.43,0.23783,-0.53672,2.237,-0.41639,-4.2562,-3.0187,-3.317,
-2.7073,-0.22285,-2.3728,-1.2291,-16.4915,4.3531,19.8307,-6.7663,1.6644,0.41579,0.33172,-3.7601,-3.5607,-2.3949,
-3.268,0.031718,-4.3998,-4.2891,-21.5278,-1.9334,15.0255,-6.1194,1.8057,1.1135,0.070625,-7.6321,-1.1777,-2.9743,
1.7488,1.4758,-2.2074,-2.5853,-15.8976,-3.2634,20.3907,-4.7879,1.2152,1.5289,0.066617,-2.3537,1.3033,-2.7961,
7.9104,5.7256,6.1197,-0.98435,-12.5336,0.78831,26.3979,-5.4649,1.1423,-0.0091271,0.54455,1.6439,-1.1855,-1.664,
5.7487,10.444,7.9217,-0.68409,-17.325,1.4641,26.0193,-4.8958,-0.61321,1.6789,-0.21125,-1.588,-0.39121,-3.2516,
1.5474,4.5145,2.6262,-1.6071,-20.624,-2.9618,25.4222,-7.4944,0.38768,2.5422,-1.1627,-7.2771,-1.3318,-2.0924,
1.4546,-1.0586,3.9146,4.7563,-16.0121,-3.2665,26.7892,-8.491,1.3283,-1.4667,0.35335,-5.8766,-0.2876,0.44371,
-1.0433,4.3069,3.6795,6.3988,-12.1591,1.75,27.592,-5.5714,0.28449,-3.789,1.2962,-1.1854,4.0677,-0.54746,
-4.3549,2.6027,0.08452,0.71227,-16.2503,2.6093,30.275,-5.2371,1.7137,-3.5617,-0.22779,-1.5962,2.8598,-3.4067,
0.48614,0.27758,-0.16129,4.7671,-14.0697,2.694,32.5561,-5.1636,0.88773,-1.1786,0.50901,-4.1518,1.0012,-1.9972,
3.3493,5.5631,0.81249,4.4811,-8.4053,8.7988,32.5309,-3.8897,-2.54,-0.62595,2.8891,-5.3489,3.8332,1.4971,
2.6661,11.0141,2.6917,5.6583,-4.5268,14.0553,32.507,0.682,1.469,-2.9988,-0.17704,-2.6176,8.9061,4.2995,
1.5421,10.8352,0.60201,6.765,-5.219,13.2119,28.6284,2.5693,1.8628,-4.747,-6.9149,-5.835,5.4792,3.0777,
3.8597,10.667,-0.39821,1.0565,-5.3883,14.8298,27.3926,0.48692,-0.65908,2.2867,-4.0898,-5.9669,2.2579,-0.48188,
4.3515,9.7861,-3.0254,-2.1399,-2.8954,8.8783,24.0623,-5.5678,-3.2706,2.3905,-4.0854,-4.4036,-1.9749,-5.9961,
5.2954,9.922,0.28937,-3.699,1.8579,2.3199,22.3774,-3.0646,1.0227,-0.40428,-3.1172,-5.8268,-0.16894,-3.9494,
8.3517,9.3265,4.6101,-5.8874,-0.66395,6.0368,26.8191,3.3858,1.9255,1.066,-1.0022,-6.4413,2.733,-2.2664,
7.8508,8.2849,1.9234,-5.0522,-3.0342,7.1213,30.5126,-0.19159,-3.9746,1.9664,-3.8341,-0.27023,-2.2512,-6.9506,
7.3798,8.27,3.7364,-0.89249,1.4864,2.3555,32.0563,-1.1442,-0.36194,1.3662,-2.158,5.5308,-1.152,-2.195,
5.4907,6.8097,0.13775,2.0533,-4.87,2.6959,27.7225,3.2628,2.0701,-3.5362,-1.0644,-0.10393,0.36311,1.7928,
2.5102,5.1958,-4.932,1.6892,-13.4954,6.1495,28.2286,6.6824,2.6688,-1.6368,0.20471,-3.2307,1.0647,-0.96585,
0.19019,2.7149,-1.5028,1.3469,-13.891,0.71935,27.2578,1.702,2.2677,-1.7796,0.91533,-6.1704,2.2056,-1.6313,
3.7942,5.6855,3.1669,7.2916,-3.6575,5.7374,26.3454,5.6974,1.4088,-4.8063,2.0657,-5.5592,3.7605,1.1182,
5.2538,6.5497,-0.15638,2.7567,0.65973,11.9011,30.7905,7.5247,0.11895,-4.7589,0.25453,-4.9847,3.2939,-0.63615,
7.3489,8.0849,2.2634,-0.78311,0.62015,10.2232,36.1739,-5.46,1.5581,0.82929,0.7212,-5.1675,4.5426,-1.0799,
8.8359,5.6714,6.4657,-0.73635,0.58225,7.199,33.5211,-19.1121,0.018097,2.2256,2.124,-6.7859,3.7878,2.3591,
8.7879,4.8492,7.0418,2.6823,-4.7549,2.9106,30.5459,-21.3396,-0.94686,1.6096,1.0326,-4.9325,2.5962,2.2176,
4.6452,3.3531,3.0041,3.7264,-12.9055,-4.7356,27.99,-18.372,2.2432,1.2723,-4.5732,-2.9491,2.1997,-2.9769,
2.4383,-1.6688,2.3417,-0.8355,-13.095,-8.3078,24.3825,-17.2697,4.0368,0.23212,-5.2626,0.60187,2.5497,-0.3882,
4.2202,-3.4968,1.719,2.1067,-9.8992,-2.9891,25.3296,-16.2338,1.3845,2.1459,0.83771,5.8684,3.361,1.5633,
3.7261,-5.9381,-3.9275,0.77546,-15.8132,-0.64014,25.4973,-15.0185,0.096575,2.2586,1.5103,3.8291,0.9902,-2.1459,
1.3333,-7.7512,-4.8969,-4.8145,-19.4439,-4.2174,23.2443,-11.4661,0.81345,-2.4564,1.179,1.9123,-1.2386,-0.81211,
1.2533,-5.3582,-5.0853,-0.1875,-12.4925,-2.5178,22.3316,-9.814,-1.6453,-2.7912,3.5181,5.1718,-0.20019,1.165,
1.4191,-4.7953,-4.5389,0.54711,-8.6094,-1.6439,23.643,-11.3944,-0.3417,-0.93651,2.1022,3.1743,1.981,-1.074,
1.093,-2.8203,-2.5794,-1.6549,-12.1902,-3.7144,22.4657,-5.1671,1.366,-4.4957,0.28886,-1.5955,0.1749,-0.28668,
1.9915,1.6872,-2.9068,1.8184,-13.3875,-2.0453,21.1175,-0.036571,-0.1622,-9.5286,1.7178,-1.4997,0.16441,4.5512,
-1.2615,1.827,-2.0095,2.4327,-11.3789,2.1748,21.0555,-3.6498,0.57089,-5.8234,1.3733,-4.5432,3.288,2.1085,
-1.4265,1.4764,1.7267,6.866,-9.4909,7.106,21.9616,0.18461,4.1521,1.0334,2.0143,-6.4398,6.7062,-0.18713,
-1.1002,-1.7457,1.3819,3.8029,-15.9113,3.5461,18.4745,1.8605,2.6976,-3.1259,1.6524,-5.8124,2.206,-0.41687,
-0.070088,-0.19492,2.2631,0.20008,-14.9569,1.4049,16.4019,-0.17929,3.0179,-5.8306,1.0711,-4.9815,0.14566,3.4648,
-2.2353,2.4679,6.2247,1.3934,-10.444,2.0436,20.9614,-1.8558,7.4162,-1.8654,0.76589,-4.4417,5.1986,4.9436,
-3.547,-2.5,7.2977,2.756,-18.0116,0.47514,25.9707,-1.744,6.9716,-0.78914,-1.2083,-2.247,7.7792,5.1294,
0.76321,-3.0736,0.3519,5.7239,-18.6184,1.1698,27.0635,-0.43449,3.9016,-1.4649,-1.377,-1.389,4.6607,6.5086,
-0.48764,-6.5041,-2.8022,1.7655,-15.3321,-2.0335,28.0913,-2.0954,4.3908,-1.1361,-1.5353,-1.5467,3.1762,4.4314,
1.2286,-4.9088,4.3553,1.9003,-15.1353,-4.0808,29.0569,0.6814,6.7787,-0.34477,-2.6482,4.5719,7.5651,4.8881,
4.5294,2.1342,2.648,1.3044,-11.3347,0.50233,24.4212,5.461,2.0332,-1.2884,-2.9713,7.6716,5.665,2.6667,
2.0884,-2.0915,-0.16224,-4.7997,-8.0037,1.1953,22.2328,2.482,0.22421,-1.4523,-1.106,5.0424,-0.21831,-0.14466,
-0.20627,-8.9556,0.57039,-0.89649,-11.1387,-6.8304,23.5499,1.1278,-0.51237,-5.9447,-0.31652,3.0524,0.035526,0.10476,
2.4577,-5.2846,-1.1506,1.8091,-12.1574,-5.215,22.8603,4.1939,-3.1329,-7.2745,2.3538,-0.26357,3.649,1.7864,
3.9972,2.9858,2.0515,1.941,-7.3306,8.3538,24.6217,4.183,-1.7397,-2.7412,1.0073,-0.48918,3.1887,1.9197,
3.0345,6.4223,9.8823,5.4402,-5.2038,16.7709,26.2779,8.9937,-0.43024,-1.8536,-1.2221,2.1915,2.2747,2.5281,
2.1293,1.9394,10.0123,3.4264,-7.0605,11.1851,26.3884,13.9977,-2.0919,-3.4294,1.5026,1.3369,3.3433,3.5815,
2.9656,0.8589,6.0373,2.2567,-4.7089,4.7292,25.2871,11.2296,-4.3763,-2.7414,3.8223,-1.1537,1.6966,1.4382,
1.5826,1.5305,4.952,-0.047649,-1.775,2.276,24.493,7.4226,-2.4267,-3.782,3.8342,-2.7715,0.38978,0.62876,
-1.8868,-0.97146,5.619,-2.4554,-7.4531,-3.1632,22.0593,8.9054,-1.3168,-7.8939,1.194,-3.5695,0.36593,-1.8191,
1.8418,3.6663,6.969,2.7539,-7.2471,-0.80398,23.3871,15.8429,1.8955,-1.8764,-2.4933,5.0806,2.5134,1.9052,
2.9364,7.0618,0.043187,-1.9911,-9.9453,1.8954,21.2607,10.3128,-1.3517,-3.9334,-9.3336,5.4991,-1.2529,0.1037,
3.9653,8.807,-2.1288,-0.66659,-11.518,-0.86969,20.226,7.0427,-0.54748,-8.2769,-5.6403,2.0354,-0.93695,-4.482,
1.3172,4.4224,2.8196,1.3018,-13.2373,-9.012,22.8691,9.5127,6.7164,-2.4774,1.9292,4.3241,5.3865,-4.6948,
-2.8594,-4.761,4.8196,1.9466,-21.843,-11.6048,23.1839,11.593,10.8927,0.3223,8.8033,3.3413,6.2681,-4.6546,
-0.75964,-3.9932,5.9767,12.4351,-22.4606,-10.9085,22.757,15.7179,14.0956,-0.17898,15.5059,3.1408,4.4458,1.8917,
-3.1244,-5.682,4.6538,7.8326,-19.1848,-19.8949,19.4634,16.2209,12.7674,1.76,7.8267,5.3625,3.2152,5.6346,
-1.0088,-7.2693,4.8567,5.9164,-13.213,-12.9167,22.152,19.104,8.6274,6.957,0.12624,6.969,3.9861,2.8859,
6.0416,0.63869,7.2166,13.9971,-6.8766,1.9583,31.1869,21.0912,6.4225,3.4061,0.35963,8.238,6.8804,6.3282,
6.1613,3.9748,8.7118,12.1934,-8.8741,7.7461,31.2442,21.754,8.4473,-3.0648,1.3024,4.8517,5.9857,9.3229,
6.9967,0.12115,7.4662,13.6312,-8.5829,8.9684,26.2362,25.5104,9.6279,0.25236,2.9112,2.8731,5.3853,8.0409,
6.5769,-3.2606,4.6079,11.3673,-5.1756,7.4662,24.6621,22.0516,-0.59096,-1.691,-0.15573,0.29086,1.2061,2.2556,
9.5565,2.2377,10.1158,6.3462,-0.52699,5.5722,28.0026,24.5846,-3.4478,-1.5897,-3.0387,0.27317,-1.7591,-1.254,
9.4653,4.0316,9.0269,-0.78298,1.4333,4.7559,25.8405,37.2096,1.5798,0.916,-8.159,-5.0459,-1.1711,-3.5889,
7.9333,5.2358,1.2547,-5.5565,0.86512,9.291,22.8441,49.077,2.4491,-0.58499,-11.5256,-6.1891,-2.5469,-4.82,
6.011,10.7062,-5.0874,-7.1513,-4.4894,6.323,19.545,60.2324,-11.1957,-10.1909,-15.1729,-2.9257,-12.0355,-13.6899,
8.3017,15.6074,3.1716,-4.5531,-2.5328,2.8101,20.5414,62.2825,-15.5856,-13.1951,-11.6109,-5.4013,-13.9645,-17.4478,
8.7677,17.0811,10.2122,-0.90542,0.99358,8.9085,23.1656,65.7764,-7.9016,-10.9571,-6.094,-11.8261,-7.342,-8.6881,
8.0006,16.7794,4.0558,-5.9125,-1.7174,13.9174,19.1243,75.9298,-4.7761,-10.5406,-7.4154,-10.8753,-10.0347,-7.4437,
8.9671,13.8447,2.8486,-8.932,0.79604,13.0825,16.0487,80.6538,-10.2739,-11.3542,-12.7548,-5.4023,-14.2531,-13.7458,
6.0187,11.0856,3.1596,-2.1298,2.6762,13.7436,15.0857,77.7425,-16.4066,-14.0474,-15.8461,-2.6678,-13.8801,-15.3314,
5.6574,10.9028,-0.88634,-2.9659,-3.2689,16.7754,12.7346,83.6833,-13.0116,-13.2046,-12.0029,-4.436,-12.083,-11.519,
16.1644,19.1667,2.3001,0.34555,-0.42122,19.3843,15.5859,90.4724,-7.6517,-8.3147,-8.6316,-5.3751,-8.2245,-10.5869,
19.7736,23.5601,7.2235,3.4576,11.8959,23.7651,21.1582,86.2491,-9.8439,-9.5033,-7.3906,-3.3651,-7.4903,-11.6391,
14.0081,18.5313,7.9954,-1.8108,18.6542,23.0623,23.9863,83.7255,-9.9759,-12.5483,-6.7059,-3.4044,-9.2098,-10.6996,
19.9163,24.1681,8.9617,5.0465,22.3554,24.0885,26.8855,92.6815,-4.5569,-5.0467,-5.8219,-5.6105,-4.3191,-7.6472,
23.7828,29.2253,5.7727,3.5382,20.7733,33.0073,25.9955,95.5565,-5.489,-1.1283,-5.7133,-5.5146,-4.7831,-8.8759,
23.3199,34.2204,7.8367,-3.9047,22.9012,39.2218,23.9536,98.5,-8.0519,-5.3991,-3.4425,-2.7739,-9.7986,-10.7532,
27.2231,42.7723,10.7407,-4.6345,27.7934,34.94,23.4805,106.69,-9.9792,-5.0754,-6.1283,-2.6072,-11.621,-11.5545,
30.8922,43.5806,10.0963,-4.8386,29.9824,26.5773,28.8203,112.7014,-6.4881,-1.8786,-8.1709,-4.3792,-8.9953,-13.2716,
32.6543,43.6171,11.6599,0.99554,38.0656,26.1878,34.081,108.5906,-1.5193,-0.56081,-2.6192,-4.8396,-7.7325,-11.7522,
31.4182,46.0615,12.1654,0.21268,38.9149,30.1603,32.2771,102.7983,-4.079,-3.178,-4.1491,-3.8261,-7.9916,-10.3239,
32.6663,50.7699,13.6048,1.405,36.3393,29.0738,32.0277,99.2817,-5.5217,-4.6748,-8.9616,-2.8734,-8.2353,-9.4633,
35.2859,57.1234,18.8141,10.2385,41.6305,31.4265,33.2395,100.3145,-2.5391,-5.5994,-7.2188,-1.9778,-8.4643,-5.7622,
33.1685,58.9985,19.6134,4.8037,40.5787,34.8434,30.763,102.4905,-3.3509,-6.2275,-7.2679,0.06926,-12.295,-5.8986,
39.6145,62.9304,17.2313,4.7565,38.8673,36.3682,32.0504,106.223,-4.837,-3.6847,-10.9291,0.30607,-12.7626,-5.7857,
43.5041,63.0109,17.6437,12.1839,45.6943,37.5605,35.4301,99.3677,-1.6543,-3.4636,-7.3811,-4.0506,-5.7299,-5.4386,
36.3144,55.1331,17.3082,8.3196,40.3014,38.4402,32.099,88.8261,-0.83192,-3.0148,-0.91268,-6.9413,-4.181,-6.3173,
31.9664,52.0661,13.1365,3.2411,28.0009,37.3391,27.5219,91.9327,-1.023,-1.1467,-3.0271,-6.2834,-6.0993,-3.7691,
28.6021,47.014,8.4917,1.1184,26.8028,27.3859,24.9063,91.7189,0.96614,-0.11382,-8.63,-8.317,-5.7333,-3.543,
20.3785,37.2032,4.8489,2.2562,28.81,22.6093,23.171,80.6722,-2.7072,3.5084,-6.4252,-4.6845,-2.7382,-5.9815,
11.684,23.6429,1.9067,-2.9404,18.1638,18.6016,20.5759,73.1807,-8.5704,4.9852,-2.4241,-0.30605,-4.7431,-6.8279,
12.1878,16.6807,5.8896,-4.9336,8.6378,6.6388,19.0999,74.8155,2.3077,3.4808,-0.59186,1.3995,-6.1458,-2.8028,
5.19,8.449,-1.2124,-3.6733,1.3707,-6.2925,12.1693,63.0957,4.5799,0.37939,-2.9665,1.3156,-8.6695,-7.4553,
-4.2802,-4.1093,-4.5139,-4.417,-9.3162,-12.6637,14.3317,56.9,1.4128,6.1414,2.9963,3.1651,-5.739,-6.0435,
-8.6029,-17.9627,-0.62767,-1.5006,-22.8572,-16.4834,16.1231,67.586,5.4256,5.5322,6.4322,-0.15856,-1.779,-3.5119,
-11.22,-26.4052,2.0613,1.2407,-29.0783,-19.5915,12.9863,65.8203,5.8232,0.13883,3.3949,-0.87218,-0.4672,-4.9882,
-12.2342,-20.7238,7.481,1.8894,-20.8259,-25.4061,16.7867,47.7711,1.8581,2.2994,3.432,1.3495,4.1403,-1.5557,
-14.3925,-22.8546,5.1042,0.81196,-24.8787,-34.4868,16.2618,45.2665,3.6751,4.0899,3.7082,0.30448,3.4098,-0.49822,
-17.8675,-31.1245,-2.9151,-4.0572,-33.5092,-34.8279,14.804,53.1556,9.7213,5.2905,2.5216,2.2146,-3.0616,-3.3606,
-18.9646,-28.5337,-2.499,-3.5728,-33.1858,-27.1946,18.0131,50.2072,7.4508,8.5885,2.6113,3.2866,-0.70825,-4.3643,
-18.7908,-23.9293,0.061103,-1.9124,-28.3024,-24.5989,16.4501,46.7131,7.0035,7.591,2.4549,0.1971,4.1547,-0.2458,
-20.0735,-32.1346,-2.8349,-5.1721,-29.9787,-34.6921,7.2682,42.946,8.0296,3.7611,1.8252,1.1496,2.9411,-1.1954,
-21.5204,-40.0886,-2.4238,1.164,-33.2414,-39.1183,7.0731,41.0923,8.2709,9.0793,4.8489,9.5165,4.4516,1.0457,
-27.701,-46.1195,-3.9656,2.299,-42.5754,-36.5302,9.7819,40.314,11.872,12.6319,6.2452,6.7759,7.318,1.224,
-28.6905,-44.5571,-7.3431,-1.9363,-47.0105,-34.0974,9.436,43.4383,13.8108,12.1149,8.0397,3.7183,9.53,0.90955,
-27.451,-42.848,-10.2769,-5.1946,-44.1899,-37.3542,6.9416,36.4937,9.1258,7.5317,8.5216,2.5308,6.0662,0.85498,
-25.3218,-47.9899,-6.7678,-1.9902,-42.0204,-27.4,6.5254,29.4836,7.6141,5.6337,8.9744,1.8973,3.2919,-0.16041,
-20.669,-42.9411,-1.7822,6.5651,-38.776,-11.656,5.8929,31.8122,7.8804,8.429,6.7489,6.363,3.8175,1.5362,
-22.0802,-39.6418,-2.8806,2.0736,-37.1726,-10.113,5.2981,26.2882,5.7206,9.6102,5.1385,6.7043,4.3116,1.2033,
-23.1657,-44.0119,-3.1897,-1.9074,-38.3167,-15.773,5.9443,22.3006,6.8234,7.5876,8.6868,4.8556,5.017,-1.2793,
-21.2936,-40.4069,-3.9622,3.028,-40.838,-11.4519,3.1778,26.7474,6.4142,9.5427,7.2015,5.0469,1.8236,-0.2384,
-24.1136,-36.2955,-5.4119,-0.76911,-44.4135,-11.0058,-0.14638,27.7936,2.4139,10.6573,1.7077,2.0925,-2.3831,-1.4294,
-25.0771,-39.4204,-5.0872,-1.6873,-42.713,-15.6481,2.2725,20.3414,4.1973,9.0536,1.1233,3.4127,0.16999,-0.3793,
-23.0901,-46.214,-6.228,-0.13956,-40.6319,-19.5297,4.0646,12.8542,5.3915,5.6181,3.9482,5.1364,4.0164,2.5357,
-21.9459,-42.2361,-8.5056,-0.37261,-40.3634,-20.0451,2.6154,16.6622,3.3808,3.5938,3.4704,-0.23346,2.5701,2.6246,
-22.3164,-30.3019,-7.2722,-1.5551,-36.7365,-15.227,1.7354,21.6885,4.3832,8.9218,1.5749,0.021975,0.7287,-1.6303,
-22.4234,-31.858,0.87694,-6.7644,-34.5323,-11.4213,5.0057,13.1564,7.0123,12.7252,2.4447,0.020197,1.1669,-3.9426,
-20.1139,-33.8029,6.127,-2.9843,-33.9064,-7.8437,10.008,6.1002,4.1817,8.587,2.2978,-2.3909,1.0971,-1.2961,
-14.0868,-21.6519,7.6873,3.4612,-27.5337,-1.1066,15.674,19.8342,4.8946,5.6617,2.16,0.6446,2.9595,0.22791,
-8.9031,-15.0503,10.6005,3.7355,-20.5793,-2.0041,20.0362,26.7182,7.493,5.322,4.4405,2.0522,5.674,0.21423,
-11.7431,-24.7521,6.5903,2.5477,-20.7905,-13.9351,17.87,11.0151,3.1873,1.6284,4.6562,-0.96323,1.9593,0.68354,
-14.8951,-29.0518,1.3741,-2.4259,-25.8099,-17.4374,13.9053,5.6544,2.5141,0.084472,3.8949,1.5047,-1.5327,1.1245,
-12.7961,-21.2829,-0.3953,-1.5572,-24.502,-3.6169,12.8302,19.4151,3.5683,1.2845,4.3843,5.9939,1.2106,0.33387,
-9.6182,-18.5599,0.11012,1.4285,-18.2116,1.4206,16.8804,14.9965,2.3901,1.6891,5.5673,6.5984,5.4765,-1.1322,
-7.5951,-25.1593,1.5498,1.3426,-20.4934,-12.7646,17.3141,0.11717,3.6927,0.14173,4.2692,3.7921,5.1477,-0.10017,
-9.3083,-26.7828,0.73389,2.9493,-22.879,-26.0988,13.1417,1.7974,4.1945,-2.5179,4.254,2.3598,4.1159,-0.33513,
-15.0166,-24.2117,-0.27424,1.3263,-20.06,-26.461,12.3535,-0.72083,2.0144,-2.3666,6.891,-0.67411,3.8692,-3.2073,
-12.1874,-18.4205,2.1526,0.76478,-15.9641,-14.2681,12.0942,-4.534,1.8936,3.0776,4.5494,-2.0799,3.1547,-1.0867,
-5.6713,-16.3512,4.9157,-1.2091,-10.6677,-4.7351,12.815,1.5229,2.7441,4.3394,3.3123,-4.8474,3.9299,0.90695,
-5.5722,-22.36,4.8617,-0.41363,-10.751,-9.0308,13.251,5.5289,3.7847,-1.4645,4.8008,-6.7257,3.9346,0.12917,
-4.2738,-15.7159,6.0161,7.8057,-10.5879,-15.7195,12.9381,3.7506,2.5931,-2.3408,4.0306,-4.3942,2.7345,-0.36074,
-3.5352,-8.0241,6.6194,3.9631,-10.4345,-13.8123,13.1259,-3.705,-0.93674,1.6558,1.8608,-3.1665,3.0526,-1.3032,
-7.4205,-13.086,0.67864,0.11036,-15.834,-11.7782,14.0256,-4.6875,-2.5673,2.7618,1.9901,-3.2175,3.1108,-1.9479,
-6.0114,-17.1216,-4.1828,2.9958,-21.6329,-13.964,10.2915,3.7884,-0.0031375,1.6318,1.8707,1.7963,1.9599,-2.7954,
-2.2762,-16.0943,-1.0395,-0.5584,-17.4426,-16.0183,10.6383,6.9356,0.96092,1.0519,0.79415,6.9912,1.3603,-2.6276,
-3.345,-11.9954,1.1922,-2.6943,-12.7806,-15.7803,14.5796,5.3144,-3.6763,1.23,-2.3868,7.7768,-1.855,-3.1931,
-4.8315,-9.5884,0.39757,-4.2196,-19.9678,-11.7002,13.9455,3.79,-1.7682,-1.9775,-4.8949,7.5509,-2.9488,-4.2066,
-3.3363,-6.3618,3.507,-3.7253,-17.5644,-5.9368,13.35,-1.9808,-0.45707,-5.956,-5.3243,4.4465,-2.5306,-5.1593,
-3.6183,0.28643,4.7428,-0.60968,-2.4105,-6.0625,14.9591,-0.41569,-5.2504,-5.1167,-3.0767,0.80573,-2.8607,-0.028984,
-5.3292,-1.6587,2.0481,-2.5013,7.2546,-14.3754,13.5796,8.2864,-6.8635,-5.2916,-1.4458,-3.099,-1.2428,1.9009,
-3.8043,-11.4411,2.6484,0.78227,1.2757,-18.0926,14.4521,5.1376,1.0206,-7.1433,4.1846,-5.5646,4.8573,-2.7924,
-5.9864,-18.9498,1.5251,2.1816,-5.5495,-18.4533,12.6206,-9.2706,6.2615,-6.2328,11.6463,-3.7845,4.5658,-4.0711,
-8.7605,-13.2333,2.1568,2.2914,-9.7961,-19.515,5.3557,-7.3886,6.127,2.5771,13.1169,0.057786,3.0868,-0.69359,
-9.4399,-10.7521,2.7505,-1.461,-10.8953,-15.2111,2.3832,5.3468,4.0722,5.074,2.4479,0.29575,2.6607,1.0353,
-9.5967,-16.6147,-1.5121,-8.8454,-10.9649,-11.1652,5.3735,0.92836,-1.2336,-4.1487,-7.5811,-2.3733,-2.5609,-0.23238,
-3.2363,-5.9768,-1.4214,-3.4944,-7.8967,-12.9054,7.9436,-2.0194,0.76859,-4.8637,-2.306,0.1792,-2.8892,0.74589,
-3.2833,-5.3773,2.2793,-2.5616,-9.5923,-17.6749,9.6359,0.75309,3.8557,-0.47471,3.3762,0.40919,0.41743,-0.021997,
-3.327,-14.4544,9.1324,-1.6846,-12.1498,-15.8911,12.6737,-4.8357,2.9015,0.75907,1.4864,3.5181,3.0439,1.6665,
-1.6812,-12.623,8.1025,0.82664,-11.9029,-13.9733,11.4308,-11.7764,0.31727,-1.6966,-0.53097,6.6815,0.45118,3.4947,
-2.7856,-6.3223,6.4111,-2.8381,-9.5015,-14.8223,9.5399,-5.526,2.9491,-2.7999,0.70596,0.73722,-1.7453,2.08,
-3.8235,-5.7017,10.1238,2.3936,-5.316,-12.2455,8.2444,4.6873,1.5671,-2.3911,1.8687,0.45179,0.04643,0.75014,
-6.7276,-10.4213,12.6496,5.3832,-8.1306,-13.6802,7.0266,-2.5836,-3.1064,-0.56022,1.9977,5.0042,1.2487,0.46393,
-6.5649,-9.0729,11.6497,0.96289,-10.7762,-16.9567,8.2922,-13.7568,-0.26897,0.1963,1.6369,3.4987,1.4148,0.67706,
-6.6532,-4.6724,4.6839,-0.54138,-6.7552,-8.7087,7.3125,-10.0391,-0.73499,-0.77958,-1.3541,1.8427,-0.59856,3.0468,
-11.3154,-13.7918,-3.5508,-2.1959,-10.9292,-6.9811,3.7405,-10.1599,-6.7162,-4.348,-4.4056,-1.4011,-3.2135,2.1409,
-9.1902,-14.4103,0.51883,2.2746,-9.3093,-7.0442,7.8549,-11.9604,-1.9749,-1.1951,0.19705,-2.2814,0.83569,2.0124,
-7.675,-5.8332,0.9694,-1.7189,-5.8587,-7.5856,8.3472,-14.6175,0.55393,0.32268,-0.77887,-3.1086,0.78532,2.8558,
-4.8041,-2.5906,2.3575,-4.0257,-6.9532,-8.0946,6.4004,-14.2221,-1.4073,0.30355,-3.6244,-0.99365,-0.70783,3.6485,
1.5097,-3.6405,7.7594,3.2053,-4.3669,-3.5116,8.1855,-12.164,0.36394,0.5263,-2.2021,-0.69307,-0.42439,-0.66775,
4.5526,-0.77075,12.8377,2.7722,-0.0072559,-0.64956,10.3457,-14.5674,5.8859,3.146,1.5456,-4.7491,1.2885,-1.8328,
1.3871,3.614,9.1752,0.19577,-0.48898,-4.9489,13.5813,-19.4779,5.0509,4.8855,1.9348,-4.9461,0.72882,0.68734,
0.33982,5.3254,0.42971,-2.7083,1.9507,-4.6522,16.6231,-19.2733,1.3731,3.1463,1.819,1.1355,-2.6891,0.16394,
0.3192,3.0777,-0.56017,-8.3306,0.86934,-3.409,14.1792,-16.1885,-0.63723,-3.3092,1.2277,-0.3791,-6.3844,0.15433,
-3.3151,2.6521,1.1607,-5.6616,-7.6185,-10.6762,9.713,-23.1709,-2.7682,-5.7622,3.3232,-6.3819,-7.2062,2.3142,
-9.142,-0.15839,-1.5603,-5.5626,-9.3308,-14.6152,9.3714,-34.5554,-4.7715,-3.729,1.4368,-3.8296,-7.015,0.0059866,
-4.014,-0.87202,1.6666,-0.16765,-2.2632,-8.1947,11.9426,-32.2411,-2.316,-1.818,-2.2648,1.9438,-4.4249,3.621,
-0.39868,-5.1582,6.3871,7.0735,-1.6453,-10.1133,8.8157,-29.8244,3.6078,-1.2273,-0.20098,-2.5114,0.17911,8.7067,
-6.6413,-11.5972,-0.7446,-1.0637,-8.2952,-17.2191,5.3947,-40.568,2.427,-5.9739,5.1137,-6.2171,-0.7955,1.9173,
-5.2789,-6.0811,-4.5565,-5.3387,-5.3874,-11.3654,9.4094,-44.8828,0.83509,-9.954,8.6633,-3.4339,-2.676,-0.60788,
-2.0699,-4.2702,0.055171,-4.0542,0.72044,-12.13,11.2547,-44.6002,2.231,-7.9107,7.1794,-7.5665,-0.58744,3.7671,
0.22368,-1.3625,4.1494,1.2507,3.8107,-15.0174,11.7847,-46.5035,3.3024,0.51789,3.1332,-5.9072,2.0994,7.6385,
-0.03071,4.2629,1.7313,-0.51135,2.8589,-10.9829,10.355,-53.5954,0.45344,-0.71825,-1.6343,-0.97322,-0.67793,3.083,
-1.4751,-1.2955,2.1094,-7.7115,0.27704,-6.4675,7.3231,-59.0568,-2.9482,-5.9778,0.39195,-2.3611,-4.4936,-1.4407,
-3.797,-5.0742,1.5009,-7.7308,1.7067,-9.4539,2.5454,-60.3337,-7.1101,-4.1729,1.3328,-1.2551,-8.0804,-1.8362,
-3.3282,3.6662,-0.2764,-6.544,7.1479,-12.0202,4.0799,-64.1855,-4.9963,-2.7177,-0.43443,1.9532,-4.9445,-1.0031,
-0.95934,6.0973,-3.3933,-7.3564,5.9959,-12.504,5.5221,-72.1447,-3.4914,-4.2416,0.31476,-2.7435,-2.4789,0.74405,
0.78545,-0.29408,-4.8767,-2.8177,-0.87158,-11.5128,4.9498,-70.4676,-4.0048,-0.85362,2.947,-4.748,-4.0169,2.3866,
-4.3231,-4.3738,-6.7533,-5.7819,-2.5065,-10.5808,3.4477,-70.3366,-5.9339,-3.9357,-0.3631,-0.8475,-6.9092,-1.3718,
-5.269,3.3602,-7.5534,-5.194,5.5976,-5.8486,5.41,-67.8037,-5.8189,-6.833,-0.58228,3.3002,-5.2898,-0.084619,
-3.7476,0.025577,-8.7872,-6.0877,3.0928,-7.6669,2.9163,-65.4227,-5.7107,-6.1821,-0.30638,-1.4771,-4.249,1.6081,
-2.5586,-6.2427,-5.3676,-6.6863,1.9432,-9.1351,0.33117,-67.2819,-4.4037,-3.401,-0.288,-1.3884,-3.9941,-1.3809,
0.72813,2.0856,-0.94845,-4.1159,8.3341,-3.0433,4.8906,-63.004,-4.8629,-2.474,-0.51168,1.346,-5.4421,-0.57511,
3.8182,8.4684,1.7602,-4.5919,11.4497,0.27274,10.6227,-61.8749,-3.8477,-2.5661,-0.24002,-1.8678,-2.4641,4.5211,
3.83,7.2374,0.93149,-3.1115,13.8959,-0.94892,10.2263,-66.1161,-2.412,-2.6531,0.015351,-1.9967,1.2992,3.5269,
0.46675,3.6694,-2.74,-6.0581,11.3747,-1.1332,9.3715,-64.3185,-3.4724,-3.2175,-1.1906,0.77441,-1.912,0.66397,
2.8491,3.9314,0.31665,-5.2124,3.9438,-2.0293,13.6302,-57.0852,-0.85369,-1.096,1.7731,-3.6106,-4.2076,1.1063,
8.4627,8.0339,4.154,1.849,6.5995,0.50283,14.2584,-54.6242,0.16163,-0.54812,2.1489,-3.8761,-2.0268,2.4859,
6.9909,8.9981,2.4588,-3.5644,9.0958,2.4011,10.9925,-55.6853,-3.7047,-0.99739,-0.87235,3.1051,-2.3873,1.3727,
7.0534,10.3864,2.3112,-5.7611,5.6575,0.32836,10.333,-50.416,-3.9643,0.50871,-0.33808,2.9188,-3.6903,3.2185,
7.3533,11.4502,0.0031716,-0.83592,5.5593,-0.41401,10.9181,-47.1498,-2.0395,-2.1731,1.3692,-3.2816,-0.33566,5.1943,
4.9837,9.7991,0.48514,-0.78599,4.7435,2.5031,10.2632,-48.1774,-3.8451,-6.3813,-0.15898,-1.1568,0.64858,4.8829,
6.3719,14.2728,1.6611,2.8766,4.218,0.18332,9.8884,-43.5996,-3.8553,-0.45481,0.091528,3.4919,-1.0776,6.7591,
4.7845,14.6215,0.83853,0.053128,1.7957,-13.9277,9.0539,-38.8142,-3.3833,2.7057,-0.1547,-0.81472,-3.1818,6.5947,
6.9078,13.7442,5.1265,0.04994,2.6521,-20.925,14.7776,-36.9673,-3.6622,-0.83106,0.33652,0.68042,-2.0271,11.0193,
12.2777,14.3656,9.1573,2.4568,9.7236,-15.3312,19.6753,-40.5341,-2.9603,-1.2634,1.2804,4.4958,-1.4233,13.2505,
13.9516,14.9502,15.8389,3.7559,13.4787,-16.3393,21.3871,-39.0661,3.0021,2.6691,4.5778,-1.0764,2.5187,9.0812,
10.222,16.9452,16.3346,6.9046,9.7777,-15.3592,21.0682,-32.8658,2.8215,2.5089,2.8569,-4.8682,4.2953,7.0901,
8.8858,17.1338,9.8109,1.911,8.9501,-6.4837,18.1169,-31.6167,0.0011375,3.0817,0.034383,-2.407,1.3865,6.9056,
15.1013,19.48,9.2223,4.2067,11.7873,-1.7561,15.1014,-32.1301,3.8577,6.2711,4.3709,-1.2984,2.7494,5.5272,
15.8824,21.4445,9.392,9.0157,11.8032,-6.7124,14.9185,-30.4435,6.7595,9.9924,7.2419,-0.97934,5.2357,8.3293,
9.8678,16.5426,3.2849,1.4852,6.0335,-12.8174,16.1928,-31.2682,2.7383,8.1873,2.7098,1.7307,0.82446,8.0703,
8.5528,15.3088,2.3649,-0.77334,2.0561,-9.397,18.3545,-30.5971,0.88697,7.9373,0.8602,6.2064,-0.43007,4.9347,
5.8703,12.2209,5.3561,-4.3421,-0.71859,-10.0385,16.0481,-30.4483,0.11062,8.1842,0.085454,4.6285,-0.64546,4.3974,
6.241,8.3546,5.7578,-2.3948,1.0115,-9.6771,11.9517,-29.8267,-1.5832,7.9341,-0.16064,1.2173,-1.3301,3.8926,
9.9643,9.5406,6.1357,4.7392,4.5665,-7.4091,12.4399,-32.6164,-1.7292,7.2171,4.4287,1.8676,-0.044992,2.4542,
9.8482,11.3781,8.6596,6.3828,4.7744,-10.3392,14.1034,-30.1777,1.2668,3.8918,7.5368,3.2016,4.2963,5.1993,
3.9549,7.8033,5.2478,5.0355,1.5957,-15.9854,9.8832,-20.6538,-0.25544,-0.68007,2.7463,1.0813,5.0023,6.8155,
4.1995,3.9607,6.8611,3.7695,3.9101,-9.7238,11.7004,-18.9326,2.6524,5.6272,4.5097,0.5345,7.1123,6.8885,
2.0196,0.34879,5.0034,2.0973,0.78339,-6.2479,12.4444,-26.9555,2.493,7.7,5.2032,-1.9079,0.90124,2.619,
1.4162,4.6662,1.3287,6.3098,5.5566,-4.427,10.7338,-22.4461,2.3435,5.7917,4.891,-0.34719,2.2934,5.354,
3.5006,6.5558,1.4902,0.38759,11.7312,-3.9202,7.4387,-19.4121,1.9619,4.2389,1.9464,0.87894,4.325,4.3098,
2.8084,1.8239,2.8468,-6.8663,10.5454,-4.1669,5.064,-26.9243,-2.9763,6.8769,-2.027,-2.0661,-3.6475,-5.59,
-1.4574,-2.8652,0.024691,-7.6596,5.8151,-6.5684,5.0011,-30.3705,-4.9669,8.6339,-1.182,-1.2192,-5.1154,-7.9057,
-2.0931,-0.52417,-2.6281,-5.9947,2.3327,-10.2717,2.0499,-26.861,-0.57153,4.018,-1.352,0.54115,-3.6037,-1.8877,
6.9501,8.4251,-0.78343,-4.9124,5.8081,-3.1477,0.72143,-22.1161,0.66782,5.9463,-3.4403,2.1957,-6.5207,0.39449,
9.1846,5.7504,0.9508,-8.715,6.6649,-0.78964,3.8116,-23.4402,-2.9877,11.1332,-2.9929,-0.10522,-6.3704,-5.6547,
4.2952,1.0673,1.8581,-5.2993,3.3728,-6.5268,3.1012,-26.8543,-4.2544,9.0192,-2.3312,0.38326,-4.0598,-5.3152,
3.3144,5.5828,2.4697,-1.8481,1.001,-4.9302,3.1559,-23.556,-1.8298,3.8985,-0.50431,3.0116,-5.0217,1.9933,
2.8743,5.4886,2.0803,-1.9784,-2.6745,-4.8753,7.0641,-22.8658,-2.4431,5.3516,0.24908,2.1078,-5.9255,1.6325,
-0.91354,0.097581,2.6787,-1.6188,-5.1653,-10.1264,6.8812,-25.5912,-3.5018,7.6816,-0.97116,0.29407,-4.3647,-1.5989,
-3.0279,-1.595,4.6871,-1.7626,-5.0964,-8.3138,2.371,-24.7789,-2.5684,3.1233,-1.6358,-2.3747,-3.8618,1.1486,
2.4564,8.1414,6.8162,2.6817,3.4043,1.3441,2.2285,-21.3637,-2.4145,2.9362,-1.5374,-1.2681,-1.2197,6.3826,
5.2013,12.4734,4.4791,-0.85388,8.5025,10.4223,9.3259,-23.4564,-4.1976,4.206,-2.4093,1.7003,-2.1107,0.69672,
6.8174,11.2431,6.1385,-3.2128,12.8131,17.5101,16.961,-25.4232,-1.0537,5.3999,-1.7828,4.4903,-4.8765,0.17299,
8.5773,16.5938,5.0468,0.11325,15.6595,11.8796,9.9176,-22.693,-2.1955,2.4246,-3.8452,1.0876,-3.3789,4.7417,
7.581,14.6345,5.7084,-0.85764,7.9712,-2.8123,2.0919,-22.7774,-0.61775,0.83309,3.6161,-4.7624,4.5369,2.0473,
5.4389,4.3565,6.089,1.363,1.9493,-11.5616,6.5457,-24.0621,8.8193,2.9523,17.1379,-3.2714,7.8801,-3.1372,
-4.5284,-2.6538,-2.4713,-6.9135,-5.3982,-12.7961,1.8146,-34.1875,8.7721,0.365,12.7352,-0.66497,-1.2698,-8.2517,
-2.8107,2.3259,2.4975,-8.4267,-7.4847,-4.7977,-4.0791,-34.5466,3.4253,0.82481,2.3299,2.2672,-3.1216,-1.0079,
6.2758,8.2121,8.3734,1.9606,1.4003,5.8542,3.1553,-22.1097,-1.3598,1.4984,-3.8352,3.8186,-2.2116,2.6682,
4.9352,8.6835,4.9785,-1.5312,5.6546,6.4671,10.1971,-19.8191,-3.2061,-1.4837,-4.0873,4.0712,-2.5611,-1.3485,
3.434,7.4393,3.4747,-1.6805,-2.1563,3.9101,10.3084,-25.1376,-2.2906,-3.5637,-0.70877,1.658,-3.1301,3.312,
7.5665,0.2443,6.1585,5.6514,-2.509,2.7114,9.6897,-25.0754,-1.1891,0.50632,0.29785,3.0046,2.3601,8.4161,
7.3537,-1.4574,8.4403,1.6966,4.1492,4.2357,11.2777,-19.9555,-1.3589,0.71714,-1.407,6.4399,6.3161,3.8136,
4.2614,8.994,8.1751,1.8363,7.5157,7.597,11.3244,-18.5169,-3.9285,-3.4232,-1.5636,2.9201,2.8036,0.45126,
2.318,6.2852,6.4791,2.9309,4.4132,3.0434,8.4753,-22.4678,-0.077834,-0.56675,-2.1931,-2.7988,-1.9443,2.1114,
0.97411,-5.9023,6.8139,-1.8245,-5.2512,-1.2363,0.49519,-25.699,2.0967,2.1186,-2.7842,-2.3896,-3.9966,2.7079,
3.8077,-3.6202,8.815,-0.26896,-4.9363,5.1046,0.94718,-24.6393,1.0063,1.0274,0.75662,-2.2465,4.4381,3.9914,
7.4359,1.9001,9.2504,6.0142,4.037,5.2802,9.0855,-23.1607,7.6949,0.96572,4.0861,-2.1117,11.4027,7.1264,
4.3384,0.58058,6.0441,4.4482,2.5895,-0.098031,3.4789,-25.3865,9.4026,0.18465,0.70726,-1.2619,4.2108,5.9757,
5.2834,2.7151,5.9226,-1.8444,-3.1093,6.4156,0.61888,-26.0324,1.8488,0.8967,-0.057851,-1.9093,-2.5495,2.9663,
8.8225,6.8908,9.9053,-0.76967,-2.441,10.8511,9.7405,-22.5425,-2.6012,0.36073,1.3912,-2.7588,-0.46861,0.85941,
8.5342,3.8258,10.5163,4.3377,-0.12518,6.1027,9.3971,-12.2721,3.5809,0.58006,2.513,-1.388,1.2467,7.3158,
5.371,0.4632,7.7162,3.3546,-1.3227,3.0854,3.2896,-10.3305,6.0171,1.7505,2.1213,-2.51,-0.51484,7.1178,
4.808,7.4251,7.9763,5.3227,-1.4843,5.0692,5.744,-18.6285,0.11273,-3.4159,1.7533,-3.5645,-0.72514,-3.6729,
1.6266,7.4615,8.9436,1.1465,-5.2519,2.8369,8.7734,-17.9932,-1.3403,-10.4423,4.0577,-3.3506,-4.0561,-4.4173,
2.9755,4.1215,10.3354,0.11405,-1.0804,2.6664,8.7292,-10.6469,3.0787,-1.6208,9.1171,1.6709,-3.3306,5.4889,
2.5557,-1.1872,4.6538,0.83034,3.5639,-0.1444,6.518,-16.5155,-1.6856,4.5022,7.847,-1.5626,-5.3001,1.0625,
10.1154,1.7763,11.6052,6.0829,9.1347,3.2385,14.8037,-12.1504,2.7537,2.3041,13.161,-1.951,1.2846,1.9624,
11.6776,3.8389,13.5602,7.4052,5.4534,6.6596,14.1569,-6.8418,4.2761,-0.0032858,11.648,-0.62865,4.341,3.5323,
7.1206,0.71602,5.9979,3.1045,3.6799,7.2239,8.0049,-12.2159,4.9834,2.407,7.0927,-2.0372,0.22373,1.8741,
5.729,-0.77274,4.6739,-1.9025,5.3875,8.7186,6.0783,-17.2675,9.5051,0.81636,6.6671,-0.4687,-3.1637,0.31539,
10.447,2.889,8.4911,-1.065,9.1616,8.9189,8.3652,-12.6161,8.6939,0.52641,9.4006,5.103,-2.7329,1.0198,
8.3741,-0.17659,4.1252,-3.4114,5.2377,0.67075,5.4529,-11.3769,2.3874,1.4589,6.4267,0.4583,-3.533,-5.3081,
4.4972,-2.0942,-0.46084,0.1677,-1.8252,-1.7796,4.1614,-9.2483,4.6543,3.2996,4.5948,-3.4256,-2.3567,-5.4716,
-1.3162,-4.6201,-3.0847,-4.904,-5.8133,-1.4319,3.6708,-8.4524,1.7239,0.93244,3.5957,3.2874,-2.9387,-2.0102,
-0.5139,-2.1737,0.71599,-9.6715,-1.8491,0.8232,6.584,-7.7043,-0.54865,2.0818,3.139,6.7056,-3.9676,-1.6486,
-0.4833,3.2596,2.6012,-2.3421,-0.29188,3.1842,6.1887,-7.2418,2.3766,3.4029,-0.90546,1.4828,-5.1756,-3.9596,
-0.45407,4.992,3.8912,0.20836,-2.2028,3.4753,4.3714,-7.2895,6.0901,1.7527,0.59489,1.876,-3.901,-0.83022,
2.9474,6.6209,2.2117,-2.6964,1.7858,4.2309,6.5195,-4.9239,0.4223,-0.28088,2.0052,3.6914,-5.113,0.66608,
1.8065,9.5978,-1.2955,-6.3913,2.1608,5.905,7.5743,-4.1465,-4.4235,-1.2281,-2.4536,2.5058,-7.6985,-3.2305,
-0.95302,7.3347,2.8798,-4.8025,-2.5484,6.274,3.0225,-5.5848,0.42117,-1.3954,-2.5474,-0.29563,-6.9956,-2.7952,
-0.6551,5.6896,4.8762,1.9934,1.7023,5.6564,-2.7022,-6.9369,-0.80916,-0.10661,-0.22515,-1.483,-5.8527,-0.4586,
-2.7852,4.6251,1.9323,-5.5978,5.6973,3.63,-2.2994,-11.5824,-5.8221,0.62291,-1.4167,1.7393,-6.7066,-4.0463,
0.75683,3.8657,2.7807,-6.2258,5.8379,8.2329,6.0338,-9.4409,-2.5802,0.58554,-1.8136,5.9737,-5.3399,-4.2854,
2.3982,1.4646,0.9264,-2.2373,5.7281,12.3178,4.466,-4.2954,-4.595,2.7196,-1.9462,5.3738,-5.2609,-2.3415,
0.085371,2.5817,1.112,-6.6826,2.7336,9.8917,-0.86296,-2.3502,-6.0063,8.1002,-1.5883,3.8464,-5.186,-0.031654,
1.2851,4.596,-4.4983,-10.8609,-0.082012,3.2727,-3.9447,-6.3068,-7.3332,2.5525,-5.1084,-0.96371,-8.9727,-7.0196,
7.9567,9.1407,-4.7104,-2.9786,6.1897,8.3792,3.0407,-1.5898,-4.0009,-0.4929,-2.8735,0.54014,-4.0958,-5.152,
4.1048,2.8077,-0.57157,1.5384,0.99756,8.3584,2.3763,3.808,-5.2071,0.50054,-1.2553,0.50773,0.9707,1.4237,
2.8946,2.6392,-1.0192,-2.4103,-6.7751,-0.82024,-2.587,0.6872,2.3362,-1.4577,-2.6262,-1.4509,-0.5338,0.37392,
8.9877,11.1578,1.9342,-3.7117,1.3444,3.0856,0.94246,-5.1386,10.3909,-2.8163,-0.54021,-0.88171,-2.4302,-1.0945,
4.1099,10.9704,1.336,-1.5606,2.7098,10.613,0.88615,-7.7226,-4.212,-3.6114,-0.025634,-3.2392,-3.7304,-2.4749,
0.72982,6.2149,-0.91331,-2.1903,-6.3706,6.8432,1.5559,-5.0898,-7.5747,-1.2255,2.627,2.0169,3.4833,0.32469,
-0.76,0.057168,-5.679,-4.9512,-12.7371,0.16586,-1.4298,-11.0512,0.11082,-3.08,-0.90484,1.8956,0.382,-2.5871,
0.24992,0.053738,-3.892,-1.2797,-3.296,9.3149,0.58421,-8.4599,2.0324,-3.8595,-1.3325,-2.5564,0.35908,-2.4319,
1.681,0.050743,0.67985,0.72509,4.1324,8.7558,5.8516,-3.1319,-5.3206,-2.6638,0.67542,-0.95701,5.6399,0.12441,
2.544,2.9398,5.4595,4.056,3.4025,-1.8929,4.5366,-5.8362,-7.8935,-2.504,1.1168,1.9925,5.7835,1.5632,
2.1501,1.0764,8.2652,3.5715,2.475,2.3183,4.0232,-3.7991,-2.3584,-1.6306,3.2192,-5.5987,5.1953,4.1203,
2.7447,-1.6395,7.0464,2.6345,2.5679,10.1331,6.9155,4.3831,5.7371,1.1185,7.6056,-5.0215,5.6072,6.5248,
-4.4098,-3.2284,-0.84818,-3.0672,-7.9505,0.60708,-0.48926,-3.8339,-0.63316,1.2924,2.0876,2.7516,0.20904,-1.3385,
-8.4838,-3.9988,1.1307,-5.2935,-13.258,-4.2498,-2.8703,-10.8347,-4.4513,2.1789,-1.8938,0.65804,-0.28566,-3.1866,
-4.3596,-1.1075,2.2681,-0.39637,-8.3652,-1.8254,-2.4568,-5.1231,-0.087128,-0.60312,-2.5033,-2.5147,0.93654,-1.3084,
-0.48236,-0.31795,0.92697,-4.9521,-4.2479,-2.4391,-5.4427,-1.6823,0.1593,-0.32574,-2.112,1.2514,-0.32471,-3.3988,
2.9208,-2.2273,6.6559,-4.1728,-3.993,-1.3286,-3.6701,-2.0635,-5.1527,4.9962,0.42466,-2.1979,4.5153,-1.7488,
2.9868,-0.4062,8.9079,5.9597,-3.5122,3.813,3.0578,-2.6626,-3.6385,4.4557,1.1223,-3.2711,12.6807,4.3819,
-3.459,-3.7563,6.4452,2.7096,-8.6041,1.1736,1.91,-4.431,-1.01,-1.1143,0.091108,0.2996,8.063,4.1189,
-4.4567,-7.1463,3.8894,2.3061,-10.257,-3.4761,-1.3376,-1.0319,-3.6005,1.6037,2.2548,2.4508,0.10742,2.6665,
-4.4303,-6.4766,1.0044,1.9267,-3.6161,-3.5089,0.91181,-1.6931,-3.6254,3.6766,0.43229,0.13458,-1.5862,-0.14457,
-3.6825,-5.1237,0.94418,-7.8298,1.9035,-4.7442,3.7492,-6.8942,-0.9978,1.5278,-5.3782,-3.7299,2.3653,-6.8848,
-6.3539,-10.601,-1.5226,-8.3241,-1.5849,-5.906,1.5962,-8.8907,-1.902,3.3646,-5.5377,-3.9883,0.77736,-6.9539,
-5.0088,-13.8214,-1.9134,-1.5582,-7.2746,-1.6953,-0.42772,-3.5367,1.5866,6.5367,1.5435,0.10743,-5.0539,1.1761,
2.7638,-5.0381,0.85272,1.6686,-1.7767,7.8067,0.32061,2.701,4.1422,7.3496,1.2097,-0.62215,-4.0275,1.8287,
0.42857,-2.5664,0.56059,-2.5287,1.4634,6.6151,-0.90323,-1.5584,3.653,5.704,0.41396,-6.1282,1.2756,-3.3425,
-10.4429,-11.8125,-5.9808,-7.4386,-10.4348,-7.5201,-6.3926,-5.5622,0.30075,2.7102,0.14815,-3.1094,-0.97009,-7.2393,
-4.273,-7.0066,-7.3091,-4.341,-11.0137,-1.5255,-6.7322,-0.64923,-0.44043,1.8244,-2.5121,3.1029,-4.0451,-5.5999,
0.80365,-1.2835,-6.3884,-7.9369,-2.6399,9.6533,-6.3283,-4.9486,-2.8246,0.26918,-8.1459,-1.904,-3.8024,-6.2277,
-2.619,-2.6528,-4.0772,-7.4612,-1.5176,1.8432,-6.431,-6.5801,-3.137,1.6988,-5.247,-2.2717,0.28164,-6.3365,
-2.4619,-3.4579,-2.8684,-7.4954,-3.8367,-5.4982,-7.9733,0.56361,-3.4308,0.15064,-3.486,2.6849,-0.69913,-5.4743,
-0.62671,-2.5269,-0.04477,-7.7684,-1.4371,4.7138,-4.3612,1.7351,-2.0198,0.38326,-4.9638,7.1038,-1.8622,-2.976,
-0.58911,-3.3396,-1.0062,-2.482,0.094909,8.7693,2.167,-0.29744,-3.8269,4.2162,-4.666,8.1233,-0.78618,-3.2799,
1.6154,-6.2727,-3.1152,-4.0203,-0.63369,-1.6388,2.2779,2.3717,-4.8025,3.2403,-3.6631,1.6104,1.4301,-3.324,
4.411,-2.5219,3.3385,-0.88658,3.7427,-0.094174,-0.26887,3.1935,2.2345,-0.81049,0.41307,-3.7889,7.6109,1.6957,
3.6642,2.9318,6.9943,4.951,7.3743,8.5883,0.22897,1.0735,2.5822,-1.244,5.2088,-3.0794,10.0465,2.558,
6.0956,-0.37687,3.9238,2.485,7.6554,4.9398,3.3489,2.2146,-0.22364,-0.44625,2.7273,-3.6177,6.7924,0.71753,
8.3812,-1.5598,4.4113,5.9511,9.365,2.9564,2.9068,7.1432,0.99485,0.30365,0.39428,-4.1238,6.626,5.254,
2.094,-0.019703,7.521,5.1123,3.0187,8.5634,1.7683,7.6787,0.93538,-3.5707,2.299,-3.3942,7.6745,6.3852,
0.28091,-1.2236,4.9006,0.70798,-2.706,12.1472,-0.024791,4.5666,-0.80819,-7.4541,2.8842,-3.9137,4.0808,0.45829,
2.9151,-1.8735,-1.4194,-0.057857,1.0716,9.7306,-3.1568,2.1232,-2.4469,-1.4637,-0.42277,-1.9916,-0.26188,-2.7027,
3.7043,-0.31509,1.0763,-1.5004,0.52556,6.7369,-3.4495,2.9602,-4.2281,0.55258,-1.8434,-2.8362,1.6823,-2.0584,
5.6512,4.7655,7.0373,0.27684,3.1451,9.9481,-2.0373,9.29,-1.3233,-1.1678,-2.4557,-3.3894,3.7505,-2.1758,
1.6972,-1.546,2.9996,-3.3552,2.2335,5.7358,-5.5305,7.0456,2.8535,-1.3387,-4.4775,-5.3548,0.39242,-3.2506,
2.3183,-6.5149,6.4348,2.3897,-1.9983,3.2225,0.82691,7.8277,8.2259,0.91078,5.1911,-2.8648,5.912,0.077486,
0.49195,-6.8469,9.1825,10.6825,-5.0114,0.37805,8.2491,8.5636,11.8297,2.0614,12.8334,-3.4158,11.1014,1.7605,
-2.6711,-7.6414,6.9441,6.4257,-7.3623,-9.0451,5.585,4.9163,13.289,4.1069,9.4123,-5.38,8.2657,2.8597,
-0.34163,-7.4239,4.8404,0.014566,-11.982,-10.6715,-5.5964,1.4881,1.1635,1.6913,1.3757,-2.888,1.2623,-1.8911,
2.0895,-2.1582,8.4064,-1.4326,-4.9966,0.57404,-1.4042,1.3988,-5.1728,0.14359,-5.4557,1.1416,-1.7055,-4.6702,
0.27686,1.5867,10.5531,1.7869,4.2215,9.9396,6.6343,0.10956,-1.729,-2.5161,-13.0821,1.3141,-3.7728,-3.1847,
4.5988,5.3481,11.3664,5.5363,0.59353,16.0919,2.8615,7.3338,-1.6255,-4.7755,-13.2613,2.1993,-2.5824,1.8269,
6.2508,5.027,14.0586,1.8294,-5.7086,13.6804,-3.0945,10.7502,-1.5277,-2.0786,-7.6451,0.62136,-2.9091,2.6814,
4.1886,6.4126,14.9023,4.3712,-2.2328,7.3159,0.22418,8.9001,1.2151,2.1434,-7.4274,-0.13883,-5.3861,3.2438,
6.1064,5.305,10.3928,4.8318,0.07031,9.0461,1.416,11.4994,1.3831,-0.15432,-8.187,-0.37146,-4.822,4.254,
8.8737,3.2997,9.0461,1.8906,-1.139,10.1904,1.0899,10.0865,0.577,-2.3144,-4.5625,-1.0723,-2.3633,2.3118,
5.2076,4.3068,9.2265,1.054,-3.722,4.9994,6.0859,3.9377,-3.0728,-0.97052,-5.0119,1.161,-3.9085,-2.4064,
3.2079,2.8431,6.9856,-0.69643,-5.6678,5.9047,8.8543,5.8706,-6.0219,2.7031,-3.9878,5.1887,-4.3973,-1.0572,
5.6668,0.021153,2.4689,0.068481,-4.1227,6.2736,1.8153,9.1335,-3.4912,5.1923,-3.9898,3.6723,-6.7848,0.69368,
5.8091,0.98375,2.3208,-2.3458,-0.98302,0.59453,0.74204,6.1754,3.4667,4.8807,-4.2323,2.0057,-5.8958,-1.2761,
4.2558,1.1662,4.8331,-4.8561,1.2454,0.31789,5.2777,5.082,2.5363,1.4549,-3.7374,2.1268,-4.8187,-2.8868,
-0.82029,0.61425,0.68672,-2.1546,2.135,2.7094,2.0685,3.331,-1.9547,-1.043,-3.5132,0.5529,-5.0115,-3.6775,
-2.4585,-2.5563,-1.5239,-2.7485,-3.055,2.3056,1.2213,0.96178,0.81391,1.6709,-3.0612,-1.6497,-3.5057,-3.2161,
1.3044,-2.6439,1.701,-1.3783,-5.5228,3.8545,3.7991,5.9655,3.4162,4.7041,-5.0467,-1.7917,-1.6082,1.0743,
-3.1124,-3.4494,0.63465,2.0787,2.5213,4.105,0.67888,7.5358,4.1753,4.4216,-3.2978,-0.72006,-4.8859,3.4202,
-6.2999,-5.1704,-0.36752,1.4718,6.2264,0.48444,-0.32595,3.2273,4.8889,4.6385,3.1668,-2.1229,-7.0031,1.287,
-1.8245,-1.7271,0.37766,-1.2676,-1.619,1.1783,-2.9575,2.3105,0.98012,4.1192,3.6997,-2.7184,-7.3063,-1.4418,
3.1059,-2.5871,1.8015,-5.0477,-5.3782,-0.82039,-5.1904,1.6899,0.43961,3.3899,0.5854,-0.62734,-8.7959,-0.87312,
7.9805,1.1833,4.8262,0.31613,7.2365,-1.9762,3.0745,4.7218,4.5104,10.6581,4.1655,0.61536,-4.171,2.3125,
5.092,4.4867,2.127,-1.1486,12.1054,0.55247,3.8549,4.4387,0.38381,7.1265,2.4697,-1.8317,-6.3304,-2.6465,
2.8581,4.6992,4.8912,-4.4539,3.6661,0.037163,2.659,3.6902,0.36055,2.3604,2.3213,-1.2396,-9.3253,-3.9342,
6.0606,3.4534,6.5259,2.5617,3.4459,-4.7853,7.3202,6.3609,5.6411,7.0395,6.0384,1.7268,-3.9455,-1.288,
5.6972,2.7641,5.1702,0.962,7.5779,-6.9086,5.9169,5.9794,5.3029,9.0275,5.6764,2.1054,-2.2623,-1.2105,
2.2221,5.7315,7.5114,-4.6396,2.0614,-6.2533,-1.4282,3.4513,-0.55915,3.4239,2.6844,-1.1542,-7.6704,-2.8253,
4.4991,10.2085,8.0248,-1.4684,1.456,-2.5034,2.0321,8.5469,-1.9716,2.2549,2.0412,-4.4592,-7.6919,-3.1375,
3.2648,3.811,5.6151,-1.3808,2.8144,1.5032,4.8023,11.4083,0.5568,1.6372,1.4364,-8.0485,-4.8202,-3.4316,
1.3817,0.93122,5.5192,1.3536,0.95832,4.0641,0.89871,9.0365,1.2467,-1.5945,2.0735,-8.7704,-5.2544,-1.0566,
2.022,5.4549,2.5367,1.0312,0.17815,0.20503,0.60405,5.8433,-3.4076,-4.6321,-1.1841,-8.4854,-8.0724,-2.6802,
3.3471,7.056,3.349,-1.4406,4.9879,1.1568,2.0138,8.3852,-4.1672,-0.97952,-5.4516,-5.5659,-8.5517,-5.8936,
2.9051,6.3914,6.2809,-2.5597,4.9294,5.6669,-5.579,6.6766,-4.1584,2.2125,-4.8833,-5.9551,-8.7621,-2.4067,
3.6949,6.0077,5.9043,-2.8882,4.1515,3.3985,-9.5824,3.8658,-4.873,1.1157,-3.6262,-10.9002,-6.308,-2.7445,
6.3653,8.0574,3.1399,1.1414,9.687,3.1946,0.63353,11.3467,-2.1705,1.0483,-2.4448,-6.8717,-1.1093,-7.4001,
2.6089,7.092,0.058969,-3.7473,4.2855,5.8954,3.97,11.148,-2.5222,4.8422,-1.3338,-2.603,-3.4528,-6.9561,
0.042229,3.7744,-1.8728,-7.8608,-0.79235,6.0236,-1.0889,1.802,-5.7453,6.4799,-1.7357,-2.9292,-8.5483,-2.6823,
3.173,5.235,-4.8937,-2.3281,9.6193,4.4572,0.66339,3.3809,-7.0876,0.54724,-1.3908,1.3441,-5.3841,-3.2445,
3.7055,3.7156,-4.841,-3.8752,10.7294,2.5025,2.7928,6.3115,-7.8676,-5.0292,-2.0303,2.9507,-2.4099,-4.7371,
0.35035,2.7695,-1.4173,-1.9557,4.0603,3.5574,0.45626,6.656,-4.2618,-0.62988,1.2248,-0.84155,-2.5061,-1.8015,
-4.9733,0.67514,-5.1886,-2.3203,-0.52211,1.4158,-4.3918,5.2928,-2.0779,-2.0383,0.18699,-3.6836,-3.3201,-3.1397,
-2.747,2.5631,-5.8414,-5.0734,-3.865,0.36673,-3.6462,5.9393,-1.9535,-4.8083,-2.2341,1.8403,-1.6744,-4.3973,
-0.41275,6.5069,-2.3577,-1.1533,-0.017461,2.5141,0.18826,4.3779,-2.5594,-0.42225,-2.8232,-0.92143,-3.2609,-3.4104,
-2.3162,1.2957,1.6402,-0.60219,5.7677,-2.9394,3.069,1.7046,0.96861,-0.39691,0.72064,-14.9661,-4.9939,-2.2419,
-2.1772,1.218,4.9162,0.39781,3.0115,-2.2811,1.4391,2.5667,1.3929,-4.2295,1.6413,-19.7325,-2.2837,-1.625,
-2.0468,5.0011,5.5853,-1.5545,0.9024,2.1943,-0.093752,3.8587,-2.0654,-4.4579,-1.3495,-16.6206,-2.6288,-2.492,
0.24562,6.3887,9.83,-1.2198,6.8743,-0.58842,3.0454,4.8325,-3.1467,0.38934,-0.54517,-17.3101,-4.1583,-2.1011,
2.1591,5.041,11.1684,-0.18228,4.0517,-1.9994,0.93444,3.0963,-1.5117,0.84791,0.45141,-16.7534,-2.9445,-1.975,
-2.55,-1.2872,3.9901,-7.6434,-6.5555,-0.67435,-4.6655,-1.669,-0.69785,-3.7825,-2.227,-15.5075,-5.4191,-2.5796,
-2.8791,-0.72781,0.37646,-4.7744,-2.788,0.81214,-2.939,1.3234,-1.1381,-2.5914,-3.0575,-12.6491,-5.5762,0.46742,
-0.29604,3.1725,1.318,-3.0419,7.5024,-2.1289,2.5397,6.0645,-0.58769,-0.025591,-2.3919,-9.9617,-2.8312,-0.042785,
-0.037311,-0.15136,4.3724,-8.403,5.847,-1.7602,2.6283,4.9777,0.17047,-3.6395,-2.0074,-12.0156,-3.3847,-2.6913,
-0.27627,1.0628,8.2076,-2.3555,0.91667,3.4073,-0.18073,1.0634,-0.080494,-4.1442,0.28245,-12.9816,-4.8686,-2.2891,
-1.2236,2.9272,5.787,-3.178,-1.0665,3.2029,-0.65181,-0.44621,-2.4862,-1.0035,-0.21689,-10.2745,-3.6126,-1.6694,
2.7062,3.2335,3.5111,-3.9516,4.3001,2.0464,1.3155,5.8471,-2.3371,-1.4252,-0.20388,-10.14,-1.9496,-1.5692,
5.9181,2.5573,0.40814,0.14207,6.452,1.4415,0.27246,5.978,-0.75036,-2.7858,0.77245,-11.46,-3.2787,-2.9215,
3.8758,6.5013,2.0709,-1.0717,4.8601,4.0061,0.49708,3.9321,-0.46437,2.4426,0.96707,-5.2288,-1.3952,-2.9872,
5.8126,12.1374,7.0085,-0.76624,10.1123,6.4175,4.0829,11.1682,-2.6059,5.9117,0.66831,2.075,4.2324,-0.63859,
5.2224,5.8651,7.3109,-2.8899,10.2285,0.97075,2.6322,13.1492,-2.6905,3.3874,-0.57708,-5.0394,6.6295,-0.3593,
2.258,1.8978,3.2568,-5.3676,7.9275,-1.739,-2.105,6.3347,-0.35992,0.051108,-1.2654,-12.2088,1.6525,-2.5069,
5.4967,7.0868,1.133,-4.5634,15.6468,3.6682,4.7699,7.883,-1.3024,5.3505,-1.6716,-6.1739,0.10728,-1.3924,
8.3007,9.3129,4.1988,-3.5664,17.3593,7.0633,11.9558,8.6151,-2.4293,9.6089,-0.84818,1.6686,1.7878,-0.10379,
8.7665,10.1999,7.8032,-0.94232,10.0508,3.7474,5.4539,4.7237,-2.2836,4.6941,-0.79728,0.12224,1.6806,-0.097561,
7.9995,9.347,9.0218,-1.6087,8.2429,0.87102,1.0288,7.5738,-2.3875,3.6891,-0.50848,-3.0186,1.8207,2.5594,
2.6988,3.484,5.1065,-1.9941,2.4457,-1.5914,3.8596,9.0476,-2.2443,6.8422,0.48635,2.9471,0.74759,1.442,
1.0909,0.86456,0.94348,-0.91081,-9.7524,-0.53179,0.2538,5.6124,-1.1455,4.5037,-1.4712,5.6626,-2.6719,2.3195,
2.9534,7.079,5.2254,-1.8203,-5.793,3.3563,-3.618,7.2036,-0.1127,-0.58747,-2.3471,4.3587,-3.9577,6.5185,
2.7766,14.8494,5.8762,3.5921,4.196,4.6016,-0.50844,11.5921,-2.0341,3.3046,-0.27805,7.4717,-1.3096,3.7177,
0.44066,7.4507,2.8723,3.1353,-3.5278,1.1918,-0.71913,10.6559,-2.1533,6.7215,0.94369,5.8183,-3.4004,-0.60296,
-3.6831,-1.4324,5.3511,-2.1145,-10.7879,-1.5308,-4.7733,8.8112,-0.33686,1.739,-1.2821,-2.9669,-5.848,-2.254,
-6.1135,3.233,4.7888,1.1457,-3.151,-1.6801,-2.3175,8.5233,-1.0398,-2.9449,-0.96397,-4.4759,-0.43517,2.4607,
-5.0235,0.8701,1.8502,1.8001,-2.2388,-2.3025,0.47283,8.2531,-1.2181,-3.9733,2.2271,0.37215,5.6163,7.8565,
-4.9631,-4.7257,1.4982,-0.47711,-7.6481,0.48723,-5.5815,9.9271,-2.3503,-0.60184,0.40627,2.037,2.6282,5.2159,
-4.9067,1.5834,-0.27893,-1.1718,-2.128,6.4831,-5.4876,10.0543,-0.52208,-0.32476,-1.3053,1.1915,2.2291,1.2876,
-2.2017,4.3809,-1.708,-1.1011,0.8922,5.1302,-1.302,5.5947,-0.0088249,-4.6436,-1.7089,0.63804,3.542,-0.23595,
1.3044,0.74358,2.7328,0.41079,-1.5715,4.8224,-1.7058,9.1154,-0.0082958,1.9015,-1.6064,3.0099,-1.4912,0.26014,
-0.94283,-2.4347,4.7378,-5.6396,-6.0567,5.7381,-4.2548,8.3277,0.2334,3.4749,-1.7512,1.1423,-2.1248,-2.4068,
-0.4041,1.086,6.8639,-5.783,-6.1755,5.3941,-5.4455,3.0076,-0.7447,0.85605,-0.68205,0.10966,5.2333,-1.7802,
2.0303,3.431,7.8983,-2.5435,-2.4305,-1.1961,-5.6007,3.3091,-0.21809,4.6611,-1.1231,4.9238,7.3298,0.25524,
1.1853,4.9126,8.1475,-1.6682,-1.0796,-10.0426,-2.6133,4.3156,3.8926,7.5147,-0.33255,4.8691,6.6489,-0.0012696,
-1.5369,3.4125,5.9714,-0.3628,-2.7016,-10.163,-2.6975,1.8875,2.9361,3.9308,-0.071626,4.336,6.009,0.72171,
0.0013576,-0.64883,6.5773,-3.7153,-4.4679,-2.8045,-4.946,3.7027,-0.61472,2.2484,-1.0314,7.4501,-1.1003,2.1244,
1.6883,-0.85064,9.3159,-0.84147,-4.923,0.97896,-2.9623,7.0957,0.14529,-0.055415,-1.6927,6.2799,-8.5063,2.2382,
-5.4024,-2.0049,6.5878,-0.54956,-2.9404,-2.2128,-2.5436,4.0189,-0.1044,-6.56,-1.3501,5.6622,-8.2369,0.41665,
-3.8735,-4.5357,4.5053,-0.75755,-1.0767,0.089125,-2.6319,5.9469,-0.3391,-6.4074,-0.54577,7.974,-8.9475,3.5251,
-0.02563,-2.0944,0.61953,3.3853,0.67512,2.7349,-1.7511,6.313,-1.0421,-3.8538,-0.27206,4.844,-13.4723,2.5903,
-5.5677,-2.6921,0.34139,-0.43328,-2.4989,-1.0446,-1.4051,0.39058,-0.25623,-0.48908,-0.014771,3.3485,-11.9411,-3.5907,
-4.7517,-3.9764,1.2852,0.074648,-4.7591,-0.49957,-4.2128,3.2597,0.72302,3.3967,-1.9421,3.1476,-10.2603,-3.3753,
1.3184,1.0825,1.2081,4.8909,3.2393,2.4225,-4.9244,9.3306,1.644,-0.1816,-2.7899,1.9944,-10.1266,-0.76215,
1.2393,1.9818,3.5462,0.74104,5.4555,-3.9894,-4.1465,5.3968,1.5453,-4.0266,-1.1762,3.3215,-6.6265,0.72984,
-2.2097,-2.4756,1.887,-1.2318,-3.0672,-4.2322,-7.2724,2.6621,0.48851,-1.8571,1.3047,6.014,-7.1935,0.68582,
1.0564,-9.7989,4.4248,3.4218,-6.0162,-0.84478,-4.1845,5.154,7.931,3.316,7.7339,4.9303,-4.5927,1.3676,
9.6698,-6.8006,14.2825,13.8216,3.0214,-4.1683,3.7791,9.1833,19.9884,9.3834,16.9111,2.706,9.1805,9.9624,
4.2692,-0.12581,5.2306,8.1718,4.2864,-9.2211,-2.7139,6.2219,10.5942,1.5897,10.1116,-1.3125,5.7373,5.9904,
-2.9769,-0.35969,-3.5189,-5.093,-0.55057,-0.23169,-3.2745,6.5715,-2.8159,-6.4594,-1.3414,2.8636,-7.8633,-4.2509,
-0.62885,-1.0608,5.6101,-1.6541,4.5444,7.2538,3.9117,8.8285,-2.8877,-3.9029,-2.4659,7.2713,-3.7763,-0.38069,
-0.59112,-3.8897,7.6836,-1.073,5.2356,-2.3405,-2.5896,2.9962,-1.7506,-5.5969,-3.2819,-2.8059,-0.17527,3.0166,
1.6135,-3.4153,7.9459,3.0892,2.7523,-1.4767,-6.5315,4.5041,1.4879,-5.984,-2.844,-5.7711,-6.1903,0.18451,
3.4451,0.16429,9.3971,8.6882,2.5874,10.1813,-5.1755,9.0543,-1.0117,-3.6965,-3.6374,-2.5325,-5.8187,2.5838,
-0.61821,2.5648,7.3873,3.3465,5.8064,7.1601,-7.2754,5.6188,-2.397,-1.0644,-1.9732,-0.93406,0.31482,8.6951,
-4.9194,-3.8561,-1.7326,-2.157,4.976,-3.8748,-13.1054,1.4253,-1.7713,-1.4829,-0.40851,0.085848,-4.0424,1.4249,
0.91935,-9.1683,0.54005,4.9623,3.4722,3.8295,-7.2578,6.8829,1.9504,3.6677,3.2314,5.1419,-0.66682,0.61605,
2.0692,-5.9669,7.4973,7.3154,0.61253,7.6968,-3.6891,4.3005,-0.81793,3.6884,-1.06,2.6645,2.0245,5.1586,
1.2217,-0.065267,6.3246,1.8153,0.33481,2.6557,-8.047,1.3914,-0.52789,0.33408,-3.6475,4.1918,-3.1586,3.6438,
-5.1179,-6.81,0.16073,-6.0066,-7.3983,-1.8422,-16.2411,-1.5844,-0.01405,-3.5426,-0.5364,7.3145,-10.1997,-4.2874,
-9.8725,-13.8732,-1.5361,-0.10216,-11.5337,-4.8647,-16.4715,-1.2483,-1.2185,-1.1604,2.6293,9.5272,-8.3825,-3.3068,
-4.2187,-12.3177,-0.23891,4.483,-4.3339,-6.7422,-12.8323,4.3704,1.024,3.4883,2.2303,12.5708,-3.3,6.2914,
-3.9658,-12.0608,-1.6711,-4.9448,-4.0741,-1.9991,-13.0265,0.25158,-1.4478,-3.4697,-2.242,6.9961,-7.4405,3.5036,
-1.0763,-5.3116,3.9733,0.89554,-2.6244,7.5209,-5.7369,0.95984,-3.0482,-2.0562,1.9903,8.2635,-6.2707,0.16032,
-0.7705,-7.1623,3.9756,3.9751,-3.1901,-1.3663,-6.1158,0.17866,-4.0703,-0.24585,2.1116,10.4186,-6.1357,-1.5368,
-1.4474,-6.4914,5.4245,3.9778,0.61699,-2.0075,-6.954,2.8197,-0.69285,-3.3644,0.29791,5.2144,-4.5625,2.1711,
-0.39623,-2.7274,9.4374,3.7391,7.8108,4.8619,-2.6803,6.025,6.0976,-5.0907,2.6902,-1.8469,-4.2887,1.5589,
0.35021,-3.2869,4.2916,1.8273,4.6904,0.4726,-8.0634,4.9399,5.0086,-2.1339,1.8056,-1.9778,-8.6109,-2.1503,
2.7396,-0.19742,-3.1965,1.2355,-1.3754,-4.3762,-14.3282,2.2336,-0.5943,-2.0061,-2.6413,0.55127,-10.0227,-3.4678,
4.262,1.0193,-2.2818,-5.3461,-1.0519,-3.3908,-11.7813,-0.070023,-1.282,-4.5368,-2.7238,-3.0972,-10.6266,-4.9469,
5.6937,-3.139,0.024502,-6.7123,5.5189,-0.054059,-12.2795,3.0679,2.4106,-0.64944,2.0192,-0.74201,-8.7835,-2.9626,
3.9058,-6.8071,-1.4232,-2.4537,7.116,-0.53275,-10.0969,2.8834,2.7479,2.764,2.38,3.1589,-7.7746,-2.7849,
6.564,-0.61406,1.5547,2.9966,6.2071,-2.9109,2.5609,1.747,4.0293,0.6704,4.6478,1.0412,-4.8975,-1.6535,
4.001,3.0382,-2.636,2.5759,-0.19088,-4.4235,-0.72624,1.4007,3.0646,-3.4676,1.7173,-5.5288,-6.2909,-1.3133,
0.62766,-2.2055,-3.2009,1.2163,-5.7228,-0.060491,-7.1904,5.8962,5.0497,-2.0545,1.8555,-5.4382,-5.6722,-0.029432,
3.7233,-0.38621,2.5345,9.0968,-2.7286,-0.77999,0.23069,8.6757,6.9156,-3.6182,7.2876,1.3958,-0.75284,0.21307,
3.4999,5.4215,1.4186,6.6228,-0.63667,-3.6257,4.5552,4.7811,4.0905,-3.4011,7.3327,2.7583,1.2205,-0.76358,
-2.2537,0.51696,1.092,-1.7283,-5.1778,-3.6491,-2.2256,0.87839,2.6403,-1.5103,1.3487,-1.987,-1.9862,-2.405,
-1.6364,-1.9244,4.8831,4.6421,-3.4211,-1.0198,-4.5024,2.2722,1.5178,0.50873,2.2323,1.025,-3.795,-2.2605,
-0.092141,-2.773,0.73353,4.3634,-2.7336,0.48739,-3.7506,2.6175,-0.98366,1.4423,0.65187,2.4091,-3.5675,-0.67926,
3.2878,-1.1604,0.68998,5.0659,-2.5696,3.3507,-2.0788,6.7993,4.378,2.802,-3.2436,-1.5914,-1.4248,4.1822,
-1.007,1.0782,-1.0389,5.4846,3.1279,0.98024,-2.6777,6.1501,2.4279,-3.8738,-4.2541,-8.486,-4.473,-0.16631,
-1.4283,3.9062,-1.9406,0.81745,9.207,2.8498,0.85765,2.8888,-1.574,-5.0874,-1.1065,-6.5304,-3.7225,-3.5306,
2.9957,5.1181,1.0683,0.7684,8.655,5.089,-3.5321,6.5723,-1.9615,-0.44338,-4.8965,-5.1742,-5.4269,-3.8007,
-0.55824,1.4363,3.8965,-2.6519,7.1712,-0.51878,-9.105,9.0698,-0.87967,0.064924,-4.1206,-6.3103,-7.0297,-4.0548,
0.92105,-1.06,8.9649,-0.082684,4.3308,-4.3445,-2.7741,5.1512,3.9934,5.3637,6.7315,-1.1114,-0.3414,1.4912,
5.4453,-3.1658,7.7039,3.5375,0.45529,-2.8783,-1.8846,-1.6656,5.4412,7.2108,6.5688,3.0529,2.3304,4.053,
3.9135,-3.217,5.0727,-0.28997,2.5974,-0.53667,-3.9409,-0.36059,4.3916,3.1629,3.0414,4.5567,0.98552,-0.76969,
1.7505,-3.024,2.3578,2.6195,0.51333,-2.9146,-1.7762,3.5174,4.1277,-1.3656,6.2329,7.1758,1.8903,-2.6517,
5.984,-0.91413,4.6267,7.7652,-2.4098,-8.5241,1.2226,4.7529,8.219,-3.2116,8.7517,12.0477,5.6335,3.7741,
6.8298,2.2737,6.0363,5.1297,3.2784,-9.2179,-1.5018,6.6369,6.0382,-4.7062,4.1288,6.7455,3.1258,6.6807,
6.1795,0.93248,-0.83337,2.1708,8.1434,-0.22871,-4.0628,9.3721,0.61467,-4.6648,-1.1802,4.1716,-0.67668,0.73672,
2.4341,-4.4259,-7.0501,-2.2975,4.7625,5.0874,-4.3012,2.0611,-2.7964,-3.4208,-2.5554,11.1524,0.80995,-5.0923,
-0.84545,-2.9555,-8.7963,-4.3293,8.0917,2.6126,-1.392,-4.0885,-5.7621,-2.0102,-4.0893,5.4211,2.4486,-4.5458,
2.3383,1.8011,-7.5456,-4.7929,11.2216,1.2505,1.8245,-1.6741,-5.1754,-3.0949,-5.0492,-5.2685,2.5426,-4.514,
2.1985,0.72919,-4.2003,-5.4692,8.6202,5.5143,0.75118,2.2832,-2.9367,-2.9092,-2.3361,-3.0237,1.4257,-4.2432,
-1.7896,-0.76059,-4.4305,-2.7307,9.0675,10.0039,-0.73992,4.0742,-2.2784,-1.7706,-1.2314,1.9782,0.8585,-1.5782,
-1.9237,1.9361,-7.7801,-3.2902,12.1384,9.6446,-0.93649,4.0707,-4.7932,-0.94144,-4.291,-1.7559,2.4942,0.2037,
3.2534,12.1843,-5.1441,-4.2976,19.8462,13.6457,-0.63933,4.5494,-5.7104,6.1049,-5.7208,4.375,3.0675,-2.942,
3.7814,13.1402,-4.1123,-10.0656,18.4143,11.1395,0.12216,3.0713,-5.609,6.4618,-4.1725,5.3176,-4.1062,-8.7913,
1.8675,3.9164,0.71393,-4.3997,6.4634,2.0357,2.2842,4.5745,1.2352,0.53067,-6.5735,-3.4369,-5.5469,-0.30982,
1.514,-0.41642,8.1429,7.192,-4.2887,-3.6305,0.45994,4.0591,4.7765,0.73979,-6.9019,-1.0616,1.7754,6.6986,
4.5567,-0.15047,6.931,2.6631,-5.7186,-8.4739,-3.1831,-3.1743,3.2847,4.7928,-1.4266,3.0995,0.94595,2.1989,
5.4883,2.5103,0.97172,0.33441,-2.2418,-9.6525,-2.7509,-3.2246,0.43671,3.7821,-1.0998,0.74413,-3.2084,-1.0658,
-0.38459,0.67204,-1.7377,2.0016,-6.6871,-4.0121,-2.8273,1.0662,0.16908,4.2785,-3.203,4.3149,-1.3287,3.5774,
-6.1461,-8.5273,-2.1158,-0.047172,-13.5167,-4.2533,-5.5497,2.448,1.1233,4.9857,-2.0469,5.9842,-0.76701,3.8447,
-2.4029,-4.6408,-1.9884,5.2588,-2.1004,-5.4444,0.56787,4.2298,3.4665,5.6508,3.3785,5.6251,1.2077,3.6145,
1.1158,-2.4346,1.023,4.9428,6.7027,-6.564,8.2466,4.458,3.258,5.3113,4.1401,4.8057,2.0991,1.469,
5.6281,-3.0114,8.4334,4.8872,2.6852,-3.0367,6.5465,6.3596,2.8216,5.716,3.6508,3.3121,2.696,1.1399,
2.6395,-1.6257,7.2043,3.3893,0.35466,-1.6494,-2.2818,0.91661,-1.4449,2.2398,0.78039,-1.9481,0.84727,2.7589,
0.31132,-0.32306,4.1207,2.4624,3.9486,1.5828,-2.3865,0.13848,1.2927,1.3818,-3.364,1.784,2.4834,4.2804,
3.6673,-1.7497,0.016825,3.2787,4.6758,4.3801,-1.2792,5.9145,-0.71329,1.7811,-7.9827,4.0873,0.8884,2.5771,
6.8215,-3.0908,0.98037,1.636,4.3954,2.6713,-0.23791,7.4881,-5.4905,0.71011,-2.2013,-3.3886,1.7992,3.8689,
5.9303,-0.01325,-0.52471,0.57351,5.5775,3.4749,3.1504,0.77182,-6.1254,-2.2246,0.82286,-4.1496,1.6912,3.1544,
5.3335,7.4594,-3.6267,1.7444,13.1971,12.1845,7.5411,3.859,-3.5887,1.0424,-4.2877,2.6073,1.8307,1.7603,
0.43397,2.9142,-2.686,-0.52921,3.9693,7.8382,6.3655,6.7607,-3.6141,-3.5997,-7.6457,-4.0568,0.51582,-1.4786,
3.7822,-0.15294,1.8137,5.2869,-0.60738,0.61924,7.4296,6.8372,-3.3975,-9.6504,-1.8845,-7.1881,1.9309,0.056177,
7.8936,-0.62569,3.1512,5.4516,6.178,1.546,10.8402,5.9451,-2.7117,-6.1793,-1.7714,-0.97176,5.1895,3.4273,
5.01,-1.0703,3.4438,3.1966,7.7353,3.3816,10.19,5.1062,-2.5488,-2.9163,-4.0755,3.4246,5.3603,6.5958,
0.61185,-0.7649,2.9964,4.6918,5.1022,1.9737,2.1066,8.4155,-4.0829,-2.5001,-1.1797,3.4604,5.7618,5.477,
-4.7275,-5.5397,-1.0397,0.071935,-2.4348,-3.4474,-3.3225,6.4643,-2.3921,-0.90384,-1.5908,1.8065,3.4874,0.81003,
-4.4439,-4.7254,-0.49542,0.067618,-6.1455,-3.723,0.25134,4.6302,0.16156,3.0063,-1.0134,1.2162,3.7601,3.1716,
-1.7666,-2.0313,-0.4657,2.4737,0.008251,0.35727,1.2006,4.3524,2.0805,2.3445,-0.95262,-0.30308,8.3552,4.4275,
-0.45557,-2.1502,-4.5353,2.0845,7.4798,3.4691,-2.969,5.2963,1.7145,-2.3757,-2.1005,-1.9719,8.5775,1.9929,
-1.1516,-0.81631,-1.1297,2.6824,7.272,2.0557,-1.5856,5.2195,-2.0038,-3.4385,-2.2155,-1.6126,0.5906,3.5601,
2.2922,1.643,8.0969,2.5216,4.4253,-3.3701,0.4375,1.0501,-2.8477,-4.1963,-1.1184,-3.4443,-10.5318,4.7926,
7.2161,3.7134,5.924,4.5393,4.4005,-6.3012,-2.2401,3.1561,0.45645,-5.6315,-0.3282,-3.9603,-16.4076,-0.55645,
3.6496,0.83948,-1.9032,-0.31282,1.003,-6.6464,-3.311,8.5103,-0.77623,-2.1606,-1.9962,-3.9641,-18.0747,-1.2464,
3.4309,0.30695,0.62135,-3.1859,0.94305,-2.873,-0.21955,7.0356,-3.1396,2.7896,-1.3938,-1.7978,-17.472,4.6136,
4.6708,4.1449,-0.38026,0.37926,0.40453,-2.7011,-3.5808,1.7932,-3.9155,-1.7161,-4.2027,3.1303,-18.834,0.47997,
3.6677,7.0297,-3.0085,-0.84833,0.13929,-7.6002,-5.0532,3.8548,-1.9934,-5.7105,-5.1558,7.5222,-18.4271,-3.1643,
2.2426,4.4385,-3.0692,-1.0386,0.37167,-8.8317,-3.063,4.3466,-5.007,-0.30645,-2.6771,4.9015,-14.1882,1.6051,
3.0719,-0.64803,-0.95688,0.46995,0.34937,-7.3374,-1.9149,2.1576,-5.6705,3.5683,-0.58826,4.1255,-11.4085,4.8833,
2.6468,-1.3323,2.2343,-3.1734,2.4978,-7.1379,0.36937,5.6434,-1.2331,4.0774,-2.24,8.9394,-10.0008,0.49315,
-0.64524,-0.52921,-2.9617,-5.6344,4.9993,-5.5046,2.0342,2.1715,-1.8822,2.1457,-6.2032,9.6086,-12.5343,-2.6697,
0.11638,4.0818,-7.3633,-3.1271,5.4222,-0.59502,3.1174,-0.60988,-2.0103,0.32975,-4.6257,3.488,-12.5054,3.0336,
-0.61396,10.3449,-6.1986,-0.77034,2.4458,3.538,-4.5414,4.006,-4.0588,0.068998,-5.0715,-3.2288,-11.5141,1.1644,
-2.5051,5.8676,-4.3802,-4.0983,0.37106,5.7361,-8.6075,6.176,-4.7794,2.4752,-5.7313,-2.071,-9.377,-4.2079,
-2.5958,-4.8484,-4.3583,-5.5397,-0.37456,-0.63361,-4.9575,1.7081,-0.39527,1.6033,-5.6284,1.6687,-7.1271,-0.33999,
-0.27085,-1.9064,0.00050605,3.2288,4.2277,-9.0313,-0.080797,1.8466,5.1721,-0.66202,1.6992,1.8096,0.29038,3.2958,
0.46854,-2.0332,3.1337,4.2397,3.2504,-10.6592,2.5754,2.4589,8.9593,-3.7556,15.6972,-1.9142,9.6727,1.4106,
3.0915,-8.4187,4.6325,5.6726,-6.3442,-8.8144,4.1081,0.62414,10.109,-0.87913,17.045,0.36981,11.2615,7.8339,
-1.6735,-10.0829,-0.22499,4.1271,-17.7741,-14.3113,-1.6822,-0.13644,3.9586,0.37868,1.9223,2.9985,-1.7065,5.6764,
