"AF3","AF4","F3","F4","F7","F8","FC5","FC6","O1","O2","P7","P8","T7","T8",
11.5692,-21.6921,-11.5692,11.0872,20.2463,-25.0665,-1.4463,8.6771,0.48193,-7.7128,2.4101,-0.48193,17.8361,-0.48193,
15.2138,-17.9804,-6.0543,17.6528,15.657,-28.3832,0.56871,7.1921,0.45302,-4.8399,-1.5909,-0.45302,15.8016,-1.8993,
13.5776,-12.8042,-6.4144,14.424,11.1022,-25.4749,-0.18831,5.0734,-3.1896,-5.7548,-7.039,0.779,17.5046,0.38384,
8.4244,-10.5899,-11.332,10.1844,9.472,-17.1978,1.269,4.2873,-4.9262,-5.8912,-11.9191,-1.1957,18.3828,2.7712,
12.0163,-5.3753,-9.4472,8.368,14.9292,-16.8893,5.2902,11.0195,-5.354,-4.3329,-7.5885,-0.883,16.0745,0.91767,
14.4288,-0.95493,-7.1931,6.6611,11.3823,-17.5631,-1.0527,11.5636,-8.1658,-6.724,-3.5178,0.85721,11.9766,0.62164,
11.6349,2.4768,-6.2792,9.6359,9.2531,-9.7604,-3.8816,10.3878,-4.3014,-3.9104,-3.3067,1.7696,13.1866,4.9227,
6.5985,0.39955,-3.9747,8.5753,14.4825,-9.1748,2.6178,11.2104,-3.0794,-4.6397,-5.0365,-2.6749,14.3232,4.1454,
10.3001,0.13484,-0.60248,10.2307,14.3367,-10.7933,1.7376,13.1895,-4.5816,-7.4946,-2.083,-1.7912,14.6693,5.1017,
10.405,-1.5605,-1.7716,9.8573,-0.62349,-7.4946,-4.3922,8.7823,-3.5838,-6.322,-3.1633,4.3418,12.5838,4.0722,
6.4065,-4.3591,-5.5215,7.3379,-3.5986,-7.5271,0.20987,5.3631,-8.6712,-6.4248,-7.3121,5.5278,7.4903,-1.4745,
8.4322,-5.5438,-3.262,10.754,10.7173,-11.4138,1.6431,9.38,-7.1871,-6.5213,-3.9808,-1.0709,10.4153,-0.42171,
11.3005,-6.1753,3.2,11.0729,15.256,-7.8366,-0.38347,12.1915,1.921,-2.7558,3.4886,-1.9707,19.9135,3.4598,
9.1765,-6.7689,0.11571,10.4083,10.0021,-5.4385,4.942,9.5316,-0.60461,-7.8928,-0.094912,-0.88837,13.4158,-0.60399,
9.8309,-6.1216,-3.0245,10.025,11.0894,-6.7992,2.9584,7.7546,-5.1474,-8.1424,-4.6687,-0.59388,1.2829,-0.80895,
11.1693,-6.2362,-0.43243,7.4953,6.0857,-9.7657,-4.4499,5.3611,-1.4641,-0.90495,-2.9423,3.7801,0.724,5.0242,
2.7864,-10.6827,-2.8171,3.1892,-8.3794,-17.3744,-1.7728,-0.74512,-3.7868,-9.5278,-4.694,1.6251,2.6088,4.7227,
3.8242,-6.9085,-3.8531,1.3108,-6.069,-14.1626,6.7695,0.98705,-5.2466,-13.0537,-4.1716,1.7688,5.1036,-3.9965,
15.1642,3.1472,-0.72963,8.9447,5.3822,-3.6721,2.9891,5.2659,-0.59373,0.2628,0.41722,7.447,7.6896,-6.649,
11.6028,4.1632,2.9296,9.6129,0.47949,-4.6571,-3.2163,2.2989,1.1291,1.9343,0.15122,5.7949,8.915,0.73977,
4.8813,1.7445,4.9232,1.0826,-5.0927,-8.9567,-0.85389,0.47394,-4.482,-10.4741,-4.4374,-2.5063,2.3548,0.93658,
11.5778,7.1834,3.9044,4.6331,-1.6536,-3.3581,5.7053,4.5429,-3.0078,-12.9787,3.3007,-3.5612,-0.43758,-7.5557,
9.1962,4.583,0.054973,7.0064,-2.7595,-0.50526,0.78344,4.5115,2.7161,-10.5129,9.6104,-3.5883,7.5426,-6.3793,
4.547,2.6208,0.77457,8.7552,-0.90712,-0.23398,-3.8433,4.4813,4.2403,-8.6769,3.4901,-1.6862,15.5258,7.7418,
4.7561,2.946,0.7281,4.8554,0.11163,-4.0763,1.6899,0.35649,-4.2088,-12.0127,-4.4321,-3.0309,7.8458,4.8672,
5.4349,1.3227,0.68464,1.6718,1.551,-5.2778,5.9271,-0.14706,-1.064,-11.2921,3.0645,0.043281,2.5541,-2.6555,
-0.19387,-2.613,-4.6591,2.5358,-2.8804,-4.4792,-5.0334,-1.1026,0.92804,-12.0604,4.3269,3.4151,2.8832,-2.0142,
2.2283,-3.9021,-4.8615,3.8299,-5.1177,-2.2822,-5.6957,-0.55402,0.87236,-13.7474,2.1391,3.2102,8.0129,0.034838,
4.7455,-3.4272,-0.95459,1.9127,-1.6774,-2.8684,-2.7026,-0.28004,3.4713,-8.343,6.5902,-0.1161,9.701,-2.6186,
2.2916,-1.0524,0.78991,-0.37124,4.4488,1.8834,-5.674,-1.4681,2.5397,1.5576,7.882,-0.3501,4.0573,-1.2562,
0.2257,-1.4714,-2.6322,-1.7955,2.2534,2.7345,-1.4774,-1.8626,-5.3257,2.4282,1.1424,1.1169,-1.4886,0.26523,
-0.75171,-2.347,-6.3302,-1.2053,-3.6663,-2.7322,1.5038,-3.6786,-8.3801,2.7645,-6.157,3.9424,4.3853,-2.1608,
0.73988,2.1324,-4.0224,-0.16892,-3.9281,1.7703,-6.299,-3.94,3.2097,10.3116,-3.8592,10.4546,13.2815,0.86113,
-0.26906,2.4861,-2.817,-0.64094,-7.549,4.074,-10.2596,-2.7395,3.4993,8.2464,-2.664,11.7553,6.6998,2.7374,
2.3986,3.0603,-2.407,3.0129,-3.9626,5.9991,-0.72594,3.4504,-3.2182,5.1005,-1.7808,9.3632,3.1643,0.88595,
3.701,5.2868,-0.81629,3.7965,0.13157,6.6031,1.2458,4.6896,4.2053,5.2769,-0.22767,6.3913,8.2771,-2.5412,
-1.1008,0.39033,-1.9726,2.3634,-5.4199,-1.7469,-8.2289,-4.5098,7.0865,0.38053,-3.8294,2.3924,1.7549,-3.1121,
2.8218,-3.4897,3.4486,4.15,-7.0232,-5.0163,-1.4685,-3.7571,3.287,-1.5703,-0.70738,5.1411,1.6494,4.3057,
3.3757,-2.0753,3.4824,5.588,-6.8425,-1.1001,3.1987,0.083544,-1.9716,-6.0556,1.9864,-3.1213,8.0581,-1.0145,
5.1013,8.1726,1.8277,10.5554,-1.1298,7.1606,0.11472,2.0067,2.9669,-0.87197,3.7954,-4.3803,9.9852,-1.4356,
1.1798,5.0307,-2.3798,2.4503,-3.7131,3.5979,-6.882,-2.211,-0.82651,-0.57869,-1.9759,-2.9122,1.9139,1.3016,
0.1447,4.2469,-0.79073,1.8208,-4.9366,3.3821,-3.5771,1.2961,-4.1514,-1.9902,-3.3036,-2.2555,1.799,2.6698,
-0.34569,4.9562,1.1851,4.1219,-6.0864,-0.19508,1.9404,1.7005,1.8825,-1.8706,-0.69507,-4.5306,5.0658,0.099704,
1.3623,1.0434,2.8013,7.9724,-6.926,-0.90674,1.5831,0.87509,6.3493,0.8932,2.4801,-2.5715,9.3411,0.81662,
2.4851,0.25768,2.392,9.663,-4.3416,6.1373,0.76494,2.51,1.8708,1.0803,1.1258,-0.24781,11.9139,2.9366,
0.16711,2.8935,-1.8487,1.6117,0.016525,5.5283,-1.4499,-3.1844,-1.3747,0.77479,-1.1107,-0.95608,7.1019,1.0734,
1.8443,5.3715,-1.0148,5.1304,-3.118,-2.7571,-2.5682,-7.0907,-0.087414,-0.95892,1.6071,-2.5859,2.5785,-1.1602,
3.6618,1.6747,1.4562,8.1966,-4.8591,-5.4842,6.7449,-1.3626,-0.082168,-7.1684,2.9569,-6.2872,11.1004,-0.12626,
-0.65522,-1.5592,-2.7285,-1.2128,4.8325,-1.5397,8.9913,-2.4861,3.0562,-9.3894,-0.83594,-8.561,16.4604,-0.84204,
-5.9183,-1.4654,0.80939,2.7161,-2.2062,-2.4114,1.7032,-2.3367,11.0678,-4.4874,1.6246,-4.1912,13.0624,-1.7556,
-7.4919,-9.5727,4.6172,7.8558,-16.1738,-11.426,-1.2915,-1.2327,7.5112,-1.8081,6.8293,-2.9759,7.4579,-0.20402,
-4.6318,-9.9622,-1.4444,3.0461,-3.5135,-10.7402,3.6067,-5.0151,-2.0985,-3.1458,2.0812,-4.2431,3.1541,-0.67371,
2.3948,2.2045,0.088295,2.8631,10.7973,-5.2753,13.0315,-4.714,1.884,-2.4749,1.4746,-0.61431,6.8215,-2.5617,
4.6612,1.5903,4.9037,3.1737,24.2495,-19.0588,16.106,-7.3236,1.771,-2.8084,3.7963,-4.9158,6.4122,-1.9256,
5.8276,-3.3256,5.5736,5.8751,36.8945,-32.0153,17.0676,-10.2584,-2.1919,-1.1938,4.0507,-8.9594,6.0272,-1.3284,
10.2987,-1.1979,5.7211,6.005,48.7808,-25.997,17.0078,-11.0892,0.83215,0.80599,4.7715,-4.0835,12.4145,-3.1769,
11.1268,1.7663,3.9318,4.1982,59.954,-26.8475,15.0228,-10.4241,2.2283,-5.0272,3.5211,-6.2488,13.1156,-2.9865,
10.2182,5.7576,2.0087,3.7054,64.6719,-30.2979,12.9166,-8.5933,1.3717,-6.4123,3.0689,-7.0787,10.6415,-2.5659,
7.6771,8.3049,1.4064,1.0731,58.8637,-23.1774,13.1057,-8.5594,0.8072,-2.1714,1.9206,-5.6899,10.4852,-3.376,
6.0112,7.5652,1.0806,4.1418,51.7164,-15.7612,12.5603,-9.7331,2.446,0.61042,0.11818,-7.0358,8.6508,-2.4506,
7.0966,8.5573,2.9442,4.8574,47.167,-14.3336,9.3964,-8.185,2.299,1.5374,-0.85301,-4.6856,0.4187,-0.85749,
9.0811,10.4542,3.7317,3.6018,41.4446,-16.3659,5.9403,-3.3558,-1.2132,1.4454,-1.7659,-1.0298,-1.0524,-1.7701,
8.2948,10.5499,2.7844,4.591,40.1633,-16.5892,10.1636,-2.4311,1.0288,4.4917,0.50919,-3.1372,9.857,-2.3868,
3.7,7.266,-0.033983,1.6642,36.0665,-13.9064,13.6509,-5.4185,1.2083,5.4277,1.2018,-8.0109,12.3988,-2.9667,
6.1293,9.9633,1.1736,4.6976,29.8049,-9.4566,10.6629,-2.9245,-1.9975,2.9327,1.3709,-4.8789,8.5216,-0.61935,
6.7257,8.8834,3.0311,3.9336,24.16,-12.7458,4.7203,-2.2668,0.53225,-0.13557,0.32451,-3.6221,10.4207,-1.0644,
3.1889,6.6634,0.67987,0.56434,23.4335,-11.2579,6.6065,-3.8178,3.1516,1.0776,-1.3824,-1.7173,10.5186,-3.1699,
2.5154,9.1559,-0.32502,-0.43362,26.3661,-2.3875,10.5486,-2.1427,-0.41168,7.2797,1.1109,1.76,2.6564,0.39499,
-2.215,1.6169,-1.0282,-6.4329,19.7226,-7.3057,2.4441,-6.1117,0.81808,7.5661,1.2854,-0.51455,-1.1182,-0.83377,
0.087014,-3.0599,0.72073,0.94247,13.4776,-12.411,0.61025,-9.36,8.2408,10.7275,1.9312,2.1674,7.385,-1.5071,
4.4203,-2.3941,1.1592,3.7782,10.2586,-9.7381,5.8761,-7.3524,4.3721,9.6017,1.8156,2.0371,9.3518,0.029352,
1.7445,-2.2505,3.0178,-0.7868,7.2329,-8.19,4.0772,-1.1271,-0.71091,8.5437,2.1886,0.95104,8.3088,0.99192,
-1.4932,-5.2489,1.1495,0.4657,1.7373,-12.76,0.21718,-0.33612,0.53704,8.272,2.2982,0.65301,8.0512,0.2095,
-1.4036,-6.8622,-1.8115,2.8479,-0.29514,-11.9944,1.6504,-1.2803,0.98675,4.4012,1.6784,-2.7606,7.5681,0.67887,
-1.0784,-2.3531,2.3945,3.8818,-1.9647,-4.7671,3.2386,3.8582,-0.75968,3.4143,-0.10954,-4.2822,5.9088,1.361,
-4.3881,-1.7295,1.2865,-2.6176,-9.0772,-4.481,-1.294,1.2166,-3.6062,0.31689,-4.4413,-4.0253,1.2159,2.2437,
-1.4733,1.5073,0.96839,-0.7733,-1.5431,-0.59675,1.4347,-1.0256,-1.7026,-3.7995,-1.5237,0.79599,4.2765,8.6166,
-1.8673,0.45296,-1.4998,-1.2088,-0.4862,0.40315,0.86669,-0.00015839,-4.4929,-7.4279,-3.3605,-0.69803,2.0917,7.1352,
-4.8883,-1.2614,-2.6147,-6.198,-6.9645,0.13799,-0.3906,1.6871,-5.9101,-3.3668,-4.8461,-4.2716,-1.1673,2.6102,
-4.3543,1.4656,-1.7351,-2.6928,-3.8958,6.1553,-2.0542,-0.10114,-6.761,-6.7804,-4.3141,-6.1847,2.036,-0.6801,
-1.6824,2.8239,1.2615,0.84318,1.1587,11.0888,-0.0027203,0.38686,-6.3549,-11.6758,-1.1628,-2.4391,6.2526,-1.1212,
-1.8227,0.48507,1.4265,-2.8226,-1.5622,5.3616,4.0946,-0.35948,-3.8047,-10.7345,-0.85225,-3.0159,5.1543,1.1154,
-4.8468,-1.7132,2.0643,2.408,-1.2275,-0.021564,3.126,-0.57888,1.9672,-11.2953,1.368,-8.3786,5.086,2.7353,
-9.1353,-13.421,3.1453,2.5045,-5.7331,-7.4921,-0.67699,-5.6058,1.6082,-13.2691,7.3115,-13.4195,6.4681,-3.4544,
-6.177,-12.1333,3.9209,2.3542,-11.1737,-8.0066,1.7738,-5.7514,0.54739,-4.2778,9.7653,-9.2399,3.6694,-4.6929,
-4.6013,-1.5236,2.4806,0.52594,-5.9242,-0.53661,3.8367,-2.2731,1.7196,3.4504,3.6356,-1.2139,-0.16594,-0.79616,
-5.5303,2.1834,3.0549,-0.22874,-0.98925,1.665,2.8834,0.51464,0.41137,1.074,-0.67969,-0.89985,2.0134,-0.50719,
-2.7881,3.4985,0.46122,2.1953,0.99853,0.60099,-0.66384,2.8941,-4.4338,-4.7748,-4.0136,-7.5945,2.3743,-1.9233,
-4.0669,3.2888,-5.3513,-6.1313,0.93885,4.9035,-4.9626,-1.1361,-7.0601,-2.0779,-8.5933,-6.1748,-4.0344,2.5307,
-4.787,1.645,-3.1018,-4.7993,-2.9741,12.8042,-4.1826,0.37851,-2.2979,9.6157,-4.221,6.729,-3.3107,14.9121,
-6.6691,-2.5509,-2.1925,-1.8601,-10.7496,11.3128,-7.0649,1.5609,-1.4369,7.8337,-2.2808,5.6021,-0.94264,11.3665,
-4.8225,-0.95178,-1.5788,-3.1945,-8.1762,11.5981,-2.7844,2.9132,-0.38659,3.9894,-3.1076,3.8199,-2.814,7.3103,
-5.7387,-0.65347,-2.2072,-2.7621,-11.3013,6.8047,0.51544,2.4973,-2.5328,1.5807,-2.6804,1.9038,-6.2608,8.0763,
-5.6351,-1.3374,-2.7979,-4.7653,-15.6847,1.8169,-3.1307,3.0705,-5.0321,-3.5756,-1.7964,0.10207,1.1044,3.9765,
-3.6098,5.2503,-2.3891,-4.2384,-6.7899,8.6977,-4.6301,-0.24671,-4.0069,-6.4946,-0.96575,0.81931,4.6536,-2.77,
1.1859,13.8531,-0.55873,2.5232,3.0173,16.1294,2.1554,-0.47311,-0.15125,-2.4897,1.2611,3.421,3.1693,-2.3626,
-2.7414,12.5403,-1.4893,-0.52007,-3.43,8.8953,0.58009,1.9656,-1.5882,-4.7502,-0.7425,0.80586,-0.877,-6.5594,
-5.4692,9.8594,-2.846,-2.8992,-9.9729,2.0949,-6.2034,3.7757,-3.9033,-3.983,-4.5541,-2.1348,-9.9836,-6.1656,
-6.8283,5.6529,-4.8444,-5.8583,-14.4357,4.1383,-5.1083,-2.4764,-5.8382,-3.0212,-7.8963,-4.6578,-17.3384,0.22987,
-5.2135,2.18,-3.831,-4.7841,-16.2214,6.5414,-6.0073,-3.5329,-1.3908,-5.0093,-6.2174,-0.76359,-9.7903,1.9031,
-6.3465,-0.36093,1.2195,1.7699,-16.6939,1.3284,-13.8411,1.4998,2.5495,-2.2981,-3.4343,6.0311,-4.3822,-0.62123,
-8.8583,-1.3036,3.0746,2.1456,-16.1747,1.2485,-8.6723,0.44547,0.46786,3.1419,-2.7463,5.6693,-10.8682,0.8623,
-5.4342,-1.2254,0.96189,0.57064,-19.0606,3.1022,3.4172,-0.063191,-2.4523,-2.3488,-2.581,-1.4193,-13.1086,-1.1176,
-3.9031,-1.3926,4.0374,0.2952,-20.0859,-0.69957,0.07888,2.5919,0.34618,-8.7155,0.70708,-1.5754,-7.2607,-5.6301,
-8.4897,-0.34517,4.7595,1.7238,-17.4344,-2.5858,-9.0849,0.026281,0.80735,-4.3362,1.1466,2.8579,-6.3426,-5.7742,
-7.4983,-0.8064,1.5814,5.4767,-14.4606,-0.50268,-7.094,-0.45769,1.7228,1.2261,2.5236,2.686,-9.3365,3.2489,
-2.7101,-3.1681,1.4865,1.2917,-17.4494,-1.4364,-7.1503,3.9081,3.0657,-1.7395,2.3726,-3.7417,-13.597,5.4641,
-1.583,0.87811,9.5923,-1.6781,-25.0793,2.024,-11.5418,7.5302,-0.4925,-2.1173,-2.1083,-2.5531,-11.8171,-2.5763,
-0.76531,5.8869,13.5963,0.10961,-26.7078,10.3387,-8.6799,7.8015,1.224,4.0355,0.18715,5.5541,-4.1184,-1.2167,
-4.5753,-0.73286,1.2113,-2.3066,-24.141,8.2721,-10.5692,3.4771,1.633,0.4194,1.1403,0.40057,-9.1735,2.2308,
-3.8193,-6.4735,0.65671,1.6877,-14.0159,2.4732,-1.2584,3.7504,1.535,-2.0163,2.5181,-2.5164,-11.9976,-0.79559,
-5.2769,-11.1467,9.053,-1.0647,-16.308,-8.0391,5.325,-0.090071,0.23763,-2.1363,0.67978,0.76849,-7.6623,-8.2192,
-3.5143,-2.283,10.9202,2.8554,-16.2941,-2.7365,-4.1537,0.3975,0.2236,-2.9723,0.15683,4.0966,-2.3821,-3.8699,
0.31222,0.023373,8.578,7.2636,-16.0391,-3.2952,-9.9298,-0.83142,3.3434,-2.5527,2.3168,1.6814,-1.998,-0.022508,
-2.599,-11.0653,4.2064,2.9714,-21.3437,-17.0772,-4.0318,-4.156,3.6248,2.9026,3.6236,-0.34766,-2.8424,-0.50309,
-6.5404,-5.3397,3.7131,1.1059,-22.2322,-1.9526,-3.0666,-0.29121,0.27379,5.38,0.75509,2.8067,-1.949,2.6606,
-7.5945,4.1395,4.4544,-1.8528,-33.4316,12.2645,-11.0775,6.4749,0.73953,-2.1738,-2.6644,1.6737,-11.4728,8.2853,
-11.2362,0.75767,-0.87409,0.428,-45.5257,25.6287,-13.5463,12.112,1.4185,-0.35619,3.039,-1.0778,-17.2919,9.9578,
-18.0336,-1.9391,-1.5448,2.0893,-56.8941,38.191,-7.6717,15.0009,0.12788,10.9936,10.8102,5.4946,-7.3365,6.7085,
-23.9415,-7.3664,-1.6931,-7.436,-67.46,46.9867,-15.1656,10.9674,-0.60269,6.2366,3.6541,5.4059,-10.0298,0.76288,
-18.1666,-5.9601,-2.0739,-6.5079,-75.9457,39.8292,-26.3067,10.7913,7.1462,5.8624,1.0247,5.0815,-21.4791,2.6453,
-20.2099,-6.3256,-8.9391,-9.2507,-72.112,32.378,-27.3796,6.0462,1.656,12.9823,2.6503,5.0178,-24.288,1.7635,
-21.8896,-8.3564,-12.2589,-10.6241,-62.9648,35.7377,-20.4344,4.2374,-7.1202,13.6494,0.56328,7.6091,-17.0463,1.1755,
-15.0326,-5.2035,-9.3542,-5.8888,-58.4638,36.2446,-18.485,8.5629,-2.5956,12.5894,0.77045,13.1781,-13.372,4.7204,
-16.3,-4.6505,-9.5161,-9.1512,-54.7153,27.5622,-16.6532,2.5053,0.21096,10.629,1.9293,8.7717,-19.0774,2.2678,
-12.9115,-3.8891,-5.0887,-3.2994,-44.2013,25.9089,-4.0844,4.2832,0.19876,9.0274,2.7774,9.2097,-15.5226,2.1317,
-5.8703,-5.5844,-0.44508,3.165,-38.6571,24.3539,-6.25,13.1852,2.115,7.5214,2.1288,12.5135,-6.8785,6.824,
-9.1335,-9.8286,-0.65934,1.7703,-45.7375,14.9389,-14.7926,6.8505,2.711,5.3829,1.2782,6.7011,-7.6706,5.6917,
-12.9238,-11.649,-1.1017,2.6279,-41.065,12.1144,-1.372,-1.2733,1.5845,3.6137,3.1297,4.3708,-11.0672,4.3863,
-12.8712,-12.6373,0.16968,2.7117,-26.3088,15.003,4.2544,1.4546,1.7304,3.1564,1.7366,5.7962,-6.7873,6.7742,
-13.7867,-13.0844,-1.0458,2.7895,-25.4537,12.4156,-10.1009,-0.32033,3.7957,8.0282,-2.4649,4.7251,-2.7651,5.6449,
-11.9951,-11.8169,-5.8033,-1.2338,-32.1209,9.2605,-13.9538,-6.5676,1.6398,9.4747,-5.2091,2.0315,-6.4551,0.0035538,
-2.3576,2.9921,0.57022,5.3475,-18.8657,21.4791,0.98339,7.565,1.3002,9.1474,-0.3175,7.453,-3.417,7.4754,
-5.3494,8.4764,1.2591,5.7498,-19.9032,21.8773,-7.3915,9.28,-1.9111,2.0904,-2.4678,5.3183,-6.8276,8.2315,
-7.6795,4.8344,-0.50364,0.34356,-27.1446,15.0215,-8.1528,-0.19439,4.7115,2.6883,-2.0783,6.6869,-10.0329,5.0865,
-6.9776,5.2674,-2.1604,-1.3645,-17.0798,17.2535,-5.0123,3.4329,3.7057,2.7682,-1.7124,7.9727,-10.1541,2.1304,
-3.6666,7.8437,0.86149,1.1277,-3.0398,26.8234,-8.0858,12.8677,-0.85517,2.6019,-0.6456,7.4946,-3.2781,5.8588,
-4.6521,7.1323,-2.8058,0.81886,-10.8112,23.527,-3.5035,4.624,0.88314,1.7227,-0.84806,8.25,-8.1428,3.8202,
-8.7113,5.74,-4.0838,-2.1223,-19.8037,13.4382,0.56305,-1.4384,1.3121,0.17304,1.131,4.3805,-13.9212,-1.7116,
-10.599,6.3597,0.49982,-4.8873,-10.9025,13.5961,-6.2194,4.9146,-3.5867,-0.31905,0.099059,1.2254,-2.9628,-0.1629,
-9.7219,6.2194,1.193,-3.389,-9.0433,17.3598,-11.3896,4.379,-10.8435,-2.9512,-8.3428,0.91112,-2.5439,-1.3582,
-8.1745,4.8821,2.0855,-2.7035,-17.1776,12.4621,-10.2241,-0.70423,-8.2645,-1.3281,-10.7345,2.3025,-11.0681,-2.2408,
-5.997,4.348,2.2015,1.0739,-13.9777,6.6524,-8.888,1.025,0.18491,5.2593,-0.69067,4.8157,-4.3782,3.437,
-3.709,3.6052,0.14126,4.8659,-3.0159,7.6995,-5.4622,0.48159,0.65621,5.4257,2.7252,5.0087,3.1148,4.6771,
-3.9681,0.9785,4.9533,0.71776,-2.3528,5.7915,-4.6523,-5.814,-3.2398,1.7259,-1.7764,4.226,-3.3383,1.0222,
-4.9356,-4.1417,9.2356,6.2181,-14.0222,-4.4381,-5.0963,-5.2245,0.56979,6.2019,0.0172,7.5876,-5.3074,5.058,
-8.978,-14.9806,2.8966,6.3272,-18.9655,-12.3668,-4.3088,-5.3927,2.946,6.3119,0.49787,1.348,-2.5791,4.2728,
2.4069,-1.7893,8.2665,6.6704,-3.7276,2.4752,5.8321,1.9203,3.0102,5.6922,1.6733,-5.2408,3.1197,4.7394,
5.1548,12.4181,3.9143,0.0034578,10.5961,16.4267,3.5538,0.35903,-8.2574,-5.2548,-8.0683,-10.2288,-7.1906,-3.7399,
7.738,25.773,0.78694,-4.3351,15.7449,25.5643,2.3767,0.81988,-8.7259,-7.3497,-9.5119,-6.2406,-10.6155,-4.4794,
9.6841,32.1804,0.25756,-6.9673,11.426,33.1892,-0.65821,0.28852,-11.577,-7.8728,-11.834,-13.0972,-10.9427,-6.621,
10.7901,39.6498,2.8934,-5.8261,5.197,39.1518,-2.3062,3.8864,-12.0874,-5.231,-10.8827,-12.0702,-10.5273,-6.9469,
13.2762,38.9576,0.55066,-1.8611,3.1978,38.4899,-1.4444,11.607,-5.3366,-0.33788,-3.7223,-3.3923,-10.1367,-1.4684,
16.8179,33.2461,-1.4106,2.1069,6.3804,35.6986,2.4986,14.285,-0.19573,4.0212,-1.0884,-0.2962,-12.9029,3.9224,
6.1681,27.3947,0.12009,-7.6607,-1.2333,27.2899,1.3846,4.2691,-5.4864,6.6722,-6.3255,-4.617,-16.9492,0.79474,
-1.1921,23.5821,3.2466,-5.5136,-8.6311,22.5193,-1.8317,-2.0128,-5.8803,8.9232,-4.259,-4.5812,-12.799,-0.9404,
6.3515,19.9978,1.3644,3.7351,-6.426,18.0349,1.4114,3.1694,-1.4304,3.3259,1.058,-2.6188,-8.4154,-1.1252,
7.8983,18.3158,-4.0199,-2.2738,-4.1123,14.0605,0.84458,3.4614,-2.3087,-4.5862,-1.4158,2.3588,-7.9107,-4.9138,
0.67577,17.217,-3.2966,-0.69091,2.4012,17.073,-1.1341,2.2896,-0.72366,-0.93682,-0.36676,4.1457,-3.0975,1.6478,
0.63522,9.9175,-1.1706,5.1351,4.1853,19.905,-0.10215,5.5267,5.1043,4.904,6.4041,-3.8158,0.94471,6.8515,
7.8277,6.9121,-0.13625,4.8268,-1.3684,18.711,-2.5064,5.6772,5.2798,4.1276,4.5739,-6.9616,-4.8968,3.5477,
5.9123,10.8357,-2.5387,5.0191,-1.2863,24.3367,0.53652,6.3005,3.5172,4.3623,-0.52127,-0.27736,-8.4594,17.3146,
-3.3605,8.9803,-7.448,0.13868,5.7805,24.5638,6.5299,6.6454,1.6185,2.8953,0.2329,0.94457,-1.9263,30.3757,
-1.9539,9.6465,-5.3137,0.85349,12.4235,18.9924,3.4868,6.9698,2.245,1.0346,3.3526,0.6467,4.6975,36.1455,
-1.5957,10.273,-5.7178,0.56131,5.6526,15.2017,-7.5687,5.8287,3.3151,1.2135,1.9462,1.3313,3.2103,27.4692,
-2.4638,8.2104,-5.8571,1.0096,-1.4355,16.6997,-1.8119,8.371,4.5624,3.0688,3.7576,-0.19488,1.5715,15.2158,
-2.0748,3.6206,-6.7103,0.22586,2.2663,14.0108,9.1433,4.736,1.1554,-0.24855,4.7372,-1.3882,6.5391,0.20285,
-3.8789,-0.453,-5.3438,-2.6798,4.0583,4.9754,1.3634,-3.7434,1.0861,-2.1618,3.0067,0.14131,3.2542,-9.0888,
-1.7178,3.4303,-0.68461,2.3015,1.4047,3.7128,-3.5389,4.6762,5.3595,4.2342,3.7904,4.9533,-6.1003,0.61529,
-3.3019,0.091033,-2.3308,-0.48813,0.11509,9.0332,4.1452,6.5648,2.8683,2.7753,-1.0163,2.4865,-4.0471,-4.9652,
-8.4065,-5.2166,-2.1909,-1.4227,3.0007,11.8656,11.1274,-2.0238,0.28608,-4.1401,-2.4016,-1.0367,2.9447,-8.0413,
1.0158,5.9424,3.002,7.5805,13.1845,13.805,7.3265,3.159,0.51011,0.68779,4.2502,0.23058,-6.1503,0.87661,
11.5603,17.1553,2.3397,4.7153,17.6961,19.7259,3.5126,8.7543,-2.4128,-0.31758,2.0673,-0.74736,-19.8813,-1.104,
9.9024,19.018,-1.1751,3.4685,14.2242,26.2546,13.9067,4.8546,-0.33982,-6.0831,0.015024,-5.5232,-23.8701,-2.9659,
7.621,16.6721,-6.6478,-1.8013,25.1809,15.2798,25.8468,-3.3904,-1.5247,-14.1538,0.73702,-19.2918,-17.8586,-10.2598,
20.4204,28.9279,-6.0082,-10.1291,37.77,10.2654,20.6808,-4.8744,-9.8691,-19.8123,-6.7788,-32.2343,-26.6688,-23.7442,
33.2952,41.2922,-0.586,-9.2804,49.6038,23.7495,11.0038,-1.4485,-15.7845,-17.9006,-20.1108,-25.9617,-38.3251,-28.4656,
45.3974,52.9147,-4.1663,-10.4108,60.7276,36.4245,24.4436,-2.0845,-20.381,-17.5495,-27.8218,-20.3062,-33.8564,-18.8039,
50.1452,63.8398,-5.8447,-10.7502,71.1839,48.3391,37.077,0.45048,-26.3888,-24.2095,-29.0448,-25.3546,-23.1481,-15.2653,
53.6442,74.1094,0.049819,-12.7565,81.0129,52.0669,20.7523,1.6285,-28.4211,-32.1567,-28.0252,-34.6798,-31.6414,-20.3752,
51.6306,83.7629,1.2519,-13.1962,90.2521,48.2198,20.1101,1.772,-25.0288,-27.5765,-26.5849,-31.3939,-37.6969,-18.9114,
42.9891,80.7858,-4.8488,-8.789,98.937,42.1931,33.0035,-1.9497,-23.2861,-20.8602,-22.3387,-23.0024,-24.5888,-11.7512,
35.1074,61.8386,-2.6299,-7.7795,81.5521,25.6825,45.1233,-3.2788,-18.5143,-20.0903,-10.8748,-23.0682,-16.8468,-13.4565,
29.1441,44.0283,-1.0258,-8.759,62.559,10.0415,56.5159,-4.0464,-17.8858,-20.8135,-7.8126,-25.541,-22.5849,-22.2901,
16.5496,27.2866,-2.6515,-6.5462,46.1517,0.6412,58.548,-5.4908,-18.9814,-16.9132,-9.995,-17.5006,-20.9883,-17.3372,
1.5774,11.5494,-0.082286,-3.7433,29.2826,-13.4973,60.3378,-9.9816,-10.6121,-12.5239,-6.0208,-12.1122,-15.3907,-8.5842,
-7.1944,-3.2435,1.3689,-3.0363,13.4256,-19.3156,70.8175,-6.9726,0.14798,-5.9879,-1.8032,-4.1547,-13.5034,-9.0331,
-1.2189,-4.8564,5.8663,-1.6491,-1.4799,-6.8283,80.6685,7.5458,6.1649,8.4714,0.95633,10.1946,-6.6674,-1.0195,
-4.7614,-12.0371,2.863,-3.2376,-15.4911,-14.3725,89.9284,5.0441,0.25114,8.8062,-1.7524,4.642,-17.5958,1.693,
-15.3217,-25.4148,3.4143,0.57229,-28.6616,-24.8382,98.6327,-2.7301,0.47727,5.1451,3.4142,-2.6262,-28.8321,0.86829,
-19.946,-34.3748,8.2707,3.671,-35.4986,-19.7329,105.7299,-2.3253,5.9918,7.4875,5.3785,-0.78185,-23.0048,1.0572,
-18.7493,-38.0969,4.8824,2.4869,-47.4686,-14.6925,95.5297,-2.6678,6.1147,8.0021,7.9483,-0.73494,-9.5732,1.4757,
-18.5884,-39.1853,-4.5693,-0.07271,-56.5514,-10.9187,103.8979,-3.4718,1.4092,5.594,18.0765,4.1301,-3.2145,1.8693,
-21.3293,-34.9057,-4.7773,2.342,-39.0583,-1.1043,111.7641,2.0389,-1.0857,6.7044,18.9203,13.0411,-3.9852,2.2393,
-20.7726,-32.0883,2.4989,4.3709,-30.8093,6.9159,108.9144,6.9785,5.4872,13.7742,14.6519,10.0897,8.0642,0.89987,
-14.4651,-31.8502,4.5186,0.010812,-25.3453,4.3313,116.4795,13.0673,7.3271,15.5988,11.6031,2.0125,11.6777,-4.2158,
-12.1509,-26.0832,3.7651,-0.95416,-9.7246,13.7124,123.5907,26.3832,0.13858,10.3241,8.4963,4.7838,-3.1229,-4.9272,
-18.8937,-24.2768,2.3339,-2.5837,4.9589,26.9897,130.2753,38.9002,7.6025,10.428,10.1562,13.8968,-6.9127,-1.0161,
-26.6783,-34.1486,-9.1341,-4.598,-3.775,29.1062,136.5588,50.6662,14.618,11.0074,10.2699,14.75,5.312,-6.4985,
-22.667,-32.0997,-12.9244,0.016155,8.985,23.9858,142.4653,61.7263,7.4744,11.7932,12.5458,10.9729,7.8858,-9.4831,
-24.6815,-30.6557,-5.4005,-5.7694,11.8203,32.6696,148.0173,72.1227,2.2052,11.0856,16.1318,6.9401,4.0382,-7.9498,
-28.5032,-42.7956,-1.702,-5.9052,6.2904,44.8094,153.2363,81.8953,13.1601,11.8667,23.3586,11.3444,8.1347,-8.919,
-34.988,-54.3279,-10.2767,-6.9969,16.0361,38.144,158.1421,91.0816,11.4064,9.7082,19.5468,11.6278,8.6107,-19.4709,
-38.1911,-41.7889,-9.178,-6.5773,27.6072,31.0349,162.7536,99.7167,2.0451,11.5361,13.0715,8.5198,13.3965,-19.7491,
-37.1045,-25.1816,-5.0119,-4.9774,24.7459,33.7521,167.0884,107.8337,0.23521,12.0492,7.2256,5.8395,15.2442,-16.3946,
-29.8168,-18.4885,-4.4704,-7.3301,9.1612,20.399,171.1631,115.4637,2.3905,7.7106,5.587,5.7298,9.2677,-18.5446,
-23.9304,-18.5845,-1.5506,-8.0951,-5.4885,19.8979,174.9933,122.6359,2.488,11.3458,5.9751,8.0376,6.0605,-19.6011,
-29.9664,-24.4589,3.1217,-6.8865,-19.2592,32.8041,178.5937,129.3777,5.9542,19.5831,8.7496,15.0271,9.7942,-15.7735,
-42.2684,-34.5609,-6.7066,-10.8116,-4.0036,44.9358,163.6605,135.715,1.2586,7.3204,7.2608,9.7867,14.0273,-16.7553,
-40.094,-27.6666,-5.3403,-5.8246,10.3366,50.4348,163.9637,141.6721,2.1469,0.61471,8.2709,2.933,20.416,-15.268,
-23.5883,-27.4528,5.5854,-3.5469,-4.3836,61.5087,153.644,147.2718,7.8027,12.147,9.2209,4.6852,16.299,-10.9775,
-25.6677,-31.1083,2.8401,-4.7804,-18.2206,71.9182,143.461,152.5355,3.4782,16.7208,8.1858,11.1526,5.6797,-8.3911,
-27.9841,-17.1903,-1.1867,-4.0116,-20.3813,69.7723,141.1199,157.4834,0.85934,10.4149,4.8021,8.5557,10.1596,-10.7797,
-22.9308,-10.8564,4.187,-3.2888,-10.9635,51.4859,125.4221,162.1344,4.6639,9.3079,2.586,1.7756,23.0476,-18.3278,
-27.5807,-21.5335,0.32056,-4.7784,-3.798,46.3479,118.6199,166.5063,1.7328,11.8826,1.7077,2.8741,19.4953,-19.8795,
-29.3001,-18.7952,-2.5912,-7.3842,-6.4626,45.9771,112.4665,170.6159,0.66495,8.2776,6.4255,8.9682,9.649,-12.9021,
-22.2395,-19.1133,8.1696,-3.5667,-20.1749,40.3264,91.6186,174.479,2.0713,0.068194,10.3788,5.538,8.1057,-13.5738,
-14.8793,-29.7771,21.7794,3.1552,-33.0644,40.558,77.3241,178.1102,3.1519,1.7513,10.9613,-0.33786,9.3066,-16.8567,
-15.6735,-21.9647,17.942,1.2784,-33.2494,44.6322,86.7846,181.5236,5.1321,6.2258,7.1704,-1.0407,4.1687,-13.194,
-17.8669,-6.5468,5.0549,-0.96742,-17.1545,37.8569,90.1342,184.7322,6.5114,2.7187,1.1961,-2.1836,-3.0713,-11.6795,
-14.6255,-11.095,6.4388,-4.0424,-2.0252,37.7546,70.6261,187.7483,6.8437,3.7609,5.2221,-1.8111,-0.7174,-10.7377,
-16.1585,-24.5293,4.1243,-6.2104,11.8346,43.2021,62.4115,190.5834,4.5048,4.0172,9.7291,-6.5232,2.2177,-12.0217,
-6.0302,-8.9575,2.9128,-0.5354,-2.9755,27.5944,68.7899,193.2484,8.5731,4.2579,8.1812,-5.6501,4.4945,-9.8543,
-2.7759,5.6799,2.738,-6.7698,-16.8969,11.8387,50.5625,195.7535,3.7204,4.0028,1.4238,-2.4186,-1.5593,-9.2631,
-1.6452,-8.7608,12.2145,-5.3995,-6.4831,25.2284,55.362,198.1083,2.5326,10.5113,9.5329,3.9933,3.8367,5.2722,
-4.4388,-14.9839,9.0717,-3.6295,1.1365,37.2125,51.5581,200.3218,1.417,9.3985,7.9973,2.3077,4.5706,3.5099,
-7.5465,-15.0489,5.1532,-2.9296,7.8174,32.5698,47.501,202.4025,-0.11403,7.3886,6.0714,-0.24114,4.7785,1.3713,
-10.9501,-16.5564,0.98736,-2.7536,13.1327,27.241,42.7225,204.3583,-2.0356,4.5354,2.8148,-3.119,4.4921,-1.6033,
-14.1497,-17.009,-2.928,-2.5886,18.6115,22.7142,38.7131,206.1968,-3.8414,2.3348,0.71752,-5.3422,4.2223,-3.9174,
-16.9159,-17.6757,-5.8858,-1.7099,24.0028,18.7003,35.1851,207.925,-5.2982,0.98943,-1.0128,-7.1908,4.2099,-5.8515,
-18.7937,-16.6154,-8.9074,-0.64368,29.7928,15.1674,33.0737,209.5495,-5.4629,-0.034034,-1.9161,-8.6878,4.9214,-6.9469,
-3.5661,-3.8079,5.7271,2.5284,13.9052,28.3574,45.1893,211.0765,4.7473,0.69091,2.2962,1.7159,3.9032,7.5699,
1.3479,3.41,18.7605,5.5102,-1.0291,40.756,34.1625,212.5119,6.6316,-0.073447,3.8457,1.8539,0.053629,17.1183,
-12.833,-9.0869,3.5349,-2.7744,13.1326,24.2106,20.3029,213.8612,-2.2022,-2.7204,0.48168,-4.7651,3.6656,1.9912,
-1.096,-8.0593,8.505,4.6229,-1.7553,15.1661,19.0847,215.1296,1.3044,-4.4853,1.4171,-4.9611,8.7483,6.0896,
4.9953,-4.4425,19.805,10.3713,-15.75,28.3562,25.8936,216.3218,8.2158,-2.0468,3.501,-2.0121,5.0902,13.6782,
-9.4044,-5.3814,9.6984,1.7951,-3.5973,33.283,34.7041,217.4425,3.1433,3.1374,-1.2886,-4.5432,-0.7591,3.4573,
-11.371,3.6186,8.1527,5.5438,-1.4528,17.186,34.0676,218.4959,2.4728,1.9849,-0.24738,-6.1988,1.697,-0.60655,
-9.7249,-2.8655,11.0375,5.2107,-15.4656,8.0799,18.5262,219.4862,6.1808,-6.8113,4.5882,-2.4524,5.9335,2.3219,
-13.7207,-11.129,8.2063,1.7648,-26.7097,18.4416,4.158,220.417,6.5331,-0.85881,4.0717,5.1668,3.8901,8.2084,
-10.969,-12.3895,3.3756,-2.197,-27.5173,13.9607,11.6218,221.292,1.3204,6.4236,-0.99287,1.9643,-5.9838,6.2701,
-14.6494,-12.6102,1.7266,-1.5835,-11.7662,4.4462,24.4216,222.1145,0.75944,1.6996,2.4409,-4.9023,1.6058,-0.85482,
-19.796,-9.6842,-0.064,1.1633,3.0397,-1.364,8.8563,222.8876,-1.4555,-7.3202,1.0894,-8.2233,10.4273,-5.865,
-8.7263,-10.7906,0.18104,-2.0402,-5.0966,4.7436,-5.7751,223.6143,2.7294,-2.7834,-3.5555,-3.1504,5.7041,0.51224,
-5.0692,-19.061,-5.3737,-5.533,-5.9959,4.2178,8.6714,224.2975,9.5553,1.9631,-3.5829,0.65381,-4.5199,1.2046,
-7.1757,-19.3639,-6.0153,-3.755,-0.81566,0.59006,8.0309,224.9396,9.4637,1.3632,-1.9219,-2.7596,-3.767,-1.7599,
-6.0218,-9.7659,-1.0747,-3.2887,-14.8667,-1.1321,-6.551,225.5433,0.46017,-3.2984,-3.9757,-7.6557,6.8234,0.51482,
0.12412,-3.8773,1.3999,1.2474,-16.0232,2.3103,-5.7962,226.1107,-0.53131,-3.5824,-0.84512,-1.4118,6.414,2.8945,
6.6244,-4.3678,0.11087,0.4494,-1.3237,8.6794,-5.2077,226.644,5.044,-0.71614,0.89304,4.6987,-6.2632,2.9616,
8.1549,-0.24956,0.58638,1.8685,-7.9929,0.92753,-18.9953,227.1454,0.8847,3.6654,-1.089,2.9707,-3.477,6.6405,
1.8808,-2.1625,-2.8235,-0.654,-6.0673,-12.1438,-31.9555,227.6167,-9.7734,-0.41116,-5.8441,-3.9567,3.9622,1.4211,
9.2402,6.4033,-0.0025225,-0.85572,4.1791,-1.5327,-31.0021,228.0597,-1.2328,3.2289,-1.878,2.7887,0.59099,1.0954,
11.5781,8.9114,-0.96647,1.124,-8.123,-2.8868,-40.2294,228.4761,3.1792,3.5174,-2.7295,1.1753,-7.157,2.9576,
11.8475,7.8946,0.055616,-0.38989,-9.564,-12.8367,-47.4564,228.8675,0.57857,-0.067912,-3.0479,-2.2694,2.9131,3.7442,
19.0906,17.3031,-2.1171,-4.946,5.1098,-9.8976,-55.4555,229.2355,-2.1075,-1.7513,-7.9264,5.8203,4.4258,-0.578,
23.9705,19.3981,-3.1951,-5.8543,3.7187,-5.6881,-62.9742,229.5813,3.5624,1.9694,-6.7277,12.9431,-2.3474,1.1441,
16.9886,7.388,-0.83428,-5.744,-10.6045,-19.4468,-73.2957,229.9065,5.0359,1.1284,-0.78044,1.3202,-2.9295,5.1728,
11.6308,5.9806,-0.30206,-1.5428,-16.8371,-32.38,-82.998,230.2121,2.8053,0.5785,-1.2158,-2.1332,1.1024,3.8984,
14.5484,10.2011,-1.9712,-2.6555,-6.9093,-44.5372,-92.1181,230.4993,3.3603,2.2306,-5.2402,6.9124,4.1698,1.0129,
18.4959,10.0712,-0.88879,-1.5321,-11.3152,-55.0011,-100.691,230.7694,2.1941,1.6146,-9.2643,10.3543,1.9912,3.3625,
11.8428,8.2618,2.2978,4.5856,-18.1079,-65.801,-108.7496,231.0232,-1.5522,1.277,-12.3237,9.0099,0.66663,6.2945,
5.8298,2.9456,0.71389,3.3464,-26.1804,-75.953,-116.3246,221.1389,-4.8338,0.23624,-12.0664,6.0589,3.037,6.8809,
12.9516,2.0458,3.3224,8.2071,-31.5995,-85.4958,-123.4451,193.7706,-1.8924,1.4271,-7.2448,2.0802,8.3981,10.0832,
10.9694,-3.1384,4.81,7.9554,-40.5495,-94.466,-130.1384,168.0444,1.3544,-1.3098,-1.7487,-7.4448,6.6892,7.3088,
2.8395,-11.8682,1.8703,7.7195,-45.5884,-102.8981,-136.4301,143.8617,9.2268,-3.4004,7.7562,-10.1312,4.1187,9.0395,
0.25874,-20.7971,1.2757,7.2563,-53.4584,-110.8242,-142.3443,121.13,7.7094,-8.981,7.2909,-11.4515,4.8354,10.9077,
4.5818,-16.1748,4.5739,2.4824,-58.9275,-96.7027,-147.9036,99.7622,6.7646,-5.0674,1.551,-6.4259,12.7402,9.2891,
1.897,-3.6349,-1.0032,1.3696,-57.8022,-76.8005,-153.1294,79.6765,5.8768,1.9851,-4.809,3.6007,9.0838,6.8036,
-3.5195,4.296,-6.7276,1.7693,-53.8519,-58.0925,-158.0417,60.7959,2.6317,3.3122,-7.895,11.5793,0.82597,12.18,
-3.0674,3.7968,-6.5649,2.3861,-46.5234,-53.1607,-162.6592,43.0481,0.30464,5.7646,-7.1803,10.1612,2.9456,18.4386,
4.1063,3.8102,-2.0739,6.8224,-30.4757,-64.0711,-166.9996,26.3652,1.4914,11.4445,-5.544,4.9725,8.7942,18.0554,
8.1985,2.6175,5.2816,5.9309,-20.4524,-74.3268,-171.0796,10.6833,3.8123,8.8294,-1.8371,4.192,11.1588,20.8287,
3.368,-3.3244,1.59,5.5748,-30.3125,-83.9672,-174.9149,-4.0577,1.1732,2.0329,-0.76277,5.3865,4.2225,21.025,
5.0941,-0.71435,-7.182,6.6871,-29.4576,-93.0292,-178.52,-17.9142,2.5491,7.2136,-0.717,11.8122,1.5595,19.7635,
9.368,4.39,-6.028,4.5984,-17.3261,-101.5474,-181.9088,-30.9394,5.0474,11.8427,-3.3253,11.8266,7.0093,18.8189,
7.3597,-1.1761,3.9747,4.8044,-15.8046,-106.9035,-185.0942,-43.183,3.2983,4.3832,-4.0901,1.958,11.409,18.1717,
5.954,-4.4797,8.5567,4.9983,-16.3023,-99.043,-188.0886,-54.692,1.1725,-1.6646,0.49384,0.39446,14.5811,19.9737,
8.4888,3.0194,3.7045,4.6984,-14.8425,-91.6546,-190.9033,-65.5105,1.5841,-2.0467,-1.9459,3.2629,9.8498,15.4008,
9.426,4.2847,0.5904,1.5242,-10.5772,-89.0474,-193.5491,-75.6799,3.8994,0.96843,-8.0959,0.65672,2.5102,10.1387,
10.0652,0.89418,5.6162,5.0482,-6.8094,-76.7149,-196.0361,-85.2391,3.9064,5.4896,-2.0665,0.37635,7.9032,14.5916,
8.2565,-2.2925,-0.74632,10.7708,-12.9085,-68.0144,-198.374,-94.2247,1.5028,4.9193,0.22662,2.5229,6.7061,12.0288,
8.2428,-0.70892,-7.4502,1.9297,-10.6877,-68.2721,-200.5715,-102.6713,4.7869,13.301,-4.1255,10.0846,1.0008,5.5228,
3.6511,1.9849,-7.7263,-7.104,-7.8773,-69.7194,-202.6372,-110.611,5.7047,16.6005,-8.4575,9.7202,2.1459,3.022,
5.1191,2.1066,-3.1652,1.7582,-11.9842,-62.4028,-197.5891,-118.0743,7.5318,10.0611,0.0039063,2.1474,9.4891,9.3484,
7.2225,-2.8401,-5.3854,7.9197,-16.5676,-61.0687,-185.2516,-125.0899,1.7773,3.6728,3.8605,-0.3916,6.5097,10.2337,
7.2711,3.1149,-2.1702,7.9264,-10.2711,-58.3689,-178.4751,-131.6845,-0.25754,7.7908,0.73637,8.309,2.2622,7.6915,
-0.63722,-5.0259,-4.6913,-5.8058,-14.7165,-64.2668,-174.2745,-137.8834,2.4092,3.7077,-6.7799,6.123,-2.453,0.72233,
0.12437,-12.1962,-6.0971,-4.7345,-15.0386,-65.4722,-159.7204,-143.7104,5.3982,1.3161,-3.7215,6.479,-1.5825,2.8481,
-1.0882,-10.7413,-1.6337,0.61144,-14.8592,-63.7133,-158.5731,-149.1878,-0.46957,0.99637,-2.7751,6.8134,-4.6208,0.9898,
-1.2638,-9.8559,0.63353,-0.63054,-18.5471,-62.0596,-157.4944,-154.3365,2.2102,2.6238,-5.2601,4.7173,-7.477,-1.2387,
2.6679,-7.8182,-1.3327,1.3355,-17.9165,-54.4797,-146.1168,-159.1763,6.4159,3.9122,-3.0163,3.9519,-5.1002,4.1382,
0.33915,-9.5183,-0.52936,0.050525,-15.6362,-51.4519,-136.1445,-163.7257,-0.95895,2.9546,0.29813,0.58177,-5.0352,3.167,
-1.8508,-13.0448,0.70724,1.7343,-13.9749,-56.8007,-128.217,-168.0022,-0.66045,2.0544,1.4855,-0.1765,-2.5639,-4.4948,
1.8759,-9.6106,-2.4685,1.8714,-9.521,-55.5618,-122.211,-172.0221,0.5847,-1.6841,13.6887,3.9317,-3.1332,-4.9482,
4.4144,2.7762,-2.0794,-2.8206,-3.4063,-41.382,-114.1554,-175.8007,-0.17374,-1.3425,26.9674,6.8288,-9.9351,3.3024,
5.8368,6.707,0.21454,0.00016207,-1.0328,-35.2837,-106.583,-179.3527,-1.8505,-0.53861,34.3877,-0.57034,-6.6874,2.8633,
11.2712,1.0019,4.0581,3.3746,-1.4528,-41.8435,-94.8853,-182.6915,-0.77519,-0.50629,21.2372,-3.4286,7.6931,2.2096,
4.3281,-5.3249,-0.041585,-0.20255,-7.6323,-44.1534,-93.0486,-185.83,-0.24697,0.48818,9.3579,-1.7764,5.3036,2.5587,
-0.028671,-1.3898,-2.6904,0.050795,-6.9332,-32.5861,-93.9734,-188.7802,1.9372,5.0384,4.6988,0.49908,-0.076096,2.1644,
5.7574,1.5859,1.3272,-4.2908,-1.6969,-29.1849,-86.407,-191.5534,-1.5532,2.3257,1.0427,-0.49496,0.41017,2.0343,
13.125,4.383,6.068,3.1977,7.5641,-34.1825,-71.0993,-194.1602,-2.4241,2.186,6.7645,0.49884,1.3497,5.287,
5.3476,3.3971,-0.80354,5.6569,4.9409,-37.6752,-66.5923,-196.6106,-0.10952,3.7425,7.5639,-1.7003,-1.3824,2.3182,
2.8576,2.47,-0.99629,4.1122,-0.41701,-30.3532,-64.766,-198.914,1.1023,4.7228,-0.36176,-1.3573,-0.57657,5.3126,
7.5066,2.3215,0.50951,8.2041,3.9463,-25.1578,-56.5417,-201.0791,2.4822,1.5471,-5.6425,-0.31174,-1.0241,12.7064,
5.3687,5.7979,-2.1724,6.5067,5.8787,-24.8534,-48.5699,-203.1144,3.5384,-3.6076,-3.135,-0.051838,0.72477,7.3645,
4.0828,8.8245,0.85048,9.0084,-2.6687,-21.434,-50.9581,-205.0275,2.3617,-4.837,-3.9108,-1.495,2.6095,1.138,
6.2481,4.4388,4.6561,15.217,-2.5084,-13.881,-53.203,-206.8259,6.559,3.1663,-6.0865,1.0051,3.8994,8.7827,
4.186,2.4853,0.27889,10.2067,5.5959,-18.5917,-53.1441,-208.5163,2.5501,2.2529,-5.9622,1.1857,-0.91431,4.6404,
11.1655,9.5668,0.26193,4.7733,9.1163,-21.815,-45.6171,-210.1053,-2.4239,0.18933,-3.1942,1.1144,-2.7879,-1.9048,
12.4235,6.1,-1.6817,1.5946,5.6768,-17.6138,-40.9522,-211.599,0.13192,1.1421,-3.4847,2.0116,0.27168,2.0656,
8.0629,7.9034,-2.304,6.5604,10.88,-11.4956,-37.29,-213.0031,4.7035,0.83281,-2.5525,4.0603,7.245,10.86,
5.6509,11.768,-2.1657,4.721,10.7094,-12.2518,-32.642,-214.3229,1.0469,-3.0735,-2.3993,-0.52165,9.7028,7.3163,
7.7222,11.0617,-0.10737,1.5454,4.2822,-12.9628,-31.1656,-215.5635,-1.9082,0.48509,-2.2556,-1.4544,9.6028,-4.692,
8.464,8.2286,1.5861,5.5498,4.7482,-15.8004,-30.9829,-216.7297,-1.5526,3.1073,-3.3253,0.31981,6.8573,-7.5438,
6.992,5.8069,3.4193,2.8069,4.4635,-16.7804,-27.6774,-217.8259,-1.4592,0.51097,-2.6436,-1.1454,3.5536,1.5857,
3.1978,3.0481,3.2139,3.1202,-8.8199,-16.7381,-31.8018,-218.8564,-2.8181,1.9259,-0.075115,-0.11258,-1.4801,3.9005,
6.8626,4.3113,3.0213,6.3077,-3.9522,-18.1437,-29.8935,-219.825,-0.23867,5.6669,-2.9624,3.2684,-5.7299,-3.0818,
13.4409,4.7757,2.1169,2.7955,10.385,-21.1527,-13.9999,-220.7355,0.98072,2.1937,-11.2206,1.3853,-6.1092,-6.9944,
13.5983,-0.33107,0.061714,5.5203,23.8619,-30.0066,-6.2907,-221.5914,-1.4883,-5.1688,-13.4399,-1.5903,-1.4039,-6.0928,
12.3005,-6.0958,3.4325,7.1173,36.5301,-39.7752,-6.8772,-222.3959,0.52924,-6.3045,-8.7766,-1.9769,3.0187,-2.8348,
12.2856,-6.4534,7.8056,8.3772,43.1357,-40.0402,-2.3674,-223.1521,5.5589,0.099125,-1.7428,-3.5452,2.5963,1.4325,
7.4509,-8.7175,2.7577,7.6339,48.9835,-37.8788,-2.9485,-223.863,3.056,-0.62995,2.4594,-8.3944,-2.139,-2.7506,
7.727,-8.9174,1.3877,5.9708,46.2856,-37.7752,-9.2791,-224.5312,2.15,-3.243,2.553,-6.6852,0.64117,-4.755,
10.638,-6.4539,6.6068,8.5048,39.6523,-36.4728,-5.3479,-225.1593,-1.3537,-3.0487,-1.4568,-4.8381,2.0487,0.35127,
9.7586,-7.272,10.308,9.1996,34.6217,-31.1512,6.3012,-225.7498,-1.9956,0.26751,-0.64626,-6.2348,-5.5462,3.4635,
10.1371,-5.8715,10.1712,11.5399,34.4725,-22.0513,7.3692,-226.3048,6.3191,6.5182,0.35661,-2.4865,-6.1776,3.7374,
7.3595,-6.2424,0.16117,6.7499,31.1991,-20.9691,-2.9549,-226.8265,1.3604,2.5119,-6.6544,0.79595,-2.1913,-1.0664,
7.882,-4.4216,-0.33066,2.4888,29.3274,-19.2291,-3.2598,-227.3169,-3.5417,-1.0135,-5.2911,2.1947,0.83251,0.44407,
12.4706,-1.5052,6.6788,7.4009,28.7726,-14.9421,3.9254,-227.7779,1.2503,0.25239,-1.8403,-3.4808,-2.8331,2.5864,
10.5175,-4.066,7.4834,9.126,27.2872,-15.2506,6.8234,-228.2112,5.755,3.8527,-0.042701,-3.9949,-4.3503,3.1545,
5.3067,-5.0273,-2.848,10.7476,21.0705,-16.505,1.8342,-228.6186,4.2044,2.8986,0.20083,-1.5865,0.0080454,3.2058,
7.8806,1.0589,-5.087,12.0312,14.5038,-13.5862,-1.1679,-229.0014,5.8801,0.79627,0.18855,-1.4911,3.8642,2.0498,
5.9617,-0.45065,-1.89,3.5963,12.6693,-14.2175,-2.0621,-229.3614,4.0813,-1.6619,-2.2331,-0.43752,0.74004,-2.8941,
2.9525,-2.1108,-3.9453,3.6215,16.4886,-13.1233,-0.25117,-229.6997,1.1853,-1.8031,-3.7859,6.0967,-0.99159,-1.5152,
4.2218,-3.9126,-5.1551,2.922,13.5711,-17.6385,-1.6824,-230.0177,1.5959,-3.6229,-5.0052,5.7306,0.032002,-1.4245,
5.8967,-4.6417,0.93883,0.33659,5.0441,-18.0263,-3.0274,-230.3166,1.5002,-6.298,-5.6688,-1.844,-1.4162,-3.7492,
5.3017,2.6264,6.4263,6.8241,4.5005,-5.1346,0.76962,-230.5976,3.5795,-1.8226,-1.7135,-1.4922,2.2844,2.0196,
6.1891,1.2642,1.4612,3.2814,3.9897,-6.0313,3.375,-230.8618,-0.25042,-6.2927,-3.2977,-2.1258,3.8348,1.6577,
14.0125,2.6342,2.3379,3.5664,10.0168,-6.6335,6.0648,-231.1101,-3.1279,-7.3614,-4.0637,-0.070055,3.6043,1.5578,
12.2074,7.7788,5.0897,5.763,16.6464,5.8158,5.2187,-220.4974,-1.494,0.31109,-3.3379,-1.5121,2.9061,2.4286,
10.2701,10.9275,1.6508,4.6939,18.7809,14.3847,9.003,-205.5806,-0.68144,-1.8767,-0.96848,-3.5905,4.419,3.0058,
14.4744,11.2359,0.10574,5.3764,16.208,11.1115,15.6936,-195.1737,-3.5328,-6.5846,1.9819,-0.00042921,6.5642,11.0204,
9.9903,4.536,-1.5881,-0.49006,11.138,5.865,12.1005,-193.3457,-2.5977,-6.4307,1.1399,-1.6879,4.4829,14.9387,
5.7757,1.6125,-1.2516,2.1911,11.675,4.7902,10.6515,-186.8064,1.6557,-5.8037,0.34835,-3.756,3.4908,11.3911,
9.2853,2.4798,0.26954,7.844,7.6,5.9489,9.5303,-171.7416,1.0742,-6.4196,1.2915,0.326,7.1379,8.2972,
8.2462,3.2952,-2.1568,6.8914,-1.5329,4.6278,4.138,-159.9909,-3.3286,-6.9987,9.4088,0.30644,9.6017,6.8355,
2.69,1.4102,-3.7143,7.683,1.6924,0.25257,8.9514,-154.489,-4.8163,-3.4455,14.87,-0.91701,7.3386,7.6305,
-0.36367,-3.0125,-3.0093,-2.4187,3.5193,-3.6187,8.8965,-153.4144,-4.0452,-5.1668,1.9269,-3.2723,-1.7786,6.6905,
9.5401,9.4603,5.6069,0.85945,10.2977,8.4085,6.1933,-139.1481,4.6337,-5.5797,-2.2865,1.5033,2.4255,12.797,
9.9318,11.3026,5.7527,6.1103,10.1618,12.7245,6.7858,-130.3172,3.3911,-6.6914,0.743,1.4133,8.0643,12.0289,
-0.063902,0.74274,-1.5821,-0.76357,0.15233,4.9716,7.5839,-130.9336,-4.2839,-4.1205,2.3859,-1.8047,3.0014,4.7995,
-3.1938,-3.3994,-6.0667,-1.4409,-8.7749,-2.3166,2.5494,-130.0677,1.0345,-3.6321,5.8579,-4.3478,0.17,3.3065,
5.193,-0.78508,-5.7027,4.4301,-5.3561,-1.6956,4.8065,-121.7815,12.5416,-3.8965,16.5937,-0.71246,14.1391,8.4107,
4.6402,-3.3893,-7.048,1.513,-3.8297,-0.38884,6.2054,-119.0541,6.7277,-1.9753,13.4287,-0.91091,17.8703,4.2904,
-2.3869,0.67044,-6.143,-6.2908,-3.5999,3.4909,1.4945,-119.1417,-1.3885,0.55358,2.4998,-4.7129,5.2286,-0.78748,
-0.55642,10.9945,-5.5334,-5.6724,1.1956,9.307,1.6458,-110.7882,-3.4748,-2.6131,0.18066,-3.2248,3.2277,1.4289,
6.4666,14.9144,-2.0682,6.4783,4.7393,10.9179,8.055,-95.2228,-6.3996,-5.5896,0.41101,1.0663,11.9523,6.887,
6.3196,10.886,1.1894,5.3663,2.7677,8.5756,12.6329,-87.8224,-6.7385,-4.5313,-0.33701,0.76086,11.9581,9.1249,
4.4944,10.715,-0.81038,-0.25811,-5.1111,13.3638,8.9829,-86.8914,-6.3344,-1.8491,-3.2091,-0.24843,2.0818,4.2389,
6.6351,14.4107,-3.654,3.1321,-2.8763,20.7569,4.1054,-80.2317,-7.4004,-3.1842,-5.4264,4.587,-3.8279,0.6103,
5.7548,15.9564,-2.9526,1.4981,9.3476,22.4037,7.2335,-74.4537,-5.028,-3.4753,-1.7266,8.6503,4.5967,3.9484,
-0.13387,11.3834,-4.9449,-2.6894,4.6892,16.48,7.0404,-79.8686,-5.9318,-4.4718,0.063975,4.0337,12.2749,2.024,
2.5255,9.0129,-5.8532,-0.84101,1.2746,12.3579,4.4489,-79.656,-4.3704,-2.9985,2.7115,1.6223,14.6716,-1.7126,
5.9894,14.4981,-3.8148,3.7892,13.0085,14.2678,1.0487,-70.7791,-2.9033,-3.0595,1.8259,1.7659,11.1402,-0.88696,
3.9428,16.2793,-0.93438,3.8028,9.0945,18.4732,1.2267,-66.7735,-4.8983,-4.5632,-2.8634,2.3833,8.7846,0.37155,
1.2959,6.6257,-0.87855,-4.6203,-5.5512,12.5443,3.0813,-71.9259,-5.5685,-7.6636,-0.28127,-0.17004,7.2934,0.34903,
0.25378,4.3,-2.754,-3.3792,-2.6873,10.8275,3.3784,-72.913,-4.7524,-7.2038,5.5202,3.2146,5.4096,5.1488,
-1.2077,8.8622,-4.035,-3.6584,11.574,14.9981,2.6935,-70.4664,-4.4673,-1.9513,-1.0775,7.842,4.6026,4.8394,
0.31102,3.5102,-2.3467,-5.3671,9.3128,10.2421,4.4603,-70.0948,-3.7169,2.0222,-4.8693,5.9257,4.8088,2.1389,
5.3543,-2.7261,-1.9647,0.98072,6.1029,6.9762,7.8081,-71.9147,0.12134,-1.2324,7.7152,7.2571,7.1716,6.1082,
3.1048,1.2938,-3.775,1.8857,5.2546,11.3782,5.8934,-72.4203,1.5603,-4.0505,9.6624,6.8217,8.1876,4.7778,
5.0877,11.5805,-2.3437,3.4598,7.1085,17.2032,5.7807,-67.3522,-3.113,-1.1564,-2.2455,1.8327,6.0091,2.3215,
11.2899,13.5368,-1.4797,-0.84512,12.7077,15.93,3.7469,-68.3725,-4.613,-3.7381,-1.8698,1.4822,-1.8232,-1.4327,
2.1764,2.8426,-7.8988,-9.2305,-2.1547,4.1277,-2.5039,-77.5268,2.1712,-9.0579,1.8578,-2.7046,-10.6319,-9.301,
-2.0513,4.8415,-3.3273,-3.1329,-16.1254,4.1215,2.2261,-75.5262,3.246,-4.8988,1.0236,-4.7112,-9.7528,-8.0198,
2.6513,8.1662,0.0055672,-0.29357,-3.1066,11.8279,6.672,-75.092,-8.2767,-6.2919,2.1673,-0.81335,-6.5163,-2.9591,
4.4204,2.8555,-2.4049,-0.27596,11.1798,8.7079,6.7536,-79.7458,-10.6726,-8.8069,2.5192,1.6456,-5.1615,-0.85334,
3.4318,-0.44887,3.283,1.4278,17.3779,-1.2146,17.1947,-76.1661,1.2959,0.63961,2.1266,-0.62232,-0.27249,3.2952,
-1.1122,-4.2786,5.014,1.3419,10.0688,-9.3364,17.6092,-77.8626,-0.22786,2.5292,2.9636,-5.4055,-0.25591,-0.27672,
3.775,-1.1296,2.7852,6.0819,15.2492,-3.4738,8.8397,-79.9398,0.26752,0.93142,8.5701,-0.26065,3.6156,-3.1524,
1.3789,-6.6054,-2.9255,-5.6112,11.2008,-6.8808,1.8016,-84.0612,2.4211,-0.32976,2.0303,2.4061,1.7119,-2.7223,
-4.0063,-10.0652,-1.7859,-8.6488,3.2981,-13.2166,4.5858,-85.2843,0.82933,2.1004,-3.3939,0.33375,-4.6576,-0.63053,
-4.2478,-6.5693,-1.6787,-1.3809,3.5826,-7.6031,7.2032,-80.167,-2.1125,3.9026,-0.78014,0.79566,-1.486,-1.0751,
-3.9929,-8.1033,-4.9525,-4.1906,3.8496,-3.2906,0.50423,-72.4647,-4.3959,5.1147,3.1231,5.5686,1.4956,0.9176,
-5.9225,-9.7863,-2.4862,-2.7339,-2.8891,-6.2264,-6.0337,-69.3219,-3.8911,6.9769,1.7308,7.8856,-2.6915,1.104,
-5.8081,-5.1017,-0.16784,-1.365,-5.8492,-4.1658,2.282,-74.0809,1.4035,5.353,-3.4347,5.7252,-3.7353,0.79631,
-0.88036,-0.21634,-0.39874,-3.9342,-0.43683,0.66366,10.581,-71.8052,2.5246,-0.029371,-5.3982,-0.16188,-1.8239,0.50756,
-0.10418,1.0019,-0.61578,-2.0109,-2.0976,-0.099061,4.4028,-63.3993,-2.6885,1.1777,-0.012653,-0.87507,0.93661,-0.24579,
-4.4365,1.9059,-0.5786,-3.3367,-4.8643,0.87098,0.28198,-64.416,-6.8658,2.5531,-1.9399,-0.82279,-4.422,-0.23127,
-0.79607,5.6482,1.866,-2.6544,-2.6442,5.639,5.0855,-62.4793,-3.5615,0.47145,-4.7162,-2.7014,-8.4952,-0.69956,
3.349,6.5146,-2.3433,-4.1823,-5.1367,5.0599,5.0216,-61.8638,2.6782,-0.27974,-3.2279,-3.2622,-3.8882,-2.8267,
-1.1902,6.1232,-9.9155,-4.4133,-10.6133,1.3819,1.3459,-67.7929,3.4813,1.6652,-3.9981,-4.9951,-3.1729,-3.1391,
-1.119,4.7922,-3.5357,2.6001,-11.4225,1.2989,3.1933,-65.6535,-1.0661,3.0114,1.0622,-5.6595,-2.5004,1.3878,
-1.2926,0.88903,2.2198,-0.68913,-11.4601,-0.46599,5.653,-60.9912,-5.5812,-0.30258,2.6855,-2.6686,-1.6272,3.4739,
-4.8303,1.5588,-2.9748,-2.3348,-8.1211,4.1415,3.1447,-58.5368,2.2253,1.885,-5.4291,5.4455,-0.32409,3.0243,
-7.6742,2.1884,-7.8583,-5.3284,-4.5008,7.026,-3.5519,-60.0865,7.1532,3.9408,-11.1296,3.9137,-1.0282,4.5298,
-4.0805,5.6723,-4.735,-2.8393,0.34873,7.3276,-1.6514,-61.0606,-0.74757,2.4993,-8.2925,2.9557,-2.1716,14.1402,
-3.1123,7.0192,-5.6562,1.9108,2.4972,6.647,4.9554,-60.5302,-6.2463,2.1084,-4.1795,6.8757,-4.2105,17.8716,
-4.1308,0.5725,-7.9679,-1.8193,-0.78589,1.6689,3.935,-61.9598,-1.2923,2.2228,-0.79524,2.3658,-1.3063,7.3993,
-2.4367,1.0201,-4.1158,-3.1564,-4.5954,2.0507,0.80659,-65.4731,1.6778,-0.32067,0.2168,-2.1144,3.1104,-2.2037,
-3.7368,1.9232,-3.8689,-6.8234,-4.3196,5.3018,0.27603,-67.3293,3.0234,-1.2658,-1.7244,-1.9876,-0.45067,-3.9997,
-1.5844,-2.0486,-0.74423,-2.0757,-0.686,7.3941,6.5262,-59.4331,6.2164,-0.22549,3.1993,-2.8326,4.3971,1.5429,
0.92082,-4.3362,0.26429,5.2797,1.2831,9.8425,11.919,-56.3493,1.5047,-1.6582,6.8637,-1.2164,9.9178,4.3424,
-3.9549,-0.70139,-3.1258,0.14246,4.0987,13.5905,10.24,-60.6811,-0.51403,-0.11269,4.0416,3.677,5.9485,2.6358,
-5.4046,3.4378,-0.28692,0.85704,7.9501,16.3905,7.4562,-58.2456,1.6862,1.0991,-3.6725,2.2514,1.494,0.3083,
0.46304,2.5089,2.8635,0.56442,8.1962,14.6842,9.6601,-57.4019,0.8619,-1.1357,-6.5854,0.42928,-0.76498,0.531,
-1.2515,1.1531,-1.8875,-2.6025,7.9454,12.1159,15.1063,-59.9833,0.56922,-2.7548,1.7635,2.5727,2.4144,2.6683,
-5.274,5.1815,-7.8001,1.1689,8.6742,8.7376,13.4768,-56.6253,1.7401,-3.7946,5.2733,-1.1973,7.8134,1.3031,
1.068,5.5935,-0.82413,6.1604,8.8764,13.2748,10.981,-49.1304,2.3591,-1.8797,-1.0691,-1.8484,11.9239,4.8404,
1.9678,0.91908,4.0456,6.7547,5.4515,17.781,12.2503,-48.111,-0.67499,-1.285,-2.9332,-0.29168,9.7622,7.442,
-1.5247,2.7921,1.3927,5.8674,8.4987,19.1242,16.3358,-46.1885,0.81177,-3.6185,8.812,-1.238,13.0328,7.9598,
-3.6022,2.3839,0.10408,2.8641,4.8555,20.6281,13.1865,-40.7658,6.3065,-5.5703,6.5963,-2.3688,9.5995,5.7948,
-0.011606,-0.1693,1.5441,5.1024,2.154,20.8367,10.9492,-40.2479,7.8563,-2.3436,-2.4766,1.6297,0.82886,6.8933,
0.47102,-0.15914,-2.4049,-2.4342,3.953,10.9096,11.2564,-48.4383,0.63643,-7.5056,0.082582,-1.8425,-3.0773,1.1776,
3.817,8.0449,-0.81507,-1.3245,10.9467,10.737,17.3295,-45.5322,2.0443,-10.4299,7.7902,-3.178,3.8561,-5.6422,
1.9012,3.4653,-2.9349,0.44222,5.2282,15.6364,13.1567,-42.5591,2.1626,-13.9015,-0.14905,-3.2283,4.83,-4.5803,
2.5103,0.12412,-2.5176,-0.30699,-1.1108,13.9753,10.1981,-38.8002,4.2022,-11.8621,-1.3452,-1.8295,3.3351,4.1304,
-1.0153,1.5625,-2.367,0.6753,-1.0446,2.0493,11.032,-38.8828,3.9501,-8.7405,3.0739,-3.648,-0.2399,0.50811,
-15.0544,1.7097,2.3548,1.8401,7.4542,9.3984,17.8421,-33.8983,1.0615,-3.6363,8.9154,4.0427,5.3186,0.71859,
-28.2511,5.4637,3.1776,0.76557,10.8635,22.9345,15.8075,-27.5261,0.033743,1.8843,9.3446,12.959,7.8917,5.496,
-40.656,3.6894,-1.3521,-6.0295,3.4626,12.7606,5.2179,-33.5875,0.51388,2.2534,-2.7855,6.879,-4.6335,-2.5468,
-52.3167,3.9502,2.5857,-3.2574,10.4859,11.5133,9.7255,-28.6797,2.8934,3.0823,-3.5824,5.5022,-2.4271,-1.4294,
-63.2777,3.4725,2.6717,4.4101,18.7746,24.9225,13.2393,-16.1127,-3.7879,-0.71784,-0.71616,6.859,5.6725,3.2354,
-73.581,3.7458,0.10107,1.2528,15.2378,26.4397,11.4806,-11.2898,-0.18641,2.6994,-3.0835,6.4477,4.368,2.0772,
-83.2661,2.7984,-0.14573,-1.9552,12.1546,17.3819,11.9973,-13.2633,5.8505,3.7425,-4.1036,1.9637,0.9727,0.74747,
-92.3702,0.94304,1.55,2.7416,14.5585,17.5438,15.8568,-10.2983,4.2945,-0.57913,4.5785,-2.7341,0.67314,3.3539,
-100.928,-1.7649,-1.1943,-2.9667,12.48,16.7324,12.7362,-13.2958,-0.060797,3.0708,1.1706,-3.7751,-6.8388,0.50138,
-108.9723,0.75138,-1.1224,-2.7885,9.8027,10.908,14.3822,-13.4622,3.3175,14.4559,-8.5409,5.1283,-9.8032,-0.4928,
-116.534,0.9475,-0.81435,-0.93418,8.4914,7.602,21.4732,-2.7725,6.7337,8.0447,-6.3414,7.4719,-3.6711,0.74184,
-123.6419,5.7111,-0.76525,0.085965,10.3923,21.2458,17.7744,7.9989,-0.41903,-0.63287,-0.17613,3.1674,1.3696,0.21516,
-126.3461,19.4685,-0.71957,2.9731,7.8408,34.0711,8.5133,16.1961,-3.7681,6.6362,-1.1297,4.9054,4.1797,1.1668,
-126.4783,20.59,-6.461,-7.3282,-6.7296,46.1268,3.1818,15.7062,-4.5063,3.3455,-8.7747,2.2009,-4.7482,-2.7596,
-117.6845,26.3442,-1.9757,-2.7914,-20.4259,56.2539,8.0523,24.6458,-3.0309,1.9397,-5.5969,7.1303,-7.1146,1.0212,
-111.1052,24.7638,-3.7852,-2.6237,-33.3003,61.0741,1.7848,28.4699,-7.6695,2.7874,-3.815,5.2565,-9.0976,-0.48612,
-110.7056,13.1549,-11.753,-4.8766,-45.1613,47.7684,-6.5172,25.7976,-4.799,-2.2003,1.2344,-1.3257,-6.1419,-4.7955,
-112.7404,0.31424,-16.8326,-4.1018,-50.6468,34.2973,-13.8392,17.9828,-0.65491,-8.817,1.6425,-4.6204,-8.1837,-9.3283,
-107.181,-1.3916,-12.207,-6.5071,-50.741,34.8908,-11.8035,22.9298,-0.37442,-3.2265,-1.1074,-3.1381,-11.7898,-8.0454,
-96.1706,3.2712,-8.3416,-3.9475,-45.0455,36.8947,-7.9621,30.9538,-2.0392,0.5825,-0.79999,-3.1908,-7.467,-4.9116,
-85.8211,5.2441,-8.5644,-2.5058,-34.389,37.814,-7.7253,30.7836,-0.2296,0.30658,-0.99295,3.9901,-5.3322,-2.9297,
-82.1179,3.0012,-7.0862,-5.7294,-31.8435,36.5095,-6.2977,33.2751,-0.69776,1.2521,-8.6462,10.0177,-12.2427,-2.7539,
-72.3703,6.1954,-0.87625,-0.56518,-27.0406,36.2469,1.311,39.9557,-2.1024,2.6234,-11.0197,5.56,-9.0977,-0.66025,
-66.5816,3.4135,-1.3056,-0.04888,-19.1512,30.6981,3.1608,37.0764,0.91628,-0.4265,-5.0558,-1.5221,0.12522,-0.1387,
-67.1665,-4.2629,-3.3967,-0.76954,-20.1715,20.4203,-0.64452,35.5748,3.5126,-3.0522,-3.0655,-1.19,-3.4979,0.59275,
-59.2801,-4.0073,1.6276,0.24073,-24.746,19.6768,2.2864,39.2248,0.40958,0.023186,-5.2919,0.32744,-10.0367,4.8953,
-50.6616,-4.9717,-1.6035,-1.9429,-22.056,18.7376,2.3904,35.6663,-3.2304,3.6372,-6.1792,-1.8609,-7.7473,5.8069,
-49.3091,-8.2893,-8.015,0.82525,-20.4916,12.5517,-1.8506,33.7673,-0.86743,2.2137,-2.1931,-2.4726,-3.6671,5.2175,
-45.1453,-4.1763,-1.99,1.4989,-23.3595,14.4499,-2.9446,39.6952,-0.092254,0.39387,0.58984,0.32707,-2.242,4.6637,
-33.278,6.1972,5.3597,4.301,-15.2095,21.2957,0.12414,41.6518,-4.9074,4.2266,-5.2306,4.6458,-3.5537,1.009,
-27.9069,6.7895,0.6996,5.007,-6.5841,15.6794,3.009,37.2243,-2.6846,3.0089,-9.7372,3.4029,-5.2689,-1.4619,
-29.8479,1.8028,-0.54721,0.12732,-9.3221,12.0875,3.5518,36.6783,5.4303,-4.1615,-3.6094,0.065718,-2.7832,0.7954,
-27.5751,3.1407,0.93166,1.0833,-14.5476,15.7004,1.4103,36.4056,4.6223,-3.9116,-0.50054,-2.3486,-4.0627,-0.21642,
-21.5818,6.3265,-2.9809,-1.3916,-10.3003,14.7586,-0.12037,33.7395,0.97071,-0.78458,-6.2549,-2.2079,-4.3006,-2.1314,
-20.2869,10.2856,-5.2121,-2.2724,-4.3796,16.2832,-2.5233,33.6433,2.3587,-2.1838,-7.3258,-1.1111,2.7059,-0.55772,
-25.5774,7.4991,-3.6943,-2.8592,-1.9477,18.4394,-2.6131,33.3117,2.9403,-5.186,1.0677,-2.7319,5.6768,-3.6575,
-23.3198,0.54123,-4.678,-7.2669,2.7487,13.7177,-0.28713,30.108,-1.3334,-6.5621,4.6191,-4.2552,-0.20743,-8.0178,
-11.5565,-0.69608,-3.6739,0.1585,7.6452,12.1717,1.8993,32.8808,-0.048598,-1.589,2.6547,0.097466,1.4922,-4.8852,
-13.9964,-2.8237,-3.6947,0.39019,3.0891,12.1645,2.0265,33.0773,2.1237,-5.5908,0.32601,-1.5954,3.5721,-3.8689,
-14.6029,1.6843,-3.9552,-3.9718,0.97561,11.4344,3.3509,30.6105,-0.41407,-11.0402,3.1987,-4.8739,-0.016914,-6.0472,
-3.1214,5.9218,-3.7176,-2.7689,7.1838,10.2667,2.6679,32.6305,-1.8353,-6.0392,3.9709,0.72097,-0.97954,-7.6123,
0.92202,5.0841,-3.0126,-3.0852,11.573,9.1683,2.0257,35.011,0.20305,2.0359,1.3225,6.4623,-0.92122,-7.156,
-3.7128,5.5021,-2.1088,-1.2131,9.6736,10.3056,4.5555,35.0795,1.3959,0.22675,0.52005,2.4594,0.33911,-5.0392,
-3.731,1.0749,-2.7054,-5.2374,8.852,6.0716,4.041,31.2875,0.10711,-4.3668,1.6939,-2.7501,0.078029,-5.9424,
-0.1327,-5.2566,-3.5069,-6.3694,9.7671,-1.523,2.3525,31.8206,0.10069,-4.1044,2.0742,-1.6208,-4.265,-7.0316,
2.7676,-3.4947,-0.8866,-3.095,6.771,0.49631,3.1754,38.1063,0.094415,-6.2685,1.4681,-0.077498,-4.0093,-2.7531,
3.3246,-3.526,0.37189,-3.6322,1.3033,7.4564,-1.1125,38.9532,-0.15222,-7.0976,1.6209,-1.2777,2.2568,-5.7214,
1.4379,-4.5199,0.10838,-0.28098,2.4299,5.3216,-3.697,39.7493,0.098113,-7.3949,1.2825,0.96791,2.8445,-10.922,
4.4849,-2.0794,-0.13886,-0.98725,7.8277,-1.5054,4.4785,40.9797,-1.1128,-8.1563,2.4106,4.0431,0.98686,-4.7228,
12.6517,1.6608,-2.2997,-3.5791,12.4197,2.2003,9.7537,40.6903,-1.287,-3.5696,2.5069,0.66748,2.1329,-4.1985,
15.0261,2.2843,1.4535,1.6971,13.8437,3.7557,4.5889,39.9361,-0.96907,-3.5961,2.1158,-3.4702,2.2457,-10.4543,
10.2679,-1.7094,6.1868,4.4876,7.2285,1.12,0.93914,39.4679,-0.42877,-8.6832,4.3987,-4.708,2.5931,-5.0065,
9.1699,-1.1249,2.4411,3.254,1.4922,2.981,-0.56347,37.0998,-0.88497,-3.8235,1.7247,-2.0154,2.4375,-0.84976,
10.0657,4.2455,-3.0078,-1.7617,6.705,7.6227,-0.52966,34.8739,0.61415,5.0828,-2.7174,-1.4123,-0.11908,-5.1373,
10.4259,5.4368,-5.2377,-2.1382,10.1591,9.5756,-0.01595,39.5301,-0.38679,5.742,-3.0365,-3.7379,-1.076,-2.9011,
16.7902,7.7619,0.62043,3.5339,9.3088,10.2062,-1.702,48.4867,-0.60478,5.6386,0.27943,2.5121,0.67553,1.8529,
18.4344,6.0911,2.7526,-2.7034,12.3657,8.8711,-2.8047,43.4084,-0.3273,5.0591,1.4677,5.0127,0.39426,0.05475,
17.0871,4.5204,-1.9923,-1.3364,14.2749,7.6155,-0.46749,39.1166,-1.0306,2.5864,2.1026,3.5067,0.61157,1.2563,
20.8821,8.1055,0.53736,1.6359,8.5981,8.6044,2.4528,50.8696,-0.0048593,4.3594,0.048217,4.2602,1.0568,1.6629,
24.4497,13.404,6.7719,-1.3546,6.6358,9.5346,4.7158,61.9175,0.4776,3.6157,-1.8826,2.0766,0.51124,-0.36488,
25.6343,13.3229,7.0887,2.3423,12.7458,8.7213,5.6381,59.6484,0.20774,-1.1808,0.88164,-0.69934,0.72176,3.2722,
24.3372,6.498,4.9761,0.51457,10.7757,6.0289,3.1307,58.7209,0.43625,1.0592,0.58778,2.958,1.4014,3.7992,
23.841,8.0358,9.9802,0.4837,0.96993,4.7028,0.050339,63.3923,-0.071862,3.4058,-1.3761,2.2986,4.6917,0.67876,
20.4824,11.8922,10.3455,4.7932,-1.4984,9.2416,-3.3269,64.8914,-1.0316,-0.17276,0.15291,-3.1417,1.036,2.0841,
19.2534,9.2507,5.8681,3.0591,1.4838,10.6151,-4.0914,72.5673,1.9225,1.766,-3.2309,1.3849,-4.811,6.2976,
20.7496,5.5624,6.2392,4.5631,-0.29222,4.4348,-1.6765,80.5056,1.0841,2.3832,-4.2421,0.57912,-0.42473,3.7508,
21.674,3.5415,7.0701,4.5302,-0.033723,3.4453,-3.2632,77.3625,-3.0783,-4.7497,3.0023,-2.5891,7.555,1.3561,
24.2299,2.847,6.6459,1.3664,8.1632,13.362,-4.0315,76.0952,-1.9293,-6.3929,2.8221,2.8689,4.6911,4.6492,
25.9091,1.4707,5.524,-0.40308,8.3963,12.3191,2.236,79.001,1.8016,1.4623,-3.8549,1.0093,-0.16991,0.27267,
23.3905,-0.54574,4.2283,-1.3432,2.108,-0.47164,3.0659,76.1892,1.6935,2.3389,-1.6954,-2.4257,3.2147,-10.3485,
23.1924,-2.6822,1.8054,0.90699,8.0071,-1.1662,-1.6976,74.2691,-0.095299,-3.3451,1.5398,-0.11056,3.2628,-12.3792,
26.6213,-1.5571,4.5894,-1.0758,15.2396,3.2423,2.2607,76.5617,1.8388,-6.5186,-2.8912,0.37778,4.5131,-7.2979,
24.5419,-1.9454,5.7605,-1.4935,6.1303,-2.2547,3.0891,80.1629,0.28202,-7.574,-7.5382,-3.0191,1.35,-9.2704,
19.6949,-6.6494,2.04,2.9345,-5.3247,-8.3864,-2.8808,84.03,1.7114,-1.335,0.14496,0.53649,-5.4799,-10.1604,
18.0313,-10.589,-3.3849,-0.61582,-3.0771,-12.2213,-6.0822,83.8087,1.1265,1.1555,5.4387,-1.4241,-3.7046,-10.5144,
26.5906,1.6158,1.1568,5.2059,9.1589,2.612,1.5136,92.8802,-0.38711,4.9428,1.7381,2.9999,5.6769,-6.9913,
24.513,0.55448,3.9799,2.0011,-5.4906,11.0114,-0.98757,101.4074,-2.774,7.0563,-2.7049,13.4252,-0.44873,-2.7154,
16.5345,-11.2887,3.9823,-4.6263,-19.2612,-2.9054,-5.5078,94.841,-1.4025,2.0534,3.0012,8.5221,-8.3753,-3.2756,
22.5323,-8.4422,4.9482,0.71254,-4.0055,-14.5417,3.2585,93.2479,0.36887,-1.6852,4.9903,1.9852,-1.8473,-10.0689,
24.3139,-8.6588,2,0.91098,10.3348,-17.7663,11.9811,101.753,0.58794,-2.7891,1.5576,4.0355,4.7713,-10.6699,
17.07,-17.7805,0.91589,0.8561,23.8147,-30.8003,13.1902,105.4093,1.9987,-5.996,5.3203,-0.063259,5.4491,-5.6911,
17.0101,-25.8724,3.7532,2.2512,36.4858,-43.0523,13.845,99.5671,5.253,-8.0466,6.9295,-5.3619,8.9788,-7.76,
22.4972,-27.4536,7.1437,5.7313,48.3967,-48.6641,17.5939,106.8492,6.6253,-2.9843,2.8986,3.3957,11.0909,-11.392,
23.3165,-24.6011,6.4741,9.9672,55.9775,-37.3083,17.2614,114.5383,4.5405,-3.5281,1.0374,9.2175,9.7026,-9.0212,
18.0609,-25.0534,3.1931,5.5123,41.5316,-42.7828,14.2973,117.9094,-0.55262,-4.7627,1.4571,-1.4589,8.1561,-9.9262,
16.9775,-27.4064,2.5196,5.182,37.1115,-48.4106,12.4755,112.7635,-0.037527,1.3076,2.334,-4.7453,7.6672,-11.2584,
19.3331,-25.7622,-0.52409,5.3531,36.813,-38.2753,12.6909,112.7461,2.8572,4.1212,1.7116,2.2878,6.2428,-8.1728,
17.6909,-24.2165,-1.457,3.5856,34.6042,-28.266,11.9294,120.0813,1.2395,1.9458,4.9833,2.1506,6.3502,-9.1287,
13.2553,-28.0662,2.9692,2.4061,23.8509,-32.3547,8.8033,126.9765,-0.76302,-1.063,4.6843,-3.7631,4.5229,-12.9197,
18.0038,-23.2487,3.032,-1.3532,24.1075,-36.9209,7.5522,130.4451,3.8625,1.1699,0.30592,-3.2958,4.0106,-11.4212,
21.5031,-11.9716,-1.247,-1.9951,29.6507,-30.1261,6.8583,131.5367,4.8358,7.1255,-1.8818,0.99903,0.63668,-11.941,
12.0177,-17.5203,-3.1008,-6.2142,21.6047,-19.1597,3.5543,133.285,-1.7213,7.1799,-0.80459,3.3492,-3.7398,-14.117,
9.6097,-26.3508,-2.1917,-8.0103,15.2469,-12.4665,4.0642,131.7961,-0.89489,3.6158,2.8589,4.8357,-0.86413,-11.5825,
11.2022,-23.0827,-6.1573,-2.9501,10.235,-10.9954,2.1331,133.2881,1.8101,2.6758,1.4823,-0.51587,0.39278,-9.2006,
11.9764,-12.5385,-5.3061,-1.809,8.1744,2.1978,3.9333,139.3908,2.1837,2.9974,0.91118,-1.9314,0.85138,-7.2025,
17.7653,-5.7606,1.0378,-0.013723,14.6738,16.1659,11.1691,142.717,0.36543,4.9867,-1.3126,5.1743,1.5232,-3.6369,
18.6275,-12.1637,-0.47052,-1.4589,17.1676,10.4958,11.4631,139.9388,-2.0668,4.6873,-0.75173,7.2742,0.46771,-2.9365,
14.3766,-16.4955,-4.0575,-4.0227,18.307,3.8402,9.0881,130.8193,1.1904,0.3089,3.8729,4.6684,0.68084,-5.4117,
15.4422,-4.9008,-3.3321,0.55742,21.5469,16.6252,9.5069,119.5957,-1.7731,-1.6378,3.1586,4.8702,-1.2887,-7.9795,
21.5056,-0.026958,-0.48062,0.28301,20.0131,29.7277,12.07,118.9279,-9.6204,1.5935,1.2818,3.3732,0.47589,-3.8853,
25.0357,-5.8099,0.03015,-1.6622,19.7766,27.5828,9.8995,122.3971,-7.5974,-0.43033,1.6869,0.27827,4.7861,-2.2059,
20.4001,-8.1131,-7.4437,-3.2499,16.4206,13.1532,4.2438,112.8838,-1.5977,-10.2867,0.38059,-5.2818,1.8476,-10.0275,
17.971,-6.903,-4.8279,-3.7778,6.9993,7.7847,8.0868,101.0496,6.4519,-4.6078,5.419,-4.242,2.4597,-7.2567,
15.4467,-14.6837,1.2466,-0.65884,-3.5434,6.3535,8.0838,95.4688,6.065,2.4174,8.9505,-3.5053,3.2762,-3.9286,
13.7966,-18.3822,-2.9256,-3.2709,-0.67967,10.0697,4.4652,96.2481,-0.80683,-3.7532,5.7619,-4.5003,-0.053874,-8.2726,
18.0307,-5.4687,-5.8833,-0.90522,4.905,21.2758,5.4026,103.7299,-4.856,-5.697,0.8371,-0.13269,0.19055,-6.0888,
21.7693,2.572,3.6285,10.2366,2.2003,23.3735,9.8989,104.7367,-2.6362,0.4292,-1.1415,2.7676,-0.78498,-0.90297,
15.8836,-6.5002,5.0978,5.0424,-3.4756,13.5352,6.6537,90.9804,-4.6474,-5.1399,-1.3138,-3.9062,-10.62,-6.8746,
18.0639,-2.495,0.21241,4.4991,5.1689,15.3744,6.9774,90.1011,-2.1992,-8.9291,-0.99422,-3.4306,-4.439,-3.3288,
14.8107,-3.0684,-6.79,-2.279,10.4021,11.8006,5.3534,89.7565,1.066,-7.1883,-8.8885,-4.4303,-2.0037,1.4504,
10.7888,-5.5354,-3.2491,-1.4189,7.6088,9.4054,5.2734,91.361,0.76108,-0.73147,-3.2935,-1.031,-3.0888,0.64003,
13.2749,-4.4804,-1.8489,4.2098,3.055,17.7591,3.752,84.6745,-5.7925,-2.8567,3.412,-0.72819,-0.73385,-2.0495,
18.9859,-3.0065,-3.9073,-0.62227,6.0049,18.8625,7.6242,70.6757,-6.1681,-4.8547,-0.40837,-1.8896,-1.4129,2.1711,
20.7393,-0.41552,1.6298,0.86132,12.3935,10.9823,13.9156,66.4357,-2.9055,0.25727,-0.38386,-0.32992,-2.774,2.0408,
12.746,-4.7294,4.424,2.2559,8.2755,8.8771,9.2241,67.2698,-5.6237,-0.2401,0.60349,-1.2745,-0.19786,-5.7944,
11.9815,-7.3377,3.6767,2.6025,1.5124,15.5753,7.7068,70.9464,-1.4294,-2.1539,0.084891,-1.1975,0.77833,-0.62649,
15.6009,-4.0051,3.4563,1.4822,-0.024355,17.0511,6.7622,69.0999,1.0662,-2.5068,-4.2583,-1.6078,-10.8373,2.7858,
14.9058,3.2251,5.9,-0.77586,3.5925,8.5563,3.2232,63.7486,0.27937,-1.1511,-8.5825,-1.7523,-7.536,-3.8893,
15.9399,5.9236,5.0641,3.1271,5.3052,1.7764,5.4402,59.9237,0.74454,-2.0464,-3.7288,-2.6115,5.4497,-0.76342,
16.1886,4.8453,-1.7477,0.28836,0.8895,6.731,7.7649,52.2309,-5.8076,-6.5029,3.4843,-5.1059,-2.3491,2.4154,
19.5558,9.3748,-2.6067,-1.1752,7.5846,20.4272,7.299,48.6152,-5.9411,-5.1488,4.2396,-2.8714,-11.3672,-1.1035,
17.6593,2.787,0.68295,0.58231,10.7452,18.8401,4.2097,48.3496,1.887,-3.6348,-2.0406,-3.9042,-14.7827,-3.6886,
11.7793,-3.6467,-0.3219,-3.7909,2.3877,3.6097,2.9933,44.9667,4.6663,-4.3806,-1.9181,-3.6699,-13.8958,0.87102,
9.6263,-0.053677,-5.1235,-4.5276,-2.5765,2.5497,4.2597,39.8583,0.52966,-9.9026,-0.83894,-0.55742,-13.5442,0.81898,
13.146,0.67221,-3.611,-1.6046,4.0858,9.8683,9.0656,40.1177,0.73908,-11.4774,-1.0298,-1.2471,-12.9723,-1.8819,
14.0445,-0.091249,-0.74306,-3.6777,8.9021,9.035,11.173,45.6646,0.45354,-7.6555,-0.72681,-3.8236,-12.4351,-3.456,
12.7199,7.1451,-3.1086,-0.56454,1.1376,9.4572,7.1284,47.2635,0.90826,-1.8935,0.76306,-1.666,-12.171,-1.8024,
11.7153,7.4395,-2.6814,-1.2543,-12.1873,4.3103,3.5669,43.7041,5.9152,0.38905,3.3681,0.12096,-10.2356,2.8848,
11.7357,1.9317,-0.35108,-3.8299,-5.4303,-4.3842,3.5941,36.9847,3.8733,-1.8032,0.51518,-1.0914,-11.7909,-0.90347,
14.647,2.5389,-2.017,0.49705,8.9955,-1.9518,10.8503,26.8117,2.9178,-0.97236,-1.2032,-2.2309,-9.396,-4.9464,
11.3581,-4.8438,-3.3418,-0.49664,18.6996,0.09351,12.6098,21.829,3.707,-2.8418,2.2439,-7.3997,-6.4221,-2.7214,
6.579,-12.5074,-2.9003,-0.22587,6.7314,7.0778,4.3812,24.1347,2.2793,-5.8047,3.7961,-7.1967,-4.3495,-2.3172,
4.979,-11.516,-4.8957,-1.4174,4.6401,20.7531,0.020762,22.4454,1.9014,-4.2514,-1.4932,-3.6317,-6.258,-3.3832,
9.0188,-7.4506,-0.26363,1.5602,1.4696,33.6079,5.8043,24.955,6.608,2.7526,-1.4036,-1.9675,-7.8107,-0.77008,
8.4779,-8.4496,-1.2117,0.98463,-5.3675,29.1811,8.8305,19.6014,6.2115,2.5874,3.0194,-3.2957,-7.824,-3.6159,
3.8716,-8.6657,-8.1291,-4.1364,0.98034,22.3688,5.6494,4.6867,-0.66888,-2.6297,1.1508,-3.8211,-6.6314,-6.5327,
7.7369,-3.5663,-5.4719,-0.27252,9.8394,27.052,3.6232,10.4313,-1.8338,1.1437,-1.0876,0.50576,-4.5465,0.84937,
7.0313,-6.9682,-4.4207,-4.354,1.2948,29.0443,5.0928,17.7587,-1.0009,1.798,-1.2633,-0.72988,-6.4429,0.075049,
5.8867,-1.9701,-4.8782,-4.8154,1.4583,20.7939,12.2593,4.4013,-0.2177,0.48505,-0.46441,-1.8912,-6.7794,-6.4372,
10.1128,3.2093,-2.4163,1.0167,15.1096,12.5564,13.2107,-4.2989,-0.44561,2.1432,-2.1238,2.8021,-3.7211,-3.8818,
11.4342,-4.2141,-2.2718,-4.347,17.577,21.444,8.0795,6.0824,0.063063,3.4604,-2.4783,-1.7048,-2.534,-1.2387,
15.0867,-0.10438,-1.1712,-0.71171,17.0048,34.2573,11.9333,12.4659,6.8082,5.6634,3.9369,-11.7255,0.028172,-0.20009,
16.8328,3.0351,1.5504,2.4647,16.2252,30.3946,14.8327,4.7283,6.1585,1.226,5.3882,-10.2988,0.26768,0.53505,
12.6896,-4.1368,-1.6756,-1.2986,8.7442,17.7247,9.3635,0.34727,-0.71849,0.42951,-0.96067,-1.7271,-5.292,-1.1843,
10.9641,-3.4062,-2.5394,0.22558,3.8813,19.0714,7.3554,-0.63743,0.28894,10.0447,-1.8674,-1.6235,-4.4921,-4.9696,
9.5829,-1.997,-2.1461,-2.9214,0.5149,18.168,6.6729,-1.3225,2.9227,7.7548,0.41385,-3.6952,-2.0539,-7.3225,
8.767,-2.6006,-4.1865,-3.9514,-2.1675,11.0524,3.6212,3.3361,-0.38615,0.29964,0.14805,-0.82244,-5.0637,-6.1603,
11.1333,5.7504,-0.56106,-2.7503,4.2292,12.7996,8.7065,-0.23829,-1.809,7.0303,0.13894,1.6373,-4.7601,-2.8984,
12.3937,8.2981,1.883,-4.9951,9.2784,19.2623,11.0767,-9.3828,-0.73637,9.9832,-3.2436,-1.3533,-3.9923,-7.0626,
13.0959,0.087009,-1.1225,-0.83951,5.3472,19.0704,7.0374,-1.1071,1.7179,2.6353,-0.63888,-1.754,0.58556,-6.1573,
9.1771,-5.4616,-5.1523,-1.9942,-2.9276,9.4907,3.4821,1.1288,-1.0365,-3.0662,3.0151,-2.3719,4.648,0.72028,
12.4826,3.5427,-2.433,-0.42829,1.5864,9.8851,8.5754,-8.5804,-3.3844,2.9019,0.42361,0.18055,6.7793,5.9792,
19.9288,11.0432,-2.7692,0.5615,11.6143,11.7024,12.3996,-9.0292,-0.28905,6.1025,-4.4218,2.0981,2.0344,-0.16386,
19.2148,7.9702,-4.5315,0.52758,8.5071,7.6256,10.6913,-3.6674,3.1025,-0.048498,-2.2286,0.043828,1.4297,-4.0106,
16.6159,6.5279,0.078948,4.3525,0.76608,2.8299,11.978,-7.7855,2.4342,-5.348,2.2437,-4.2974,10.5032,4.4249,
16.5833,6.1367,0.074671,0.23501,6.5052,-1.6782,12.7059,-15.0311,1.8067,0.27552,2.591,-4.5214,9.873,4.1594,
13.1779,2.8758,-3.3045,-2.1895,7.0785,-1.5777,3.7483,-15.0934,-0.23015,6.5257,-1.4211,-0.39354,2.05,-4.767,
10.6998,2.9439,4.8477,-1.335,-3.2284,4.5423,0.38995,-13.4651,-1.4219,7.3393,-2.5409,-0.61112,6.0241,-1.3477,
9.0939,-1.0888,5.521,-2.219,-4.9627,-0.068363,5.1873,-19.4059,0.10994,6.4167,-0.45998,-2.5024,6.1449,0.66156,
7.8252,-6.5671,-2.2821,-0.39859,-1.0495,-9.4643,5.117,-17.5181,-1.1019,5.3088,-0.67335,5.1191,-6.9983,-3.9579,
9.2838,-6.6548,1.711,-4.7132,-0.022406,0.74479,4.328,-11.1646,-1.0356,5.9544,-1.597,12.043,-6.0962,0.13621,
7.2808,-5.2917,5.9471,-6.3586,-2.9136,6.0023,4.5503,-18.6895,-1.4559,5.1152,-1.9836,3.1253,1.5004,4.4664,
9.2541,1.2924,4.626,0.28941,-4.1846,-8.4578,5.2414,-13.7117,-0.40418,4.3259,0.54599,-2.8468,-3.4103,2.2702,
12.5552,1.697,3.3843,0.75421,-4.8976,-19.3991,6.3732,-1.802,-0.38016,5.5128,1.4773,-1.7119,-8.5081,0.20555,
10.8378,-4.1892,7.0379,0.22679,-2.6758,-4.1351,10.3293,-15.1915,-2.7672,5.6638,-0.057806,-3.0553,-4.6234,-0.28849,
9.7056,-2.0099,6.6158,-1.2328,1.8233,10.213,12.6018,-26.8128,-2.6014,5.3242,0.91022,-3.3536,-0.97134,-0.27141,
13.7028,3.1726,3.0856,-1.8815,3.4014,4.7802,12.0869,-11.9479,-3.168,5.7278,-0.83185,-0.98349,-4.0463,0.46801,
14.8088,1.5358,5.3104,2.5694,3.1971,-6.1121,10.8795,-7.8568,-0.086114,3.4558,-0.29978,1.0039,-5.25,0.92209,
9.0998,0.47977,4.0274,2.4153,0.59512,-15.3864,3.96,-21.4854,2.3296,-7.8388,0.68208,0.9437,-5.8989,-1.5434,
8.0716,4.3069,0.41133,2.2704,0.55895,-4.3403,6.1326,-24.8962,-1.1846,-9.7786,0.64115,0.88662,-4.5811,-1.9332,
8.0695,-7.0385,0.86881,-3.1683,-2.3664,-2.1515,12.0313,-18.582,-3.0419,0.4493,1.0848,1.3156,-2.3778,-0.37067,
8.3082,-14.088,5.3964,-4.1835,-7.2861,-16.1224,11.0685,-19.1543,-2.1361,4.0378,1.2607,-0.45057,-2.9585,1.3383,
16.2459,0.85728,5.796,4.5037,4.9612,-12.6242,12.5738,-12.9433,-1.7669,4.5184,1.4265,3.6743,-3.5039,3.9096,
22.0198,14.9058,3.0377,-0.10534,9.9662,2.2333,14.2293,-5.9002,-2.6252,4.2473,-1.0697,5.3816,-4.258,4.1569,
25.0372,28.1115,3.8195,-2.027,-2.2007,16.1993,9.0374,-7.4742,-0.057372,3.0284,-1.9696,3.1307,-5.4481,3.4258,
30.0426,40.5248,3.3491,1.7098,-10.5051,29.3273,6.3258,-10.6414,0.18727,2.1235,-2.0926,5.5942,-5.8448,2.4971,
34.2656,52.1933,3.3891,5.2227,-11.562,41.6677,10.0436,-4.9412,-3.9218,4.1653,-3.1719,11.766,-6.6989,5.9623,
30.5222,62.4386,-0.91132,-3.0447,-16.4116,53.2676,4.3795,-2.9573,-8.7479,5.6028,-8.043,7.9268,-11.8408,1.0255,
28.6909,60.1385,0.10722,-7.2003,-15.9089,62.2431,2.1885,-5.1904,-5.3305,6.2305,-6.5966,5.0411,-9.6841,-1.9286,
29.38,55.084,4.9215,4.8009,-14.4724,61.883,6.3956,-1.9865,-1.6362,2.4822,-3.3083,6.1849,-3.8004,2.0435,
26.6529,50.3327,5.1081,4.5128,-20.353,59.6158,8.9041,4.3992,0.87206,7.154,-1.182,6.2957,-3.0905,3.8491,
22.4026,43.2158,1.1862,-3.7117,-25.1573,47.6032,6.6829,-0.92596,1.5426,9.3759,-1.834,5.677,-5.5561,4.8235,
22.5045,36.2839,3.5254,4.7059,-20.2737,34.1419,7.2458,-5.2094,0.0040451,6.403,0.68639,7.7467,-2.3305,5.9801,
17.539,29.5278,2.5908,1.7723,-18.8161,34.7447,6.0881,-2.2455,1.6908,6.26,-1.0418,6.0769,-2.4318,2.0061,
15.0402,33.5404,-1.9032,-3.6369,-14.7948,45.6753,2.3484,-5.967,3.5178,11.6692,-5.8002,9.5684,-8.0707,1.4036,
20.4043,37.3126,3.0317,-1.4905,-10.0507,42.4528,0.76122,-10.4296,-0.54968,12.4148,-7.8623,12.3688,-9.9966,3.7295,
20.6265,31.2177,4.2958,-2.8471,-12.8219,33.6389,-0.24833,-9.3217,-5.3372,8.2957,-9.3186,6.3242,-8.9147,-1.7967,
19.148,31.0319,1.387,-0.98908,-12.776,33.7897,3.3818,-6.5932,-0.43766,11.8953,-5.144,5.7033,-3.8005,-1.4479,
12.9374,23.1439,-0.38348,-2.617,-12.7323,23.8086,4.8661,-15.5976,1.2758,9.4948,-1.22,0.78184,1.0073,3.2182,
12.8841,10.4271,3.7369,0.19161,-16.5481,20.2109,3.851,-14.4208,-1.4518,7.2375,1.0224,-4.3267,3.116,3.2661,
10.4243,-0.080454,0.86157,-0.54325,-25.4372,15.8648,0.48667,-10.904,0.80445,6.0803,1.6839,-0.45172,-0.68638,-1.9911,
-2.4935,-11.8855,-9.5542,-9.9104,-31.8644,0.81289,-3.6399,-23.9883,3.8894,2.1003,-1.5503,-2.5935,-5.2247,-6.9331,
-2.1029,-10.9314,-6.8118,-5.2184,-24.8914,2.8133,0.67587,-25.6825,5.3433,2.6972,-0.73443,-4.1252,-0.81388,-1.9378,
10.0741,2.2573,1.7914,1.3614,-13.2747,16.7445,4.9736,-16.911,0.68415,5.4276,0.27374,0.46044,1.1634,2.517,
17.4239,14.8967,2.8892,4.4132,-7.8985,10.0757,4.9164,-10.3522,-4.9005,6.7892,-0.94752,0.19184,-1.0756,0.19683,
15.1734,13.7617,1.9932,3.9072,-10.0759,6.3379,7.2728,-9.008,-7.7397,0.83848,1.7607,-7.2912,2.6041,0.42622,
11.1295,6.91,4.5247,2.4675,-15.015,12.4651,9.0055,-5.3345,-7.0344,-3.7916,0.44972,-8.0591,6.0633,5.9438,
10.4617,1.6752,3.7708,7.1397,-18.4529,3.522,6.0549,-5.4968,-1.3097,-0.18963,-8.2544,-2.7553,1.8431,5.1052,
11.5213,-1.5584,3.304,6.9527,-16.6223,-5.125,5.9328,-12.6383,0.93806,3.4372,-7.0357,-0.90226,1.4916,3.1117,
10.1066,1.6682,3.8287,2.9202,-12.0096,-3.6126,5.3356,-10.1928,-4.1799,-2.7946,-0.10612,-4.9459,2.125,2.684,
13.839,7.3527,4.5628,1.7811,-4.0582,0.9429,5.0157,-5.7248,-0.55465,-6.0014,2.7928,-6.5769,4.89,3.0049,
18.0699,8.1168,2.6018,-1.9412,-2.6098,0.64536,4.9557,-3.6941,2.1302,-6.3642,-3.4003,-6.9057,4.3556,2.1017,
13.3707,3.5324,2.2048,1.3083,-5.1043,-5.4189,4.4174,-8.0522,-2.095,-5.7414,-7.2941,-7.6962,2.4071,8.9655,
6.5427,0.66916,4.2419,2.9173,-1.6648,-5.8169,3.9112,-15.5226,-1.7285,-3.7099,-1.7946,-5.0655,4.4316,14.4529,
6.6321,6.4136,1.5772,-2.0785,-1.0825,-3.5397,2.7126,-12.6631,-2.5887,-5.4155,-2.1688,-3.3153,1.2736,9.2474,
10.0905,5.5468,2.4465,-0.98946,-10.659,-3.8097,4.96,-4.1905,-1.9514,-5.0906,-6.3775,-3.1164,-0.24906,11.5846,
7.075,-5.8732,2.7816,-0.44816,-11.9477,-9.8476,5.6265,-13.58,-0.3881,-1.8926,-8.8874,-6.3038,0.24782,10.8895,
10.5069,4.6021,2.1328,1.9889,2.8692,-3.9541,6.2528,-20.9604,0.11712,-1.2971,-5.4616,-5.4437,-1.2133,3.9696,
15.9022,18.426,3.2099,-0.29986,3.7819,10.3831,9.493,-10.3025,-1.5774,-3.8706,-1.5187,-3.4296,-3.3094,5.4185,
17.599,24.9125,3.2585,-0.52261,-8.2554,23.8601,10.6109,0.19731,-2.2059,-4.3615,1.2237,-3.465,-1.4239,10.1553,
17.5076,22.936,-2.7218,0.47285,-12.0986,24.1155,3.7075,-4.1526,-4.4834,-1.2075,-2.2239,-2.7749,-4.7127,4.2431,
13.5646,23.4881,-8.825,-8.2322,-21.0137,24.1153,-7.12,-11.1343,-8.5527,-1.617,-9.8032,-0.68025,-13.5885,-0.34983,
10.0994,19.9094,-5.1623,-6.0512,-25.2962,29.1756,-5.0058,-8.2969,-5.8706,-4.1713,-7.5281,0.56562,-11.0862,4.7326,
13.5908,18.9558,2.1373,0.81932,-12.9327,30.5586,5.6586,-6.1123,-0.4567,-4.162,1.3598,-1.1555,-2.4673,9.9923,
16.6322,16.8546,2.0091,0.77016,-11.6743,26.3149,3.3912,-18.2786,1.017,-0.055899,5.6165,-6.3884,-1.3549,8.9108,
9.8492,10.5406,-2.4498,-0.23992,-25.0739,10.636,-1.1509,-23.9308,-2.9004,4.7677,1.9051,-6.0055,-5.1305,2.1096,
1.3048,5.3287,-8.8105,-8.6614,-29.9569,-4.1021,-0.84062,-18.3973,-6.824,1.8308,-3.7526,-2.9939,-7.9559,-0.66827,
3.6368,7.4193,-6.8358,-6.6957,-20.9286,6.2669,-0.30802,-13.9193,-5.4505,1.7207,-2.5634,-4.2603,-7.4783,1.7822,
4.8644,5.5279,1.769,-5.3296,-21.6011,10.7116,-0.77193,-14.048,-6.0873,1.1355,-2.4096,-10.7531,-6.5477,1.1933,
4.0904,5.196,6.0014,-6.4564,-21.7513,4.2841,6.9869,-13.6873,-2.3483,-3.2712,-0.33704,-10.5906,-2.7806,4.0136,
10.3527,9.9462,4.9182,-2.9357,-10.5641,0.41141,11.1477,-17.4455,0.92631,-2.3518,1.8526,-6.3395,1.4838,1.1214,
13.5879,11.2776,4.6231,-1.7952,-7.5201,-5.8798,7.1044,-22.1834,-1.0575,4.0559,1.7414,-0.65646,1.3948,-10.515,
6.7473,9.3959,-1.68,-0.48247,-15.5048,-10.5885,4.5087,-22.5398,-4.6097,4.0537,-2.9426,5.4087,-5.1966,-14.9456,
5.8601,7.8678,-6.3995,2.4385,-11.2,-4.651,4.2382,-19.7412,-2.8868,3.8105,-2.2841,8.4582,-5.3672,-6.3361,
5.7497,-0.55826,-5.2924,-2.7692,-7.8767,-3.1664,0.85065,-18.7975,-0.54422,6.2332,1.9505,1.9254,-2.3934,-2.8226,
5.1635,-5.5862,0.56853,-0.43368,-8.1272,-9.0022,3.4509,-18.8751,1.6574,8.9924,3.5205,1.0867,-0.56278,-1.9302,
-0.20776,-10.3125,-2.1164,-0.6484,-7.8804,-14.9693,6.8595,-31.8426,-1.5749,4.8377,-1.2698,4.6367,-4.6261,-5.4295,
-0.19507,-9.2116,-0.061494,1.8004,-6.4434,-21.7841,7.894,-32.9444,-1.4806,1.1728,-0.71144,5.805,-2.9025,-5.5859,
1.9858,-7.454,5.0034,0.0051542,-8.7084,-20.7185,5.7331,-19.1576,0.29545,-2.995,-1.3921,-3.4614,-2.4874,0.29284,
1.8666,-6.5244,5.1856,-3.3691,-4.3295,-13.2084,5.3891,-20.4183,0.75965,-1.369,-2.7548,-10.9665,-4.7483,-1.171,
8.2624,-1.5534,4.1513,3.3407,1.4741,-13.621,9.6453,-29.5573,0.47334,6.6671,1.508,-2.3545,-0.36628,-0.3776,
9.2129,-9.6554,-5.7387,-2.1624,-6.3271,-21.9628,4.2459,-33.5689,-2.4476,1.9283,-1.9569,1.1608,-4.2007,-0.83688,
10.829,-7.3886,-5.6356,-2.7558,-0.88602,-15.5835,2.3041,-26.9752,2.7607,-1.3206,-1.5983,4.7068,-6.6,-1.9917,
7.528,-0.91998,-4.5743,-1.3854,5.6748,-13.9254,1.4427,-24.6336,1.39,4.3024,-1.2617,2.7369,-6.9271,-5.4879,
6.5941,-4.7209,-8.6384,-6.6051,5.3341,-13.0901,4.2485,-23.1558,-1.5857,7.9004,-4.5602,1.1267,-4.5831,-0.82005,
3.7886,-6.848,-11.9763,-5.7266,2.6037,-7.0018,2.5471,-30.9252,-1.4908,0.67774,-9.589,0.57689,-8.1647,-0.28869,
4.5251,-3.0627,-6.4374,-3.9368,1.0012,-11.8844,-0.49781,-32.9261,2.4551,-1.7731,-5.1573,2.4705,-6.7105,-4.1278,
9.3153,-4.5662,-3.882,-7.316,6.9672,-16.7149,3.1475,-24.4426,-0.82526,-1.4257,-1.2324,4.9738,-2.6924,-1.229,
8.7564,-7.1847,-4.613,-6.3951,7.513,-14.2662,9.7071,-24.4223,-5.5965,-2.3045,-3.0871,5.6392,-3.9771,-0.19093,
2.9284,-9.1638,-0.96174,-4.5651,-1.6144,-27.5102,8.6427,-33.5623,0.52391,-0.23802,-1.4556,3.3727,-1.3284,-2.1077,
3.476,-10.3012,-2.5913,-5.9785,-1.2766,-27.4261,-1.2758,-28.897,-1.1948,-0.94664,-2.5731,3.8937,-1.4897,-1.2583,
5.6771,-2.9346,-9.1847,-6.1017,3.6203,-11.6806,-5.0557,-19.9328,-7.872,-2.818,-2.9011,6.5521,-4.2928,0.74539,
-1.6529,4.7137,-8.8746,-2.1202,-7.9251,3.1203,-2.1008,-19.4597,-6.1944,-1.9261,0.40642,4.9537,-5.2401,-0.022238,
-8.3024,2.9844,-2.5578,-1.5112,-21.5496,13.5381,-1.0111,-14.9179,1.4079,1.5637,-0.10012,7.0668,-4.9259,-0.50307,
-8.7684,-3.9434,-3.3679,-8.1688,-34.3567,10.3159,-1.4321,-17.3971,4.6981,6.7728,-2.504,7.6069,-4.1482,-0.95505,
-8.2423,-3.7067,-0.75572,-7.1967,-23.8591,14.0353,-0.38235,-24.5479,0.07791,11.1867,-0.90797,3.2941,-0.52483,0.54852,
-9.1938,-8.3048,-0.22868,-10.6215,-16.6432,14.1573,-0.35918,-23.5572,-3.3014,6.1769,-1.3357,3.0962,-0.49357,1.9616,
-8.8833,-7.0834,-5.2764,-8.7792,-22.1523,17.405,-0.096887,-19.4925,0.029897,2.1911,2.8421,8.9362,-1.1871,2.0851,
-7.6272,-2.0789,-3.7543,5.0042,-26.3666,18.0481,0.15012,-21.9386,5.09,9.5317,7.2511,12.4977,-0.39273,1.2369,
-7.4105,-9.4255,0.08638,0.12464,-22.133,9.9758,0.38254,-22.791,2.6155,9.6827,1.7548,10.0606,-1.574,1.4036,
-6.2428,-11.9937,-4.4983,-6.3905,-20.5643,-1.9512,-0.364,-21.1828,-1.6391,-1.7443,-1.9662,5.8417,-2.6846,0.5963,
-4.6631,-5.2483,-6.8797,-2.8739,-20.5355,-7.3779,-1.0653,-27.3838,1.5925,-1.8808,6.5877,1.3937,-1.3185,-1.1265,
-5.1065,-9.9948,-1.4055,-2.4602,-17.6162,-2.3553,-1.2421,-29.356,2.7021,2.8115,6.4336,-4.2333,-0.51624,0.14618,
-6.2464,-20.0004,-1.3212,-2.3126,-17.5233,-5.1065,0.27868,-24.7021,2.5399,1.679,-0.21889,-4.9437,-0.48527,1.5837,
-5.6304,-13.739,-4.3752,-5.7895,-16.7129,-6.969,0.98509,-23.9431,4.075,3.2652,3.4094,-0.067533,2.1952,1.2475,
-3.3644,-6.6481,-2.1849,-3.032,-16.1925,-3.1769,-2.4489,-29.2554,2.8662,8.3715,3.2044,-1.0278,8.3295,-1.238,
-3.8856,-12.275,-2.7765,0.28317,-13.5337,-7.0839,-3.5071,-34.4898,3.4173,7.1465,-2.5312,-4.0994,9.0353,-1.4044,
-3.8935,-8.405,-5.2615,-3.3492,-5.732,-10.2742,1.2831,-31.2155,2.007,3.5843,-5.0305,0.24392,-2.3531,0.36705,
-3.6599,-4.0439,-5.9096,-2.184,-1.5315,-4.8371,2.1704,-25.4858,0.9227,4.8155,-4.7286,-1.2165,-2.6939,0.34503,
-3.1993,-13.6836,-3.3859,-0.84763,-1.6806,-5.7521,-0.61133,-29.9826,4.4828,7.1776,1.0987,-6.2052,9.2779,0.56529,
-2.2842,-19.3703,-2.9415,-0.55604,-0.37468,-17.6993,-0.81539,-39.5116,4.455,0.72165,5.1304,-4.6278,6.5523,-0.67369,
-2.6295,-14.3517,-3.7294,-0.52267,-3.7267,-16.6374,3.5714,-36.659,0.81278,-5.5886,7.2327,-1.94,2.3023,-0.63327,
-4.1588,-12.2856,-2.3006,-2.1783,-6.1544,-10.0957,4.0802,-33.7363,1.9691,-1.1557,5.5932,-2.5468,7.708,1.5741,
-0.53502,-7.6918,0.24783,1.3266,1.4457,-14.7924,2.8713,-37.9789,3.7794,5.6623,5.7398,-2.8757,7.7277,0.033184,
4.0766,-1.205,0.4737,0.52389,7.3845,-15.1099,8.7248,-32.085,2.3475,2.1893,9.011,-3.4262,2.6841,-1.1739,
-0.74729,-4.7476,-2.2058,-5.0512,-1.0123,-11.0698,4.104,-22.2057,1.4838,-2.5218,2.4444,-3.4616,2.2821,0.58379,
-3.8357,-11.9348,0.57786,-7.399,-3.6026,-9.6825,-4.0958,-26.8991,1.1536,0.28129,-6.6197,0.36125,0.94052,1.2719,
0.0096268,-11.9419,5.1227,-2.376,8.4236,-5.4864,4.5854,-32.2748,1.3255,3.3972,-0.67912,8.2935,5.9455,2.4006,
0.49144,-6.8866,-0.96924,2.5873,7.9182,-1.3008,9.6129,-28.8921,-2.1284,1.7476,5.1462,8.7598,2.6963,1.7747,
1.1849,-4.7866,-5.0084,-1.6653,4.3096,-5.3201,7.8313,-27.8819,0.16842,-0.52644,4.1145,8.4752,-5.4192,2.3911,
-1.2968,-11.7302,-2.2978,-3.976,5.4973,-11.2679,7.8434,-33.4398,2.0865,-2.9054,4.3496,5.5565,-2.202,1.2838,
-0.73685,-14.4007,-0.71391,0.60116,6.6135,-12.5198,6.4087,-33.8433,0.51529,-5.141,6.499,-0.079271,5.6431,-0.72169,
3.8869,-7.9928,-0.91181,-0.63998,10.3143,-15.3838,6.2654,-35.4284,1.2075,-4.5918,3.9396,-1.2796,6.5096,1.0091,
1.9664,-10.1648,-3.9906,-0.36061,9.4545,-15.666,3.7198,-38.3644,1.376,-2.6291,2.9799,-0.96184,4.4318,1.6714,
-4.4181,-20.6416,-4.715,-0.82091,3.1026,-13.7618,-1.3236,-32.6876,3.2216,2.3494,7.1399,-2.3499,4.1663,1.5716,
-3.1889,-20.3677,-1.5398,-1.2538,2.9162,-19.6852,-0.7625,-29.7627,2.5462,7.5108,3.8192,1.1648,-3.7966,2.9229,
4.4745,-9.7454,-1.2067,2.4371,12.6234,-22.6012,3.3808,-36.4128,-0.73984,8.2653,-4.3639,7.6027,-10.5585,2.9887,
6.6159,-4.8221,-2.0984,3.2545,13.794,-14.9784,5.5883,-37.1203,0.26865,5.359,-6.0305,4.7361,-4.6226,1.8453,
5.737,-4.0509,3.8121,3.0592,7.6642,-15.044,5.253,-32.9649,2.1807,-1.711,-5.1863,-2.2965,-1.9351,-0.19363,
8.0441,-2.6028,9.1272,-0.73954,6.9631,-21.131,6.6249,-35.0842,2.2911,-5.7059,-7.5264,-3.3638,-4.9522,-0.42321,
9.2485,-2.6873,3.5181,-1.4183,8.7147,-19.622,4.5404,-33.7022,-0.01578,-6.0867,-7.316,-2.4388,-3.932,1.7716,
8.4528,1.0891,2.5839,4.6926,12.7713,-13.8656,3.5448,-23.7266,-6.0406,-4.034,-4.2257,-1.5693,3.7755,5.2805,
3.8478,-1.1459,4.1156,-2.0969,11.7636,-19.5411,2.6088,-30.7387,-15.0782,-4.5154,-9.0339,-3.1629,6.6825,0.38435,
10.6071,2.0566,2.6641,0.19829,15.6378,-22.4658,6.0679,-37.3303,-6.2195,1.7813,-4.8762,-0.32131,7.4866,-0.84377,
11.1757,-3.1287,-4.9678,0.90952,12.5301,-24.2515,4.4988,-38.2239,2.5896,-0.013,2.406,-1.5076,5.8323,0.41192,
2.0693,-16.1971,-3.9466,-2.7607,5.2706,-24.4835,-0.83308,-38.5818,2.193,-6.5199,9.2513,-5.5142,6.6875,1.1103,
-1.6703,-17.8764,-1.0587,-0.42544,9.0517,-22.7735,-3.4342,-38.918,3.7486,-3.9591,11.3478,-5.4243,6.5272,-1.6078,
0.84004,-11.0192,-6.2978,-4.7387,14.2932,-20.4432,-1.7819,-40.4395,3.0418,4.4731,6.3281,-0.27862,2.2792,-1.9933,
3.2,-7.4658,-7.366,-4.9361,13.4358,-18.7344,-0.22894,-39.9411,-1.9612,6.1332,2.0923,5.5229,0.69638,2.4648,
1.321,-8.7048,-3.7908,1.3854,12.8704,-21.7075,-0.93787,-41.6422,-1.1204,2.6315,3.6537,9.2887,3.3059,5.9321,
0.036676,-6.4956,-2.8402,-2.3129,18.124,-23.0564,-0.15847,-45.1693,-0.33005,1.7509,1.7475,4.1523,1.9025,6.2993,
1.9624,-1.2853,-3.6339,-0.24617,7.8777,-13.4785,-0.14919,-40.049,-2.7206,4.0558,-0.76769,-1.8817,1.3062,8.8137,
0.8806,-5.5468,-4.3799,0.25077,-6.6949,-11.7057,-5.925,-41.5024,-0.14701,-0.52614,-0.23946,0.64159,1.71,6.3569,
9.2637,-0.63445,0.46237,-0.96934,7.8068,-12.6904,-0.99003,-46.4841,1.0669,-6.038,2.4262,5.1821,2.3301,6.2162,
16.1797,6.8754,1.6399,-5.0085,21.4384,-18.9188,7.9874,-49.7206,-8.3971,-12.1832,1.5578,-4.5283,3.3955,8.0129,
15.691,3.0887,2.5056,-0.85141,34.2521,-31.2808,15.2212,-46.2552,-9.8213,-7.596,-0.94607,-8.5952,5.6022,9.9424,
14.2676,-7.7019,2.3553,3.538,46.2969,-43.504,16.2361,-51.6748,-7.3043,-5.2121,-8.1201,-2.7768,2.8559,9.8278,
19.6783,-12.0603,7.0345,-0.53044,57.6191,-54.9937,20.0824,-62.6743,-5.4195,-7.7916,-3.7763,-1.1642,14.2539,11.1661,
22.8362,-9.8902,11.4329,4.8038,68.262,-61.0941,24.6623,-58.311,-1.7201,-8.7702,6.091,-6.3967,26.8958,10.0145,
18.8145,-10.984,10.9879,11.5054,78.2663,-71.5285,27.2799,-50.233,-3.3041,-10.895,5.4846,-8.1821,17.8103,7.7264,
14.5523,-13.9406,3.3389,4.3074,87.6703,-76.2753,24.92,-55.655,-4.311,-12.4107,4.4324,-4.076,9.752,4.6115,
10.7864,-18.889,-1.1999,1.6382,89.7609,-69.7708,16.1937,-64.8494,-5.4988,-11.1844,3.2023,-2.8673,10.6129,-3.3782,
11.5857,-17.7554,3.2106,2.5044,88.2319,-62.692,17.1505,-58.5478,-5.1686,-3.7642,2.0461,-3.1774,4.1918,-3.1753,
8.7212,-13.0744,1.8129,-0.29717,76.9127,-63.51,18.7728,-52.3836,-4.1354,-0.88701,3.1284,-2.7456,-3.0498,-1.7797,
3.6189,-15.9056,0.49907,-0.52054,63.3801,-62.8327,14.5132,-52.856,-5.5743,-3.4851,3.6638,-3.304,7.0153,-3.3599,
8.9449,-17.6024,5.0484,-0.24834,68.0129,-55.9295,11.9552,-46.0693,-3.0706,-4.4813,3.203,-2.8648,12.62,-2.4354,
13.7106,-13.172,4.7453,-0.23321,65.3782,-55.466,9.3094,-39.9309,1.4517,-7.5866,2.0467,-1.7288,-0.18855,-2.2895,
10.96,-15.274,4.9427,-1.6657,51.3324,-53.5843,12.1251,-39.9452,6.6675,-4.2392,3.37,0.78528,-2.5871,0.74011,
0.17952,-25.9267,1.2717,-5.9041,39.0934,-54.7076,9.4694,-43.3333,3.3749,-2.0566,2.2039,-2.6363,-0.021784,-3.1607,
1.8555,-21.2381,-2.9019,-0.97055,36.9888,-51.6663,6.2501,-42.9026,2.9314,0.23594,2.7946,2.5831,-2.1901,-4.6583,
5.1189,-16.1072,-2.7276,1.9804,34.2877,-48.0842,6.3573,-45.6307,5.6478,2.1502,2.1447,6.7671,-3.5047,0.92411,
-1.2138,-17.3099,-2.8049,1.1382,28.615,-46.8863,6.6988,-42.1699,1.2116,-1.1123,-1.117,-2.075,-2.0891,-0.81857,
-2.1051,-15.3072,-5.5289,-2.3043,20.6314,-42.6269,7.7429,-26.1422,4.5131,-1.0458,3.2881,-3.8785,-0.51777,-6.5543,
2.3595,-16.317,-4.2333,-3.6123,20.3574,-42.9616,5.8325,-21.6813,6.6529,-2.4288,3.0908,-1.2357,-1.9325,-5.1967,
6.3156,-15.5787,1.5645,5.0408,27.0904,-44.9632,9.5801,-29.2983,2.6386,-8.3089,3.1466,-3.8128,-0.12955,2.1048,
3.2853,-15.8495,3.1577,6.9073,11.7259,-44.9169,9.728,-33.5662,4.1673,-10.4617,10.9118,-7.1993,3.0115,-3.5654,
3.3291,-13.6932,3.6911,6.2519,5.9612,-32.8219,6.9751,-26.0086,6.0864,-7.1829,7.6055,-3.6343,3.5537,-8.8951,
9.8781,-6.6049,5.3981,6.3589,19.7035,-20.7292,15.7159,-18.1813,1.3826,-6.2693,-2.4916,0.92233,3.3407,-0.16596,
11.6957,-4.2806,5.0739,2.6027,32.6213,-30.5729,22.9674,-17.5726,-6.4133,-8.3039,-2.8242,2.313,2.1762,0.3257,
13.1632,-4.7467,6.4567,5.0981,44.764,-41.995,24.2409,-17.2414,-1.9307,-3.7079,4.3351,5.7897,6.1429,-6.6837,
12.8553,-9.7645,5.5874,1.8997,56.1782,-49.5984,22.7865,-24.8838,4.4517,-3.0035,1.1825,-0.82424,8.185,-9.1747,
16.6637,-12.3122,4.5293,6.3655,66.9075,-51.2018,22.1422,-27.0062,4.4255,-4.5105,2.7987,-5.3541,7.9348,-2.5987,
16.628,-14.9477,6.1855,9.8397,59.88,-46.6836,20.3315,-22.4935,1.2677,-2.7938,11.3077,-2.6229,9.3867,-1.9606,
10.0867,-16.2202,7.0196,3.7057,51.2255,-41.2313,19.3526,-24.2772,5.289,-1.4209,10.8702,-3.6704,10.5107,-6.4227,
2.9736,-14.5238,2.983,2.7605,46.4652,-39.9625,14.0941,-27.882,6.6589,-4.4692,3.7105,-4.6555,5.3008,-6.2783,
6.8927,-11.0011,0.15272,2.8356,46.8106,-37.8059,12.0434,-25.004,-1.6946,-4.4417,3.7286,-1.2429,2.8134,-1.8041,
14.9146,-8.654,3.2768,5.7987,43.7608,-34.8147,17.8285,-21.8168,-2.798,-4.4164,7.6025,-2.3734,7.706,-0.49075,
9.4405,-13.196,0.91105,4.7279,28.8426,-35.3769,14.1072,-21.7128,6.2879,-6.3206,5.941,-3.9182,5.5564,-5.0411,
2.6075,-14.8144,-1.0718,-0.85844,23.738,-32.2902,9.4048,-22.3382,3.9825,-3.5312,1.7282,-1.7549,-0.079157,-5.7025,
9.9229,-9.8284,6.4643,8.1111,22.5547,-25.7732,14.8661,-22.6852,-4.6926,2.7062,3.3117,-1.4086,5.4687,-0.29863,
8.3634,-9.2387,2.7022,6.1784,7.7039,-26.155,11.5638,-23.2523,-2.4826,2.544,0.70266,-5.1803,2.7307,-0.28094,
-1.2974,-7.2381,-4.6907,-2.8694,8.6879,-23.1395,3.6391,-21.375,4.4152,2.8733,-2.7135,-4.8695,-4.664,-0.74602,
-2.907,-7.045,-1.276,-1.9741,18.0483,-19.5822,4.6258,-22.744,0.052274,3.906,-1.3456,-8.1929,-3.1791,-1.4244,
1.6062,-8.5505,3.6212,2.4827,13.1095,-20.8174,10.6152,-22.8252,-4.2887,3.6716,4.0378,-7.219,5.2064,-1.8209,
1.51,-6.1091,2.4399,4.2621,7.5024,-22.4606,8.0499,-17.5993,-1.1391,2.9692,7.1697,-3.8935,6.3405,-1.2294,
0.21435,-3.0912,-0.35786,-1.537,1.9908,-16.5332,1.5416,-14.8561,0.1343,4.9604,2.1605,-4.865,0.89862,-3.3251,
5.7446,1.1916,2.7966,0.24202,-4.6365,-4.6952,7.4747,-12.7597,-1.0791,9.2425,-2.5489,-1.4401,2.0495,-0.47447,
4.9183,0.15604,5.5211,0.70966,-4.8405,-7.3058,5.0977,-16.3326,-4.3885,2.4212,-5.7706,-4.246,-0.96573,1.9644,
5.1051,1.5929,7.6005,1.6314,2.6808,-11.6882,-1.9566,-13.9064,0.69503,-2.0628,-3.4962,-3.9912,1.0204,4.2566,
12.0294,6.7998,7.1442,8.2822,1.5558,-7.1305,4.4271,-7.7696,2.5818,-0.49256,-4.2505,0.10489,3.8515,4.0015,
10.8257,5.4275,7.6799,3.9289,-5.7684,-6.2205,10.9104,-9.7136,-0.46567,-0.9454,-3.9955,-1.3477,0.72787,1.8332,
1.0174,-0.2006,4.8087,-3.5379,-7.3502,-9.2215,1.097,-12.5052,-2.8476,-3.781,3.9572,-5.1234,-0.27944,-0.68717,
1.9204,0.2936,2.5922,2.9411,-0.64248,-2.8836,4.4054,-12.2368,1.6618,0.78445,8.5403,0.0049271,6.0041,-0.16378,
1.805,-8.4009,0.99021,2.7649,-0.60416,-4.6388,12.8179,-20.1795,5.4182,-1.1906,0.31532,-1.4419,4.1973,-2.5643,
-0.95466,-11.0303,3.1002,2.8397,-5.1474,-11.3503,4.0949,-17.2817,4.8519,-1.8423,0.055205,-6.4168,-1.116,-5.0618,
-1.3793,-6.9938,5.3243,1.7055,-4.3567,-11.6334,-2.8993,-10.46,0.2225,0.67838,6.3184,-2.1754,-1.5309,-1.3836,
-5.6349,-11.8768,-2.226,-7.5559,-2.649,-5.1506,0.16675,-13.6888,-3.6472,-5.6288,1.601,3.2578,-6.7417,-0.81866,
-4.3329,-10.6823,-4.0206,-3.2462,0.40247,4.3172,3.5312,-10.9393,-0.053946,-5.2911,0.058663,2.098,-5.8553,0.19478,
-2.1445,-0.40016,2.4874,1.7691,3.2706,4.5404,1.3914,-7.3906,-1.9791,-1.5994,5.84,-2.366,2.209,1.6291,
-4.6669,5.1675,-0.31298,-1.4701,3.7973,4.027,-1.8256,-11.0445,-8.3679,-3.6726,3.3204,2.3553,0.38926,-0.15585,
-4.6283,2.2059,-8.7303,-5.9616,0.91834,6.9186,-0.028841,-12.0693,-7.1429,-3.6932,-0.49425,3.9012,-4.2138,-1.8337,
2.398,2.5557,-2.9041,-0.78344,1.8269,10.3597,4.311,-6.5247,0.99868,2.3127,7.248,-0.18952,2.7877,0.20472,
4.4238,4.5715,4.26,2.879,0.51243,9.9793,0.43736,-5.892,2.1441,-0.47713,8.5003,2.9553,3.3438,-1.0129,
0.060756,4.5384,-0.5751,-6.2116,-8.9181,4.801,-3.6865,-12.5281,-3.0465,-6.4743,-0.44562,7.8395,-2.8826,-4.0853,
3.4316,8.6044,-1.9864,-2.4644,-18.024,5.4773,-0.090824,-11.7764,-4.3095,-2.7114,-2.3471,4.959,-0.29909,-1.912,
4.9127,5.4368,3.6762,1.7805,-21.0406,11.1739,-5.1473,-5.0445,-1.882,-2.308,0.927,2.492,1.8878,-4.4486,
-3.0946,-1.1561,4.4197,-7.0032,-16.4035,8.0936,-11.5867,-8.1159,-5.1433,-6.5076,-1.5385,2.3428,-6.4204,-10.9304,
-4.1145,3.9747,5.3596,-1.0391,-10.8397,3.5104,-1.9736,-10.7624,-6.0398,1.3545,-2.6517,4.3716,-7.2403,-4.2488,
-0.011225,6.6287,2.6274,0.46902,-12.118,6.674,3.447,-4.8142,-4.2316,2.2371,-2.9746,4.1088,-1.0213,0.34446,
3.1227,7.918,2.229,-2.6924,-9.7035,9.4068,0.58884,-1.8743,-5.6647,-1.0304,-2.073,2.6572,-0.23685,-2.8099,
2.6944,9.1302,3.7825,-1.326,-4.542,6.1911,1.2769,-11.1616,-5.5658,3.6112,-5.0821,4.667,-1.9099,-7.7025,
3.979,8.1004,3.0736,2.1285,-3.7871,9.6762,7.4668,-10.0097,2.4809,1.9482,-2.8489,4.8693,4.4717,-4.8298,
0.60698,4.4811,2.1661,4.6516,-12.4777,11.747,6.2956,-1.9373,3.0552,-12.2687,2.3834,-2.8949,6.8543,3.4135,
-2.8037,0.83758,2.0359,0.99831,-17.0319,7.1858,2.0617,-5.6775,-2.9129,-13.581,-2.0977,-6.5773,-0.30567,4.1728,
7.4872,9.4647,3.3602,3.8307,-1.91,14.4674,5.7942,-4.3727,-0.80971,1.3339,-9.2029,0.083594,-0.7695,2.9583,
9.9307,17.0917,3.1584,4.083,5.3152,19.8661,5.9287,-1.2181,1.1673,0.65119,-9.6143,0.078807,3.1333,3.263,
1.1397,14.6199,3.9332,-1.9465,-7.0553,16.2638,1.7166,-3.0732,-1.3133,-4.6905,-7.1093,0.55601,-0.4287,1.139,
3.7227,16.876,2.0098,2.7498,-6.8731,17.9391,2.3367,4.1008,-0.99333,-0.79391,-5.96,8.9586,-3.5367,0.34754,
6.6328,16.1044,-4.1364,1.8619,-1.3986,18.5502,3.8837,4.096,-1.6566,-5.8075,-6.8073,3.3598,0.29093,0.56765,
6.9577,13.9329,1.6554,4.4013,-2.52,17.6781,8.7124,1.1989,4.9502,-5.2181,-0.3733,-1.9034,10.1554,4.149,
1.9607,10.4456,2.7612,4.8599,-5.5025,12.5199,7.9485,-0.56049,5.3759,-0.80787,-1.074,-1.0666,6.4128,4.1408,
3.2891,10.301,1.6314,0.71211,-2.762,9.3583,5.5431,-0.044698,1.1972,-1.7235,-1.9737,0.44391,0.72518,5.3388,
6.7074,11.3704,2.2566,3.3207,-5.2476,10.4843,4.9698,-2.6931,-1.0436,-7.1635,-5.9528,-0.30585,1.4053,1.4033,
8.7151,9.7238,2.1212,5.5316,-9.2711,9.373,8.0456,-2.5318,5.7675,-1.9134,-0.77496,4.5328,6.1412,-2.0553,
-2.1719,-3.1519,-5.4781,-2.7543,-15.7044,-2.9997,0.0913,-5.5131,2.2882,-3.4856,3.3687,2.5738,0.71127,-3.6195,
-6.1389,-3.6857,-4.426,-0.4194,-15.0031,-0.16816,-3.5296,-4.9411,-3.8747,-3.5174,0.99738,8.4454,-4.3926,-0.75074,
0.014218,7.1405,0.66002,2.4981,-11.2107,13.8214,0.53879,1.1399,-4.6063,3.9247,-8.7032,16.1336,-5.5756,2.6685,
-0.2276,10.8095,-3.9589,0.17901,-13.1891,17.0895,-1.6627,1.7947,-6.4991,1.52,-14.2066,7.2114,-6.9282,4.1956,
-2.6245,8.2327,-9.024,-2.7242,-9.9876,15.1,-2.0453,-2.6516,-4.1809,-4.3562,-5.6414,4.3686,-4.5844,2.4976,
-0.056704,8.7028,-7.5184,-4.4892,-3.1221,16.6042,0.48775,-3.4568,-3.4484,-2.1664,-1.9287,13.2653,-2.8633,1.3837,
1.3927,9.1448,-6.5852,-2.7734,-5.8266,18.5004,-0.50561,-0.83881,-6.6157,-3.0005,-9.5255,8.1312,-5.1014,0.33657,
0.82723,9.078,-2.8161,-1.6431,-8.8519,21.2466,0.0066598,1.6214,-2.8443,-9.0875,-4.6161,-3.4443,-1.4213,-0.16556,
1.9824,7.8104,2.4146,3.5172,-12.4182,14.4282,3.1397,3.6935,5.2801,-10.2294,9.7609,-5.4068,4.69,0.56728,
1.6227,-0.61217,1.5466,4.9931,-21.0728,0.30609,3.1926,-0.14351,7.6146,-5.0362,16.768,-8.6976,5.1317,-0.67182,
0.56152,2.799,0.97184,1.8015,-16.916,5.5904,3.4829,-3.5091,5.7115,4.9074,9.9773,-2.3912,4.8238,-0.63151,
-4.0522,7.6925,-3.1841,-3.3681,-21.4448,13.2087,-4.68,-2.5757,-4.9953,1.9617,-0.021573,0.88556,-3.4196,-5.6551,
-5.0143,3.6156,-4.1983,-4.8537,-34.2581,12.175,-6.0864,3.6044,-6.8647,-3.2177,3.1127,-1.3367,-4.9016,-1.2184,
-8.5698,-1.904,-9.731,-6.0082,-35.6978,13.8548,-6.2032,2.906,-7.8991,-6.881,0.033923,-2.7028,-6.0538,0.30095,
-4.9219,7.6104,-3.1213,-2.9964,-20.7813,27.1235,-4.144,11.1678,-6.702,-3.8168,-5.9939,3.0028,-4.4855,0.041696,
1.1577,11.01,3.3327,-2.3345,-21.9448,39.5961,-3.8951,12.4259,-6.2997,-2.1418,-8.5265,1.3766,-5.1805,0.039423,
0.6061,5.5289,1.6862,-0.74838,-27.3767,28.0613,-3.6616,4.4495,-6.4039,-2.9774,-6.0865,4.1863,-4.8694,1.965,
-3.2864,2.3049,0.62095,-3.5958,-29.5908,16.2545,-0.54966,1.2902,-3.6097,-1.8347,-6.6854,9.7199,-1.685,3.7755,
-1.8842,-2.4129,0.82489,-2.6569,-36.2508,13.5922,-5.0957,0.97185,-0.25944,-1.0014,-7.9713,5.0391,-0.86073,6.2003,
0.15707,-6.6065,2.2217,-1.0517,-34.5581,9.4023,-9.1288,-3.425,-1.2082,-1.9057,-1.2265,0.88039,-2.2553,4.864,
-3.4675,-5.005,-0.56296,-5.5676,-26.9408,3.2947,-5.9297,-4.4246,-4.7509,-3.4783,1.4984,-3.752,-3.3251,1.9208,
1.802,6.6237,3.5684,1.7561,-17.8527,13.4612,-0.99442,6.205,1.0775,2.2742,1.6492,-6.1782,2.9002,5.9032,
2.6582,3.8157,5.7644,0.68638,-17.7455,17.9561,-4.3092,10.1712,3.4235,1.1734,0.58641,-10.1458,4.172,6.9952,
-3.0452,-7.2593,2.7672,-2.4881,-24.1528,2.7788,-2.3632,5.4634,0.56674,-3.4765,3.2026,-10.7421,0.78841,2.9599,
-4.0675,-4.1724,-4.8704,-2.0976,-30.1752,-4.9803,2.84,1.5204,-2.1186,1.794,7.108,-3.1079,0.9823,-0.83292,
-4.0647,3.5495,-7.7119,-4.1411,-34.8728,9.4186,-1.9099,6.9726,-2.7146,9.6399,1.1377,1.1761,1.1641,-0.5422,
-6.7128,4.7828,-2.4284,-0.51819,-40.4928,22.9534,-10.9543,13.3031,-2.0698,10.5077,-3.2689,-0.3407,-2.2797,1.9009,
-4.8638,7.3884,-2.7647,-1.9334,-48.6685,31.6991,-13.1891,10.5767,-1.9456,8.431,0.30121,4.5005,-5.0355,-0.62327,
-4.0903,16.1039,-5.0091,-2.2995,-55.3896,36.5459,-13.8443,12.3523,-4.2392,8.4073,0.28337,9.5328,-3.2873,-2.0324,
-6.7367,16.5841,-2.2982,5.0695,-64.5992,47.3688,-17.3517,16.9138,-3.0203,9.3489,-1.6616,7.5148,-6.4643,3.8744,
-5.6098,16.7937,-4.3297,2.114,-69.1594,51.5163,-17.5161,17.104,6.0783,8.0648,0.12509,11.1611,-14.0304,4.847,
-0.93491,22.535,-4.07,-2.3516,-56.3328,48.9072,-13.0907,17.5238,6.196,7.099,-0.84674,14.3478,-16.563,2.628,
-4.494,16.1214,-1.6564,-2.4512,-45.4812,41.8752,-12.0641,17.1957,-1.1654,6.4319,-3.4468,6.9792,-11.9536,4.1573,
-10.4911,7.4411,-5.8955,-1.8225,-50.9473,42.255,-12.7867,19.538,3.2426,6.5281,0.61617,5.1144,-4.0058,2.4618,
-10.5848,13.0204,-10.1213,-1.4719,-53.916,41.4072,-13.2246,19.571,6.6637,9.2697,-0.14393,6.977,-4.0062,-0.81914,
-9.4678,17.5419,-1.8013,-5.24,-43.4504,33.1377,-13.395,10.2018,1.9251,11.1236,-5.4379,0.29137,-8.5865,1.6401,
-6.0069,10.7045,4.5736,-4.4434,-39.3969,31.1497,-9.699,9.108,1.3279,6.6001,-2.2189,-5.0285,-6.6253,0.095698,
-4.9234,1.1444,-3.6548,-4.418,-44.9871,27.5937,-6.4657,11.6948,8.2378,4.0347,2.0113,-7.3781,-2.6121,-3.5252,
-8.2434,1.3167,-7.051,-2.9476,-42.5288,17.02,-6.8011,5.9314,7.9845,5.4798,1.6497,-6.2121,-6.5532,-3.5551,
-5.0977,5.817,0.8439,2.2909,-36.3619,20.0961,-7.116,8.2268,2.4438,4.9101,-0.13651,1.15,-12.6675,-2.1365,
-4.0687,0.40654,0.070139,-3.3904,-37.3134,24.9162,-7.4121,14.7229,2.5384,6.7849,-0.36952,-0.12402,-15.0407,-1.2852,
-7.6812,-0.58195,-2.8264,-4.633,-37.0028,18.6007,-6.9672,10.4653,4.3145,15.0546,0.13481,-3.0089,-8.8358,-1.2083,
-5.5329,1.6224,1.9227,-1.2218,-30.6853,15.7972,-5.3441,7.668,-2.4526,15.3564,0.36792,4.6432,-2.2799,-2.3409,
-1.8267,-3.2955,3.7358,-1.6306,-25.4697,17.7417,-5.5056,11.0643,-7.6078,10.5784,0.34562,8.2213,-4.5535,-0.27202,
-1.4761,-5.7493,0.37816,3.5289,-24.1825,13.0622,-4.9343,9.1954,-4.0179,5.8464,1.5302,-0.70769,-6.4494,1.4315,
-1.6285,-3.7171,5.8991,5.0044,-20.5624,9.145,-1.0228,6.4745,-1.1257,1.3982,5.0538,-5.7269,-2.447,1.5866,
-4.4229,-4.4579,5.5451,2.7759,-18.3646,8.5963,-2.8896,4.6397,-6.8427,-0.61386,2.8224,-2.4908,-6.6385,-1.4011,
-4.3985,-4.9134,1.597,3.8147,-18.4677,14.5884,-4.4035,7.9768,-2.8168,4.0027,0.96579,2.7199,-5.9993,4.2266,
-2.9297,-3.4137,1.2602,2.8624,-18.0826,17.3286,-3.8983,10.1497,-1.4425,0.62906,0.66688,0.38754,3.7607,7.1065,
-1.5491,1.8528,1.4256,3.896,-12.4183,13.6373,-4.8697,10.7456,-10.274,-1.0959,-0.096493,-5.1793,4.7399,1.6184,
-3.1429,1.5006,-5.1674,-1.3995,-6.6116,13.06,-6.2643,9.3779,-5.5602,3.5491,-2.2599,-2.217,-6.3903,-0.16594,
-3.4365,-0.51783,-6.7858,-1.3153,-3.8045,19.0251,-4.9243,11.7076,7.7891,4.7827,-0.19585,7.5567,-10.3454,2.2544,
-3.9535,-0.24556,-3.7273,-0.51368,-5.2637,13.3041,-6.3163,7.8716,-0.63224,2.8083,-0.42529,6.8621,-9.484,-0.53221,
-5.4032,5.7945,-4.2268,-5.0624,-6.6349,9.8545,-8.1063,3.7839,-8.5483,3.3629,-3.533,3.3172,-12.0482,6.4894,
-4.1154,8.821,-4.4554,-4.2765,-6.7189,16.0119,-8.1021,6.9311,-2.251,4.1252,-5.2495,4.5642,-13.7357,20.2,
-2.9042,3.4715,-2.2599,-4.0199,-7.2801,10.2305,-5.6878,7.4793,1.2585,1.9495,-3.4882,5.7366,-7.1269,28.0266,
-0.31978,2.2994,1.7321,-0.40424,-3.9508,0.45808,-1.4901,9.4409,1.6654,0.38628,0.095503,3.4642,-0.91474,16.704,
-1.0235,4.3306,1.3877,2.7535,0.86599,0.67156,-1.6417,5.7414,-0.60371,0.60453,-0.1512,1.0872,-7.3673,3.8916,
-4.8182,2.1428,-2.0703,-3.1965,2.2601,3.0416,-3.9535,-2.3158,-5.8699,7.7989,-2.5525,3.4323,-11.2634,-4.5368,
-2.3602,1.773,-2.1868,-1.7997,-1.0088,1.6541,-2.5112,-0.48988,-5.7589,12.8743,-2.6405,7.8059,-4.0803,-4.0234,
-3.4237,-1.949,-3.2611,2.4059,-4.5639,-0.13263,-0.67311,5.5651,-3.2444,2.2197,1.6155,2.758,2.1903,-4.0232,
-6.1103,-7.1343,-2.1011,3.2259,-2.3619,0.35772,-0.63273,7.1596,-2.5674,-3.6981,7.3031,-3.1921,0.13065,-5.2281,
-3.3338,-10.0809,0.91725,1.1039,1.636,-0.14591,-0.59499,2.8734,-0.48537,0.38044,4.4546,-1.0726,-0.84128,-2.504,
0.72308,-6.1016,0.86221,-3.3007,10.2154,10.4681,1.3689,3.6653,-2.3844,6.6241,-1.5973,6.705,6.44,2.4669,
-1.2487,-1.3969,-1.5999,-1.1747,12.9767,15.1425,-1.6055,7.7837,-8.0257,7.6727,-2.9475,7.2668,2.197,0.87242,
-6.2353,-0.10806,1.1474,1.0652,6.6547,0.13392,-3.1962,2.7374,-1.5184,6.4897,1.8089,3.6975,-10.2266,-6.1696,
-4.4153,1.3442,5.8988,-0.92735,6.255,-5.7796,-0.59429,-1.2837,6.7669,8.51,1.7004,4.4391,-4.7932,-3.8712,
-1.4991,0.5409,-2.8905,-4.9688,5.6389,8.6671,-3.21,5.3013,5.1563,4.3842,-5.8737,3.932,6.3408,1.4225,
-1.1677,0.26748,-10.6708,-7.8037,-7.4739,22.2471,-2.7764,9.0806,5.5698,3.3982,-2.3878,3.4551,2.8269,4.4707,
-5.6772,0.49216,-9.3079,-3.2384,-21.1254,15.1282,-6.225,1.0639,3.5482,2.9531,-0.55706,-2.2956,-10.5989,2.033,
-7.5059,2.632,-4.6519,-1.3566,-26.0042,20.2458,-8.0209,5.5796,3.0946,2.5352,-2.693,-0.95276,-9.7217,2.1522,
-6.3324,2.7153,-3.6496,-2.9627,-23.2389,24.0925,-5.3702,8.8602,4.5959,3.1062,-3.2546,4.1659,-5.5232,2.7462,
-6.1937,2.3112,-5.6,2.2765,-20.6395,15.1754,-4.3254,4.7132,4.5613,6.0531,-2.3362,5.121,-7.3612,2.3403,
-6.3045,0.24432,-7.1922,-0.75258,-18.9192,10.8904,-4.0658,4.9123,4.7696,0.86921,-0.2678,2.8855,-6.9196,2.1999,
-0.62333,1.6757,-2.9041,-1.6711,-20.1939,14.5755,-2.3754,7.9921,6.8938,-6.4136,2.6406,2.2302,-1.6839,1.5857,
0.61937,5.1906,-0.56067,1.5622,-18.7415,11.0494,-6.3307,7.2713,5.2748,-3.8596,0.31296,0.89111,-1.8238,-0.19667,
-2.7922,-0.90544,-3.4195,0.98656,-18.5809,6.0481,-9.3248,6.8353,4.4764,-1.2179,0.29418,-2.5363,-1.7144,-1.1487,
-3.1066,-6.1538,2.0883,4.3018,-16.9839,10.024,-2.0164,7.8714,7.5823,-5.4831,5.5792,-2.8661,1.281,0.84838,
-2.6793,-1.2048,6.5423,2.3565,-10.9036,13.5199,0.2737,9.0861,3.9939,-5.3951,2.1109,0.43889,1.4451,2.4847,
-7.098,3.9289,-1.3218,-1.4001,-11.9366,13.4314,-7.2148,11.1923,-2.7535,1.9182,-4.5234,4.5101,-3.2211,0.64817,
-5.2261,1.2829,-3.1705,-1.7983,-11.2202,11.6619,-5.8178,8.1106,-0.65984,5.1774,-1.8417,3.2754,-3.992,-0.35482,
1.1132,0.00081761,1.5988,-5.7879,-1.147,12.1668,-2.3355,5.4544,1.5487,3.6617,-0.5261,-1.0187,1.309,1.3535,
-3.7741,5.3036,-2.8352,-6.8867,-3.9705,12.4013,-4.1233,8.502,-2.8823,3.9246,-3.3868,0.0070044,4.1232,-0.17331,
-10.7782,1.1288,-7.0037,-4.0631,-16.7477,5.3905,-3.3937,5.0994,-2.2277,1.7607,-1.7376,-0.95797,2.9113,-2.0913,
-4.3472,-3.7594,-4.1731,2.4474,-9.9582,1.2105,-6.0824,2.3831,4.6546,-1.7196,3.1872,-7.1668,7.0751,4.7828,
-2.3991,-3.2929,-6.0923,2.0591,-2.3711,0.89687,-7.8871,7.3015,6.5445,-5.7138,6.1294,-9.8703,11.2299,8.1113,
-3.9424,-2.8543,-4.5215,-1.6794,-4.398,3.9765,1.9862,13.3714,6.8752,-6.5758,6.4845,-5.6626,5.4949,6.9017,
-0.33164,-3.1652,2.4985,4.6877,-1.724,4.2201,2.8311,10.6407,5.9805,-4.2533,2.2393,-2.913,1.7905,6.9693,
-0.070542,-6.1086,0.66157,4.6476,-1.3791,3.7257,-6.7386,3.0128,5.8629,-2.7926,1.8638,-2.4965,5.2987,8.7205,
-5.369,-9.1165,-2.7526,-1.8978,-5.153,4.9484,-3.9241,5.7241,3.5829,-2.6255,3.6801,1.0273,0.64204,5.3048,
-5.2878,-9.2924,1.9923,-0.57907,-1.7105,4.4106,4.7475,7.0679,-0.72939,-4.1552,3.2184,0.72465,0.36255,2.8173,
-2.319,-8.0115,7.8983,2.5892,0.079541,1.4948,1.8115,-0.82776,3.8937,-6.075,6.1587,-4.8624,10.7051,7.228,
-1.4569,-4.3978,3.3271,6.0492,-1.6127,-0.28254,-2.395,1.3908,8.7217,-8.3616,7.9584,-6.7399,6.9293,8.4816,
5.138,-1.4828,3.3684,6.8916,4.5099,3.8322,1.3641,9.7433,6.0293,-5.6908,7.2399,-2.2381,1.4523,9.1775,
8.2046,-2.3577,7.0227,4.5499,6.6496,1.1922,-0.6459,3.3743,0.36485,-4.8674,3.4311,-2.1038,9.5599,9.5912,
2.6504,-4.8676,4.4324,4.0357,6.4916,-2.0126,-2.2941,-0.44354,-2.7903,-3.8522,0.57387,-2.7003,13.5658,6.8468,
-1.8469,-6.5037,0.30962,3.3116,5.6202,-0.44607,0.25363,5.8496,-2.6229,-1.6929,1.5038,-2.0568,5.521,4.5073,
2.1203,0.153,-1.1552,8.4156,0.94419,-3.7938,-2.6541,1.6422,-3.9118,-1.5913,0.93115,-6.7536,-3.9693,2.3087,
5.1265,9.0619,-1.3269,4.2952,3.0572,-1.397,-3.2178,-0.14354,-6.8105,0.19139,-3.2221,-2.2511,-2.0439,2.8935,
-0.96586,4.1796,-4.6215,-6.568,3.3554,3.5073,2.2777,9.0241,-9.7761,0.66207,-5.4391,4.6327,1.453,1.2734,
-0.4262,-3.3018,-1.4519,-0.38913,2.19,4.7434,3.1052,12.821,-3.8872,0.14018,2.1183,3.8726,1.366,3.1255,
3.4562,-3.5856,2.9735,3.9725,10.2538,2.5306,-1.4195,3.3749,3.095,0.61371,5.3657,-0.21618,0.80214,4.8661,
-0.12538,-0.47816,0.38522,0.35996,15.9053,1.4147,-0.85214,2.2085,0.49893,-1.833,-0.25915,-1.6492,6.0564,2.1638,
-3.4928,-2.3781,-2.5304,-2.0722,7.7197,-3.009,4.5012,5.45,-4.8337,-2.2054,-0.72554,-1.0683,10.5133,1.5516,
1.7787,-1.0299,0.27273,2.6321,7.9796,-4.0335,6.8829,1.9897,-5.7487,-3.2782,0.52306,-1.7274,2.8929,2.664,
6.4922,1.9239,2.6665,8.7407,18.1061,1.9931,7.4338,2.8344,-3.9575,-9.348,-1.9185,-2.5876,-0.17278,2.9861,
-1.6098,-5.4221,-0.38532,1.4676,9.7892,-0.054485,6.506,3.1468,-2.2736,-13.6076,-0.35731,-1.9502,5.14,3.2891,
-7.539,-13.0503,-2.0497,-0.30749,-4.8982,-10.4153,4.9102,-6.9242,-3.3427,-9.6579,4.726,-1.592,3.6265,3.3329,
-0.097041,-9.6164,1.6885,5.2543,-2.0739,-13.888,7.2669,-7.714,1.4374,-2.0888,8.0572,-2.22,-2.6168,3.3737,
1.5962,-4.4599,-0.099797,1.3239,5.0406,-12.8135,3.6976,1.1847,2.5562,-0.75837,5.8868,-3.2919,-2.2186,1.0024,
-1.8738,-1.3,-0.57597,-0.20157,2.3278,-9.1524,0.10153,0.63169,-1.4533,1.6975,1.6774,-1.166,3.2169,-0.50382,
0.64856,2.1522,0.90462,0.29223,10.3831,-2.3365,2.9877,-0.37031,-2.8126,-0.81472,-0.83359,-1.5782,3.0241,1.4544,
1.8149,4.1927,-0.83689,1.48,23.4984,3.3468,3.5314,7.1237,-4.3311,-9.2015,-2.4708,-2.6888,1.1555,3.5363,
0.50098,5.1462,1.3827,1.15,20.4015,2.9053,2.1144,5.491,-5.2763,-8.4087,-1.1175,-2.7682,0.84493,3.0829,
2.3989,7.2473,3.2277,-2.2932,9.5362,-0.64372,2.9516,2.7514,-6.4057,-5.4938,-2.0145,-4.5305,1.2764,0.0056344,
2.014,8.0178,-0.58091,2.4236,7.2768,-1.8099,2.5336,6.6837,-5.7804,-9.7435,-1.6527,-4.4997,3.8509,-1.1995,
-2.2044,5.8497,-2.2335,3.4833,10.9378,0.4676,0.69411,2.1851,-4.7105,-11.3282,0.13392,-2.0603,2.8967,0.55943,
0.82035,6.4626,1.7569,2.3104,18.4762,4.7783,3.0631,-0.35616,-2.4996,-3.8996,-2.2847,-1.9367,2.241,3.9003,
5.3504,4.87,1.4105,1.4484,17.1267,5.2145,4.0841,9.0652,-0.1805,-2.9428,-6.7269,-3.5077,2.3475,4.3892,
0.93227,2.4084,-2.2893,-0.32546,10.0738,1.7684,0.7058,4.9061,-0.89234,-7.3457,-9.9385,-4.0204,4.8584,0.99259,
1.358,9.9765,5.5606,4.9965,12.8436,1.6621,1.6275,-0.20897,-3.2496,-4.0127,-8.3785,-0.40492,3.1204,-0.031061,
3.4462,8.655,8.8424,0.11741,9.9038,0.83944,2.7352,5.3474,-5.7057,-5.4591,-2.8141,-1.5855,-3.5743,0.21177,
3.2394,4.7612,3.0092,1.0742,12.6836,4.1635,4.0173,11.775,-2.9533,-8.0237,5.0675,-7.7573,0.49611,2.6092,
4.7323,9.0553,3.0701,5.5895,17.4666,6.5653,2.571,7.9355,-3.499,-4.8911,-1.2621,-10.4249,5.0461,0.28394,
5.4122,8.512,8.188,-0.048495,6.2953,-3.4701,2.4167,3.6027,-4.2529,-0.25936,-10.8274,-8.3536,4.2614,-1.6618,
3.1595,5.5909,6.2507,1.8828,8.3279,-1.8154,7.0922,6.761,1.3047,-0.24357,-2.9466,-5.442,5.4517,7.1153,
-5.225,0.91689,-4.2474,-1.6048,9.7562,7.9343,1.3643,2.4988,-0.70201,-6.9776,0.12198,-8.0078,4.6425,5.2419,
-5.1527,-0.34319,0.10499,-1.2673,-4.9292,9.1457,-0.40504,6.4464,0.063239,-3.4257,-3.0186,-1.5015,4.1232,1.3122,
-1.2281,-3.4561,6.1242,3.388,-16.564,4.9815,6.1272,10.157,3.6749,2.3234,-3.0784,7.0242,2.1886,12.5616,
-0.19034,-4.6947,4.7927,2.2206,-1.4702,6.6106,5.7593,6.1731,3.4541,2.6657,3.373,7.5669,-0.3531,20.9667,
-2.1071,-2.9668,4.5051,4.9799,-3.4307,3.8038,-0.3708,6.7668,-0.1271,0.5776,6.5446,4.7027,-4.6707,8.1396,
-2.9448,-5.6811,4.235,6.1276,-17.3248,-2.6911,2.5437,5.3969,-0.11924,-0.42069,4.224,1.0463,-6.3184,-1.9895,
1.811,-4.1352,2.2935,3.1082,-11.1036,2.0498,3.5962,2.9035,0.61058,-0.63665,3.2474,-1.1858,-6.1805,1.2626,
3.8722,1.1744,1.9151,4.1272,-1.0369,8.4346,-5.055,13.0939,1.2971,-2.2854,4.2581,1.5366,-0.26584,1.4281,
-0.93992,-2.5115,3.9694,2.1923,-7.0003,1.9029,-7.8852,19.7798,2.4245,-3.8355,6.1718,-2.6529,3.8475,-1.3087,
1.5266,2.9419,6.1414,6.881,-12.3653,0.3425,-1.1456,15.2186,6.135,2.1787,8.2111,-6.3506,3.6166,5.0363,
4.8095,9.5143,-0.011706,5.0219,-7.767,1.7682,-5.4152,9.9671,4.3211,3.0123,5.3083,-3.077,2.9177,2.806,
-0.54079,3.8817,-5.0727,-4.6794,-2.2393,1.4207,-12.0801,12.5021,-0.99985,-4.1583,-0.07139,-1.2052,1.5373,-3.8703,
-5.3286,-1.6538,-2.3577,-0.059848,-7.4076,4.228,-6.5346,15.1267,0.5064,-0.53435,2.8254,-1.1329,0.96316,0.21873,
-3.5628,-3.0006,-2.2165,1.3898,-16.1219,-1.8101,-2.7683,8.4345,1.4401,7.6926,6.0301,-2.029,-1.9869,0.68777,
-0.93849,-2.8206,-4.4936,-2.55,-10.8161,-8.4504,-6.9405,4.072,-2.9846,6.2672,-0.59821,-1.9073,-6.206,-3.6923,
3.2147,-0.4822,2.2835,0.25409,3.0891,1.4567,-4.8373,12.2634,3.7019,10.4705,-3.2139,4.7147,-4.1469,1.5905,
-1.0753,-1.1764,2.8696,-0.96621,2.181,2.0924,0.99674,9.8406,3.721,9.6015,-5.19,4.6734,-5.1027,1.2543,
-1.2517,-1.3468,0.52825,4.6354,-5.904,-7.4332,6.9625,2.2605,0.36428,2.5175,-3.1918,5.1159,-3.1098,0.93809,
0.028195,-7.2915,3.63,5.5625,-8.2011,-8.6744,4.8575,2.3658,3.4759,-0.28466,2.0614,3.6037,0.69225,2.569,
0.99106,-8.7825,6.7865,6.1929,-0.96013,-5.7436,1.1918,11.3829,5.6777,3.1066,0.97361,-0.4687,3.543,2.4151,
4.5466,-2.7119,6.1383,7.9905,4.1587,-3.2298,6.1815,16.2433,5.0956,2.6793,-0.2901,5.5845,1.6432,7.8134,
4.9967,-1.8263,5.5286,7.2696,-1.6344,-3.7594,8.4622,12.1353,7.4414,2.7595,-0.51366,12.7212,1.7856,7.5855,
4.2152,-4.1266,3.7513,8.7619,-4.9104,-11.2463,1.2058,4.1768,5.067,2.1118,0.96365,2.7992,1.1967,-5.8848,
6.6131,-0.74575,5.6951,5.5848,6.2301,-7.9207,3.3024,6.577,4.5213,1.2619,9.8232,-5.3227,2.3295,-3.3628,
1.1551,-2.3882,5.1125,3.5625,6.5796,0.50874,3.3452,13.6542,4.4915,2.3915,8.029,-3.7981,0.98493,7.2033,
-1.0831,-1.5218,4.5645,8.4107,2.5694,3.6115,-0.95263,17.8966,4.4632,4.8993,-1.3706,1.4912,-0.27923,7.9762,
3.8023,4.3543,4.2909,5.0137,5.7897,0.020558,-1.3776,11.5204,2.7489,2.6769,-3.2168,2.3659,-0.74464,2.1952,
-0.52361,0.47718,3.3101,3.5076,3.2727,-2.6322,-0.089687,2.3931,2.343,1.311,-1.3366,-1.8734,-1.4229,3.7507,
-8.6869,-8.71,5.0401,5.2254,-6.5644,-1.9919,0.39763,4.6601,4.1306,1.7148,-0.77396,-4.6531,0.5907,5.9358,
-4.0683,-7.9465,5.4606,3.7065,-7.8578,-2.5957,-0.34913,7.9956,3.6418,1.8528,-1.4509,-2.2047,1.7601,-2.3741,
-2.3782,-5.5417,3.2046,0.59186,-4.0121,-5.8142,-2.2566,7.0337,3.4231,2.7058,-0.88167,3.7119,-1.7197,-3.6777,
-9.7071,-10.2707,3.2535,-0.16678,-9.315,-11.0092,-0.91615,7.8168,4.4227,1.8203,1.3402,2.766,-5.7141,0.64011,
-8.1608,-7.7262,3.0583,3.2177,-11.1662,-12.2769,-0.37924,6.8658,1.2653,1.7111,-0.18651,1.1538,-12.6021,-0.84456,
2.2112,-0.27278,3.1157,3.7475,1.3139,-4.0684,0.36687,7.659,1.9123,7.634,-1.3802,6.1463,-13.5328,-0.55246,
0.15038,-3.1489,1.0006,1.5945,7.502,-4.3063,0.34486,5.7534,3.2438,4.7658,-1.2973,4.8136,-12.2389,-1.9656,
-0.58201,-4.6472,2.6278,3.668,1.99,-6.699,2.4933,8.0593,2.3263,-1.0638,-0.97854,5.7296,-8.3715,-0.16041,
1.6221,-2.6812,3.193,1.2787,-0.78048,-2.6816,2.5847,9.7451,0.98142,0.20535,-1.6427,9.4837,-8.1102,3.4646,
-0.40344,-2.5203,3.0014,1.202,2.6406,-6.3771,-0.94484,5.786,0.4406,2.1212,-1.5442,2.6477,-12.9258,-0.59963,
-1.5843,1.2466,5.4727,3.2993,2.7233,-14.9123,0.79931,-0.10459,2.1012,-0.17544,0.23549,-4.0189,-16.2478,-6.5894,
-1.248,1.8949,3.9393,1.8963,2.8009,-12.3306,0.51015,-2.2677,2.2163,-1.37,-0.50177,4.1762,-20.3346,-3.5427,
0.27287,-3.5217,0.81061,1.3003,6.4892,-5.324,0.47977,-3.0957,1.6011,0.15826,-0.47144,3.4435,-22.0068,-2.3661,
1.7025,-2.8282,0.76174,-0.22373,11.4023,-5.0048,5.2715,-2.4278,3.4335,2.5591,-0.44338,-6.8863,-20.2043,-6.5627,
1.8418,2.8851,0.47507,1.4769,10.4772,-5.9093,2.3036,7.1178,2.0222,0.71834,-1.1397,-6.2317,-20.6792,-4.9636,
0.76719,1.266,-0.035136,0.90614,8.8845,-4.5907,3.1295,10.065,0.45484,-2.699,3.2673,-3.9298,-17.5103,-1.7735,
1.926,0.46711,-1.2383,-1.3174,10.521,2.6742,9.4497,7.7741,1.6328,-0.84982,3.7941,-3.453,-14.2903,-2.39,
1.0875,3.0902,-4.2975,-1.4793,9.6483,5.6472,1.8928,9.4768,0.81151,-1.0403,-1.9771,2.2978,-15.6022,-0.55983,
2.2276,2.6638,-0.42424,0.29667,8.3465,4.1035,-2.3181,7.7031,1.9681,0.22746,3.2032,11.078,-13.4608,4.5354,
-1.7627,-1.3526,-5.7012,-1.1672,1.0971,-5.3019,-0.73298,-4.8104,-4.4167,0.21404,0.60062,6.0747,-19.884,-4.4136,
-4.0673,0.17455,-8.7338,-6.4,3.9235,-7.8761,2.2033,-5.4861,-4.6339,3.0935,-2.3277,0.40783,-21.1013,-9.4516,
0.99723,-0.80002,-6.2814,-12.2827,11.8831,-5.4756,0.62506,3.038,-2.4279,-1.4307,2.1505,0.38313,-15.0145,-2.1358,
5.7581,0.69424,-0.1199,-3.3506,11.1701,0.1556,2.0338,5.7483,-2.2817,-3.273,0.093281,4.2165,-12.1857,3.295,
0.11021,0.65281,3.7439,-2.1855,-1.5515,0.1465,1.4296,0.10072,-3.5909,0.29758,-10.5174,-2.3027,-14.8288,-1.7228,
1.3087,4.2288,5.2063,0.11504,1.6749,-0.10349,4.4771,1.2997,-0.72456,-1.4073,-5.3068,-10.1186,-11.7699,-2.3425,
1.4711,4.2161,0.31461,-0.61523,12.4207,1.5899,3.4856,0.98079,-0.92205,-5.9021,2.4834,-7.8242,-6.4839,-0.51475,
-4.4017,0.58865,-4.525,-8.2911,8.301,-3.3257,-0.57995,-5.8267,1.5434,-0.72774,0.4062,-2.0521,-5.613,-5.3046,
-5.102,1.0357,-6.1817,-2.9729,0.090129,-10.8389,-1.9914,-11.7436,5.7896,4.6186,-0.5825,-3.3752,-11.0608,-10.7709,
-2.1445,-2.1597,-5.5696,-1.1075,0.80785,-8.0197,-4.0413,-5.0135,6.1653,4.1003,2.1038,-3.8959,-9.1921,-6.9914,
-3.4621,-7.3327,-1.8609,-4.4155,3.1695,0.17428,-5.727,6.8565,4.3492,3.8542,-1.3969,-0.77005,0.51849,0.17701,
-1.3257,-7.3747,1.1428,-0.29422,6.8357,3.0563,-0.080761,9.3376,2.6419,1.2129,-4.2052,-1.2058,5.3081,-1.2799,
2.1276,-5.4867,1.5564,2.6157,9.7998,3.3547,3.2983,3.4745,3.4475,-3.1985,-0.096686,-4.5077,5.4713,-4.0954,
-3.5437,-6.3623,3.6321,4.146,-4.8882,-0.46203,-2.4432,1.5788,6.8561,0.12647,6.8985,-3.9962,4.4197,1.6935,
-0.92048,-1.6418,2.9323,3.4153,1.5514,-0.91624,-0.85035,1.9662,4.0346,-1.3269,4.0749,-4.2384,3.673,1.1104,
2.2682,3.518,2.9973,2.9694,8.9301,-0.13791,1.8522,3.5355,2.1053,-1.9702,1.6613,-4.2251,3.6936,1.2848,
4.7835,7.4045,2.5763,2.5501,15.3844,0.1111,3.4281,4.5284,-0.19041,-3.0571,-0.60777,-4.2127,3.2308,0.96648,
7.3885,11.7809,1.9398,1.9151,21.2098,0.58683,5.633,5.703,-2.1067,-3.838,-2.4995,-4.4419,3.5193,0.9085,
6.463,12.5201,-1.5508,-1.5745,23.7933,-2.8231,3.8485,2.9504,-7.2832,-7.9462,-7.6524,-7.5501,-0.066507,-2.5202,
8.9675,16.107,-1.94,-1.9617,29.1149,-2.1715,6.028,3.7375,-9.2566,-9.3974,-10.0856,-7.5788,-0.54468,-2.3693,
1.9218,9.1152,-7.8493,-9.316,21.3422,-4.6925,0.12244,-4.9226,-12.7987,-11.003,-15.0238,-3.9908,-6.5378,-9.2167,
0.60142,11.7016,-4.2451,-4.6595,20.7848,-0.31341,1.8026,-0.047773,-5.5231,-5.7633,-4.2402,-5.9207,-3.0118,-10.3507,
-3.7728,3.7689,-1.5801,-3.8978,18.5736,-6.5614,1.2122,-3.9013,-3.7452,-9.756,1.3166,-12.3142,-0.90312,-7.3193,
2.7201,4.5066,2.8535,3.5669,19.8698,-6.1677,4.9963,-4.6311,-2.0743,-4.3499,0.27375,-0.4881,2.5255,-2.5419,
1.5926,4.2362,-0.69214,0.94281,17.2313,-3.8694,3.7322,-5.3175,-5.3243,-3.607,-5.0453,-2.387,-0.51807,-9.1382,
-1.6362,4.2232,-4.7482,-2.2475,14.9919,-2.4322,1.8209,-0.90114,-3.7997,-7.4882,-1.6093,-10.6797,-0.24625,-9.3131,
4.9699,7.1033,-1.8117,1.5028,14.8158,0.3653,0.9887,5.1787,-3.3308,-2.4591,-2.7181,-7.8697,3.3839,-4.6565,
5.6358,6.195,2.1531,-4.3717,12.4808,-3.5132,-0.99859,-3.327,-6.5052,2.5089,-8.3393,-5.4691,3.6631,-6.7875,
2.4051,7.2691,3.9521,-1.6998,12.6958,-7.1588,2.4353,-8.43,2.0799,4.7685,-2.5368,-3.6952,5.8534,-5.4163,
-3.0416,-1.3616,-6.4081,-3.5257,3.2572,-15.8881,2.7714,-7.442,9.6681,5.4465,1.472,-7.3296,2.6099,-7.5013,
-2.1362,-5.3777,-6.2646,-7.8935,-4.41,-18.0683,0.91786,-3.3801,11.7391,11.1452,4.5172,-10.0233,3.6586,-8.7384,
-0.32081,-3.3678,0.61874,-2.3586,-1.9763,-12.4049,-2.7526,-4.8645,5.0092,10.7175,6.4153,-2.4321,10.4285,-6.0449,
-2.4707,-2.9248,-0.62322,-2.94,2.2397,-9.9734,0.063618,-5.7777,-0.35305,3.085,1.9331,7.1139,11.9724,-5.4413,
-0.39451,2.5536,1.3421,2.5388,6.9258,-2.6263,6.3265,7.5842,4.0067,1.4534,-0.11136,8.615,9.3257,2.1158,
-5.6733,0.47197,0.29752,1.4224,5.0642,2.3517,-0.80173,7.6113,1.3559,-0.56174,-1.0688,2.7957,5.3919,6.8093,
-10.3941,-2.2074,-1.4071,-1.3141,5.4832,2.4521,-2.9228,-5.1377,-2.3408,0.67726,-0.28128,9.1359,5.7913,3.7497,
-13.1451,-2.5572,-1.8053,2.139,8.0465,-1.5517,0.62681,-5.3116,-5.0927,2.5646,-7.0135,10.5157,1.1053,-0.81384,
-17.4181,-2.6447,-0.0097541,-3.533,7.8047,-1.2176,-1.58,9.1071,-6.4744,1.6874,-11.172,1.4491,-3.0584,-0.52405,
-14.4446,-2.4862,-0.49087,-3.8027,5.4085,-0.18045,-3.4131,10.1274,-6.0857,1.1044,-5.1993,0.87996,-0.46456,-2.4206,
-8.2753,-3.7829,-2.8715,1.2457,6.0478,-3.5441,-1.7625,-3.4956,-3.7923,3.9302,-2.4767,5.6479,3.4197,-0.82953,
-9.225,-4.0383,-3.6636,-3.6493,6.6493,0.043019,-1.6563,-4.7319,-6.4573,0.80233,-9.077,4.8266,3.2145,1.6308,
-12.7689,-2.5907,-5.131,-4.6356,6.0094,3.6559,-0.35211,1.5778,-9.2029,-7.1996,-10.7016,0.43966,3.2626,-1.6005,
-9.5926,-0.50707,-5.787,-0.98301,9.0232,1.0264,1.1153,1.0009,-5.2763,-7.2495,-5.2388,-1.5149,6.4413,-1.9864,
-7.8115,0.72888,-6.1629,-3.0934,11.1332,0.24167,-3.0492,-1.2283,-5.6828,0.1751,-6.6119,-0.70089,4.8498,-2.5904,
-8.3072,-1.7254,-9.1676,-6.2823,6.6088,1.1915,-3.3482,-4.0471,-6.3062,3.0567,-9.1072,-0.1769,1.6663,-6.7733,
-3.4706,-2.1041,-5.7252,-1.0848,4.7658,1.1198,4.0833,1.9803,-1.5893,-0.98336,-0.36633,0.31588,8.315,-3.957,
-4.9489,-1.2547,-3.2123,4.0421,1.3466,0.32946,1.1874,3.5489,-2.699,-3.0933,1.3431,0.53812,8.0573,-4.9242,
-5.6166,-1.6616,-3.5018,-1.0209,3.6761,-3.5465,1.5979,-7.2693,-0.12667,3.3591,-0.18351,6.2902,3.2353,-3.6651,
-7.2075,-6.8643,-2.8095,-3.8519,1.5271,-10.5647,0.53792,-7.3151,1.327,2.1934,7.0581,3.0205,6.8978,1.8577,
-5.0881,-3.3192,5.795,8.671,-12.6645,-4.387,-2.1457,7.2238,6.3088,5.677,18.9269,3.0804,13.9555,4.3971,
-6.2288,-5.048,3.5189,3.8127,-24.5584,-5.5703,-3.463,5.9466,7.3763,8.7106,10.0783,4.8236,3.477,-2.1335,
2.5806,-5.4685,1.6205,-2.924,-8.9849,-11.7436,6.1448,-4.7741,5.2465,3.1267,-0.89027,0.91875,1.0992,1.128,
14.4768,-0.80205,10.6823,1.5898,5.6542,-16.8235,19.2735,2.743,4.9317,-1.8816,3.5015,-1.5465,11.6385,5.3987,
8.5468,-6.2973,8.8363,5.11,19.415,-29.9141,21.2503,-5.8575,3.9127,0.88265,4.0145,-2.1768,8.7708,-3.3611,
5.3829,-16.2833,3.7268,5.0444,32.3501,-42.2193,22.1449,-16.3521,4.8832,2.9993,1.6045,-0.359,8.486,-2.4361,
7.9522,-21.0911,5.4312,-1.5246,44.5091,-53.7861,22.7442,-10.0683,4.5904,-4.4117,3.4366,-6.6037,13.7612,0.12041,
9.1621,-19.1026,5.8284,1.2178,55.9385,-64.6589,22.5846,-6.3312,4.5557,-12.101,6.3632,-14.6439,11.7305,-7.3589,
10.2998,-17.7152,5.2375,4.278,66.6822,-74.277,26.7734,-10.5306,6.4518,-12.58,9.1152,-14.4884,11.2678,-10.5325,
7.7536,-18.5809,4.4414,-0.31704,76.7813,-74.1589,23.7207,-12.7913,3.1722,-11.3433,5.1938,-12.6548,11.5556,-7.9724,
8.4935,-18.6711,4.898,4.2815,86.2744,-70.9144,20.1281,-11.3007,1.7768,-9.9395,2.7128,-11.6547,10.1392,-7.2533,
6.0557,-25.7456,4.1222,4.9885,90.6184,-72.9263,16.9922,-17.3713,3.5984,-7.8969,4.9601,-11.9193,10.0127,-8.2639,
4.0053,-26.8522,3.6337,4.4484,77.2274,-67.8276,15.2495,-26.6931,4.5875,-3.3255,5.868,-9.5172,9.1712,-8.0093,
7.3802,-15.841,4.6207,3.9403,74.2812,-53.8758,16.504,-29.6711,3.1072,-2.8852,3.8285,-6.2948,8.8617,-7.2875,
8.3834,-10.0699,4.3437,2.7398,71.2703,-52.0895,15.9959,-26.9267,0.51042,-8.0145,-0.25736,-8.3275,9.2941,-5.8862,
6.1936,-17.4196,3.8421,5.7089,59.5223,-54.5075,14.7952,-24.1058,2.1675,-11.631,0.96338,-11.9247,8.0136,-6.7383,
4.6167,-21.9181,3.8525,4.1611,47.5148,-46.1756,14.148,-21.9366,4.2061,-11.1741,5.0025,-9.5225,6.8098,-7.0569,
3.1342,-12.6493,3.8621,3.6702,45.8695,-41.7181,11.1302,-19.4153,2.7487,-4.4784,2.051,-5.8179,5.6781,-5.4284,
2.7052,-7.7929,2.9075,3.209,49.6248,-40.4201,9.739,-21.8656,3.7891,4.2265,-0.72316,-7.638,6.0603,-4.8617,
5.6766,-16.7251,1.528,-0.11676,45.4422,-33.8973,9.8778,-22.7228,4.7668,5.1779,1.0077,-5.0103,5.9379,-4.8112,
8.469,-16.445,1.1949,0.13122,39.1003,-26.3201,9.0441,-15.8161,2.7936,6.5545,2.634,5.1723,4.8583,-4.2816,
2.8992,-12.3248,0.88223,-1.0815,36.5133,-29.3204,8.2605,-12.6979,1.903,6.8841,1.7531,2.6928,5.2901,-2.8194,
3.4486,-11.8263,2.9989,1.1526,34.0815,-30.2122,8.9702,-16.5153,2.5118,0.92793,5.2633,-4.9406,5.2137,-4.8194,
9.2675,-5.5729,5.9522,1.3246,37.58,-21.4096,8.1908,-14.3194,1.156,-0.81521,11.4552,1.8635,6.1059,-6.6996,
4.3729,-7.1669,0.77462,-6.4679,35.8074,-18.1971,3.3608,-12.0142,-0.84179,0.67974,8.3575,-0.65863,8.1499,-3.4054,
-1.4331,-11.3164,-3.3692,-2.9463,25.2233,-22.6486,1.9543,-14.9085,-1.5142,-0.083948,1.8305,-10.501,14.1689,4.7532,
0.58106,-9.6733,-0.75693,-2.2876,17.9248,-21.7719,6.1754,-16.9063,-1.9053,-3.9353,0.27444,-5.0507,13.8007,5.9138,
3.4385,-6.6828,0.73451,-2.1506,19.2597,-9.3786,7.2509,-11.0717,-0.34492,-8.0377,0.25775,-0.89107,3.3314,4.5949,
2.0269,-5.5589,-1.4787,2.0758,14.4887,-5.2004,4.6467,-11.1305,1.363,-10.689,0.96564,-8.7918,3.3725,7.4526,
-2.674,-4.9842,-2.5953,-1.1818,2.2912,-11.8781,2.1987,-16.4882,-0.88794,-10.7705,1.1487,-9.9511,12.5702,2.9077,
-1.3085,0.37676,1.658,1.5405,6.7337,-10.442,1.826,-13.3293,-2.5217,-7.473,-2.0535,-3.8102,14.4673,0.082352,
2.1445,-1.5745,3.9687,0.96564,13.56,-9.3338,0.75215,-11.5657,-0.92456,-3.6506,-4.3404,-3.582,8.2966,2.0056,
3.703,-6.5415,1.5614,-1.2615,9.131,-9.0147,0.46606,-11.5949,0.81814,-5.6007,-1.9108,-5.5362,4.6653,-1.7302,
4.6857,-3.0157,1.7087,2.9116,9.7885,-0.037947,4.0531,-6.8018,1.01,-5.0237,1.8192,-2.0706,4.1444,-5.7237,
1.9944,-0.9066,1.1242,0.32676,12.0932,2.8566,3.8099,-6.8756,-0.014449,1.0623,-0.70051,1.4276,2.4495,-4.8983,
4.0439,1.3174,0.33386,0.54812,9.6804,0.0339,1.8945,-6.7041,0.70932,1.7219,-0.89944,1.101,5.918,-3.3991,
5.0066,2.4432,1.0367,0.75666,6.4485,0.27306,3.4681,-4.6146,2.354,-2.9607,4.6981,-0.16987,12.5528,-4.4005,
-0.59671,-1.56,1.9386,-0.25329,1.723,-7.4563,3.7417,-8.6765,1.2486,-3.7476,4.416,-2.0881,10.3531,-5.1006,
0.64415,-4.1175,0.61724,2.4132,-1.9956,-9.6603,2.7941,-6.9506,2.3788,-0.38949,5.8385,-3.6498,7.563,-5.0357,
3.9802,0.95027,-0.38389,-2.0701,1.0165,-0.40378,0.69845,2.6252,3.2002,-2.2941,7.4162,-4.3949,8.0733,-6.1796,
1.0903,4.0267,1.8083,-1.7045,-0.24982,2.7539,-0.066359,1.2629,0.83899,-2.8793,-1.4645,-0.99774,4.9378,-7.0137,
3.676,1.1336,4.8328,5.8691,-3.3683,-0.062628,4.0345,-4.8387,1.0296,1.3908,-4.0277,7.9797,1.99,-2.0136,
5.3836,-2.7908,1.1689,3.5893,-1.2376,-0.058641,2.8286,-7.4404,-1.4423,-0.62086,-0.41159,4.6089,0.90672,-3.339,
1.6861,-0.69518,1.5807,2.8915,3.175,6.2114,4.1051,0.71856,-0.39188,-3.9581,0.095042,-3.8628,5.6726,-3.6206,
0.13916,1.7571,2.9321,-0.65598,-0.87188,9.2132,3.8588,2.6039,0.59596,-7.0946,-1.3569,-5.5588,6.7785,-3.4034,
6.3971,4.5435,1.3101,2.2757,-0.3374,11.5527,2.1813,-1.409,0.55997,-6.6691,7.8833,-2.8154,7.8183,-4.1633,
5.7723,3.548,0.50816,3.344,9.0828,13.5108,5.6658,0.84495,1.2497,-1.6897,10.0619,-2.8874,8.0721,-3.1906,
0.60525,0.925,-0.0042591,-3.1232,9.0198,13.664,6.2897,2.7222,0.69236,4.6787,0.29911,2.1061,1.8032,-1.5529,
1.5333,1.3514,0.47793,-2.4539,-0.68041,13.3264,-1.3185,-0.33318,-1.7593,7.7719,-4.0572,7.2824,-3.6077,0.4685,
-0.48716,3.1983,0.44948,-0.37821,-5.4601,13.9728,-3.1674,-1.2775,-0.68966,3.9314,-3.814,0.57915,0.94733,3.3327,
-6.2425,6.3809,-1.9881,2.0546,-7.5431,13.6166,0.39668,3.6196,1.2799,-2.0891,-2.6208,-3.7944,7.6389,-0.24174,
-4.9036,5.0341,-2.8327,-0.47879,-13.8389,6.5331,-2.0372,3.8848,2.6494,-0.03553,3.321,3.1822,5.2524,-2.6374,
-4.6094,-3.945,-7.001,-9.1272,-20.7214,-0.12563,-10.1097,-4.5434,0.080291,-0.99727,2.1574,3.4732,-2.7755,-0.06899,
-5.0557,-1.0567,-6.8219,-6.8923,-17.7908,7.8359,-8.2978,-2.1012,-1.1298,-1.6603,0.34123,3.0238,-3.3319,6.4431,
-2.5832,5.0322,-3.7615,-5.2735,-16.0005,11.945,-2.7388,5.4965,-2.7493,-0.35588,0.079331,5.9759,-0.48087,2.4411,
5.5255,9.3096,1.5259,0.10415,-13.3532,10.5052,1.041,9.7462,-1.379,5.691,-2.0946,8.7504,3.6453,-2.7671,
3.9889,7.064,1.1931,-0.62477,-14.721,4.3315,-2.6367,4.5819,-0.57314,4.6264,-2.2097,4.1282,3.1859,-1.8779,
3.7498,4.7122,-0.80644,-3.4796,-11.9098,4.0716,-2.4782,5.7532,0.90728,0.010755,8.528,4.8446,5.4051,-0.80114,
5.2116,7.0805,-0.035153,1.3085,-8.0617,9.8528,0.32156,9.9873,-0.35245,-2.1595,7.7753,7.687,1.9473,-1.476,
-0.64451,4.9683,1.654,-1.4213,-13.1218,2.272,-1.3852,4.8088,-1.054,0.62138,-3.0553,4.5749,-7.0874,1.7458,
2.2865,7.0805,2.0369,-0.37197,-12.3343,-1.2385,0.62634,4.0383,0.93723,7.3332,-1.4259,3.3363,-8.1082,5.9796,
9.8623,16.7788,3.3612,3.025,-6.7737,12.9358,1.0709,5.7242,-2.4932,3.0366,-1.8225,3.6183,-10.032,3.6924,
7.5831,26.1362,3.4002,-0.77212,-16.7314,26.2596,-2.609,8.5138,-4.995,-1.2432,-6.2927,3.6419,-10.6352,0.33764,
4.7177,26.4964,-0.17801,0.72024,-29.8275,37.2173,-4.3804,18.6083,-3.7312,1.2418,-2.5409,-0.91514,-9.033,-1.611,
5.6402,27.0756,-0.89046,-1.9743,-31.5326,42.4559,-4.3588,19.6609,-5.6767,-0.51971,-1.1829,1.7911,-12.1066,-0.79125,
-1.4471,28.8255,-5.1758,-11.4968,-36.3895,54.0085,-13.7382,7.3941,-13.5308,-6.7555,-10.271,6.0219,-20.5393,-1.7076,
-1.8422,33.3625,-6.3111,-9.3607,-48.3062,53.5398,-16.7703,10.3249,-11.7551,1.3626,-12.5473,7.5888,-18.8245,-3.5334,
3.5707,33.2892,-6.4146,-7.835,-56.8565,46.9532,-9.0154,16.936,-4.783,8.5115,-11.7942,8.0976,-14.3208,-0.91102,
-3.3924,24.5429,-8.4398,-7.3649,-51.5169,44.136,-11.367,9.1711,-8.3524,-4.5323,-17.3535,6.6479,-18.2823,-1.3387,
-6.0812,17.7679,-5.0411,-3.0668,-47.4618,41.0057,-18.8795,9.103,-7.3691,-11.009,-13.42,7.2131,-15.7389,-2.2225,
-3.3059,14.7739,-3.7746,-1.4363,-45.5782,38.0632,-20.1571,12.4132,-4.5166,-3.1179,-7.7939,7.2625,-11.4203,0.80358,
-4.3124,14.1284,-5.2353,-3.5193,-42.1206,35.0565,-12.4402,10.4634,-5.4509,-2.6898,-9.9778,8.5139,-11.458,-0.44993,
-6.2231,15.9316,-2.7523,-6.9238,-38.3883,32.23,-6.1499,10.5585,-4.8827,-5.1797,-6.2459,7.28,-10.0478,-0.66413,
-3.9213,14.9759,-1.6226,-1.6874,-37.531,28.3682,-8.6732,9.9252,-4.5895,-1.4943,2.3238,4.4328,-8.9624,5.6425,
-3.6862,8.2925,-4.8999,1.3056,-36.2433,23.7734,-11.5275,7.4013,-1.9042,-0.44053,7.9692,3.6847,-4.0865,7.7143,
-4.9111,0.56438,1.1789,4.602,-35.5147,17.0445,-7.4612,5.5112,11.2257,-0.89626,13.2759,2.4995,3.3897,9.1798,
-5.5807,-2.8439,3.5183,7.6999,-35.7944,13.6117,-5.0853,-2.5325,17.3006,3.4958,11.9969,2.3495,1.2577,8.6286,
-7.6565,-4.6015,-6.3338,-1.9212,-32.6824,11.8307,-10.0828,-5.2728,9.0317,8.5887,2.1181,4.1368,-6.5305,0.88003,
-5.0277,1.2184,-7.1588,-3.4929,-26.6239,18.5929,-11.6472,6.3717,4.3922,14.0992,-3.0705,7.9861,-7.8257,-3.7523,
-5.4487,-0.059734,-3.596,-3.0421,-23.8214,23.985,-10.7072,8.1588,3.888,10.12,0.24702,3.4094,-6.1511,-3.286,
-4.881,-2.7079,-2.6571,-4.5471,-22.6333,22.3047,-5.0033,5.982,4.8598,2.5227,4.8117,-3.7848,-2.6488,1.0083,
