"AF3","AF4","F3","F4","F7","F8","FC5","FC6","O1","O2","P7","P8","T7","T8",
-1.687,-7.954,4.0976,30.128,334.7844,89.4205,-9.8822,-4.0976,-0.72313,-12.2923,0.72313,2.1694,-3.1333,6.0258,
-0.38071,-6.7536,3.1286,32.9003,328.7973,98.1553,-10.0121,-2.1643,-8.1515,-8.9034,0.43855,5.1725,-7.5248,19.7642,
1.0882,-1.5279,3.423,30.4441,323.1695,106.3659,-13.2678,-4.9267,-11.0367,-2.5844,-1.0338,1.4879,-16.7143,10.5039,
1.7462,6.0356,4.9049,26.4483,317.8793,107.9382,-8.8563,-0.051816,-8.6873,-4.1166,0.71546,-4.6269,-8.7218,-4.2263,
-2.2152,5.6737,-1.1742,23.4154,312.9065,103.8718,-7.3608,-1.4947,-10.5764,-8.6903,0.19037,0.47119,-2.8956,6.994,
-4.4928,3.4046,-3.032,23.4562,308.2321,111.7395,-5.9553,-8.6359,-8.4958,-7.2048,2.1071,5.7451,-4.6505,19.1074,
-0.84858,6.0931,0.52419,26.8693,303.8382,119.1351,-1.2594,-3.2973,-9.432,-6.7723,1.9809,-4.2403,-8.2279,6.874,
-0.07454,6.9326,-0.23039,20.1957,299.7079,126.087,-0.46075,3.4083,-11.9996,-12.3919,-1.7536,-10.976,-8.4571,-3.4206,
0.65283,9.6501,3.3988,18.743,295.8254,132.6218,1.2541,0.5527,0.04879,-9.961,-0.44306,-4.7734,-5.7805,9.559,
1.8187,11.7219,4.8819,18.3416,292.1759,137.4387,1.4196,-3.0961,2.6972,-7.6763,-2.5859,-6.6564,-10.0132,9.2267,
4.6021,11.983,5.5533,13.8666,288.7454,126.7823,-0.11136,2.8742,-4.2136,-6.7336,-1.4664,-12.5237,-5.556,-5.4269,
0.22841,3.7924,-0.32326,13.2758,285.5206,111.2218,-9.0227,1.9791,-2.2733,-7.5346,-0.17334,-10.5672,1.7675,-9.0782,
-4.847,-0.051023,-1.5092,12.2378,282.4894,105.7533,-13.5431,-4.1656,4.3706,-4.4314,2.0062,-2.4616,2.8662,5.5665,
-0.45857,10.3166,-0.69547,8.8527,279.64,108.8084,-9.1151,-0.30006,1.457,-0.55014,0.68078,-1.1084,-5.2597,10.4142,
6.7998,17.4104,-4.0282,8.3215,276.9616,104.69,-5.1937,5.9845,-3.9326,-4.8554,-5.1446,-3.452,-6.3899,-2.2617,
5.9096,7.6889,-2.8224,8.7864,274.4439,92.1418,-5.8462,3.6974,-5.625,-10.8309,-4.8357,-2.7632,-1.668,-3.0901,
0.25264,3.3709,0.23922,10.1871,272.0773,88.0594,-8.8696,1.5472,-8.662,-10.181,-2.6176,-1.1509,-8.3168,-5.315,
-1.4497,10.6405,-0.016096,8.853,269.8527,86.3912,-8.0965,2.6596,-4.0447,-4.0263,-2.2196,-1.3233,-8.5409,-2.3446,
2.4936,9.0382,-0.015131,6.8756,267.7615,71.5668,-4.7182,-0.39247,-0.42755,-3.7847,-3.5322,-1.2434,-3.6897,2.6168,
7.165,3.6754,0.94987,8.8734,265.7958,64.3805,-2.5071,-1.333,-6.6686,-8.8603,-5.2487,-0.68713,-0.57602,1.0133,
2.8782,1.0448,-1.0353,8.8229,263.9481,61.9639,-4.2849,0.67515,-10.1249,-9.7749,-3.9695,-1.1278,2.3506,1.9168,
-2.115,3.8739,-0.0090965,12.1497,262.2112,55.8357,-9.8126,2.0807,-9.9998,-9.6706,-2.2857,-4.4348,1.2455,-0.12661,
-0.54204,6.0518,3.8476,12.8672,260.5785,54.4135,-6.8135,3.4019,-10.3639,-11.5007,-0.7021,-7.543,-2.6859,-4.9395,
1.1779,-0.81899,-0.48037,5.5875,259.0438,50.4261,0.58496,-0.41744,-9.5009,-7.1953,-3.7932,-6.8492,-3.2479,1.3827,
4.7227,2.8456,-5.0308,8.3857,257.6012,51.0159,5.1296,1.7768,-0.49493,6.0109,0.049786,-0.89464,5.3832,12.1455,
1.3061,-0.45842,-6.4164,5.2312,256.2451,43.3754,2.1705,-0.016834,3.1504,3.9633,2.2157,-3.0104,4.337,0.57073,
0.50434,-3.5644,-0.48784,6.1222,254.9704,36.1932,3.2451,0.22514,6.0944,3.0021,0.87749,1.2676,2.8715,-3.0789,
-0.97218,-1.9043,-2.8687,2.8628,239.6724,31.1295,0.15835,1.6579,-0.055828,7.6427,-5.4417,6.0123,-5.0135,-5.3043,
2.2196,-1.0671,-0.52742,2.4496,211.1921,27.5741,-0.57451,1.7994,-3.186,9.3533,-4.3923,4.4462,-3.0255,-9.5658,
5.2197,-0.7619,0.70929,8.3284,184.4205,23.2688,-0.29885,-1.4418,-0.34348,5.6588,-1.9593,2.9744,4.1457,5.1081,
2.0145,2.1759,-3.6716,5.4186,165.4013,18.9801,1.6473,-1.3553,2.0873,5.8012,-1.3598,5.2061,0.52247,16.9737,
-0.034818,1.0812,-2.4872,2.6831,144.3903,16.8772,3.4769,1.6183,-3.8223,5.4529,-1.278,2.0014,-2.8831,2.9396,
0.69017,-6.9374,1.7594,6.1375,121.6268,13.2135,3.0268,-0.16604,-9.6188,1.5103,1.4497,-2.216,3.7974,-1.816,
-0.31534,-8.4491,-0.2746,6.7334,100.2292,10.0103,3.3274,-1.1202,-4.7031,-3.4003,4.2551,-3.0472,6.4623,4.0777,
0.18575,-2.1578,-4.1143,8.7397,89.3948,10.8557,5.5381,0.39307,-3.4568,-5.6069,2.0718,-2.8641,0.77166,-4.8443,
2.5847,-4.4385,-0.011035,9.1792,80.1747,9.7225,7.134,-1.5587,-5.1778,-0.44998,0.50122,-0.76452,0.24343,-3.1074,
3.394,-6.1004,3.3636,7.1822,61.2642,9.1391,4.7778,-0.98325,-2.4568,1.5052,2.3993,2.6558,5.0491,9.1302,
3.1903,-2.8423,0.26974,5.7874,44.2113,8.5908,4.0092,-0.92426,-0.38097,-0.99523,1.7734,2.9784,5.2285,6.6542,
3.4811,-4.1178,-0.71054,4.958,32.8822,8.0755,6.179,-1.8329,-1.3224,0.028584,1.6668,0.87172,2.5045,-2.9039,
1.8262,-3.3885,-2.5959,5.1427,18.376,5.6626,-4.3149,1.1698,-3.6532,1.9553,-0.8431,3.7117,1.3901,-6.1039,
-3.3453,-1.4982,-7.984,-2.6375,7.8732,2.1896,-14.4203,0.85844,-1.2646,-0.33142,-4.8901,7.5866,0.10162,2.2163,
-1.6983,1.0018,-2.2023,-1.9973,2.5801,3.504,-3.9139,-0.63933,1.7033,-2.7221,-3.6328,7.6133,-1.3507,5.9393,
-1.8376,1.6653,1.0631,3.184,-10.3489,0.6429,-0.063886,0.12216,-2.0141,-0.87133,-3.1737,6.4334,-2.4748,-7.6732,
-3.1734,-0.84546,1.4815,0.10068,-21.7793,-3.2523,-5.3625,3.0071,-0.92914,4.9653,-3.9473,10.3859,1.048,-7.2131,
-2.7418,-4.8919,1.6333,-2.5567,-30.8367,-5.7085,-3.8357,0.17537,-5.9348,2.0165,-9.7363,6.1476,-4.0764,7.3197,
-1.8542,-3.3933,0.33028,0.24804,-43.0865,-6.0886,-2.8824,-1.5221,-9.6763,-2.2021,-6.0184,2.6455,-3.5906,14.9554,
-1.7431,-2.2256,-5.4739,3.6074,-52.1911,-7.6517,-8.494,-0.94912,-7.1676,2.7505,-1.3192,3.9328,5.3017,3.4526,
0.53061,-4.7431,-8.7609,3.15,-38.2134,-5.9878,-2.9229,0.79506,-5.5324,5.2366,-3.4092,3.4554,1.3682,-0.85191,
2.186,-4.6995,-4.1379,-0.65444,-34.2334,-5.8695,5.2062,0.98832,-5.9236,0.34313,-2.4813,1.5613,-0.88306,0.88643,
1.5729,-3.9356,0.44872,1.7954,-46.2794,-15.1583,-0.89077,-3.4093,-5.568,-1.6057,-2.8148,1.4676,5.4364,1.3152,
3.407,-5.1455,1.3859,1.2055,-57.6026,-20.0332,-0.83709,0.65188,-1.8597,1.8649,-2.6457,3.7899,3.6642,0.27217,
2.7204,-4.3551,0.33865,-4.6516,-57.7619,-20.7596,3.0693,3.987,0.18032,1.7532,-0.076583,4.5266,0.070143,-5.5285,
-0.094168,-2.4063,-1.3687,-8.4696,-64.1783,-21.201,-0.24812,-1.3137,-1.518,-1.0033,-1.7594,1.6037,4.1631,-1.5816,
1.1165,-5.8776,1.3648,-14.4696,-69.7274,-23.0627,0.48989,-6.2968,-4.0782,-1.1843,-4.3052,0.78389,4.6364,9.8413,
-1.1196,-10.5866,1.0419,-15.7706,-78.8001,-25.2943,2.1477,-8.5701,-10.3412,-2.8004,-4.7698,2.9065,4.5992,2.7433,
-1.0524,-6.577,-0.46686,-7.5935,-82.2673,-21.8485,9.2497,-3.7175,-8.2747,-4.0787,-0.62722,3.214,9.6259,-8.5085,
2.8671,-1.3616,1.4893,-4.2454,-76.8493,-16.6812,10.6229,-0.60196,-1.9936,-3.3516,0.37428,1.5749,1.8175,-7.0341,
0.52546,-1.5209,1.641,-8.0885,-81.156,-21.2239,-1.3431,-3.2174,-4.5251,-1.4637,-4.2275,4.1315,-2.3889,-2.9967,
-2.1569,-7.9374,2.748,-6.8796,-90.3866,-25.9758,-1.9852,-1.8188,-5.4587,-0.65229,-0.84055,0.2689,9.0828,-6.4321,
1.106,-10.5941,6.6805,1.005,-92.0733,-20.8018,6.0877,2.3877,-2.9618,-5.1927,4.2716,-3.3627,14.0815,-7.251,
-2.3351,-15.7433,1.4587,-4.8401,-96.1906,-23.4103,1.3838,-6.9149,-7.6048,-11.1481,-1.2876,-1.2329,7.4518,-3.4417,
-1.954,-16.9681,0.16636,-8.1651,-100.783,-27.5493,0.095981,-10.1149,-8.8357,-7.3457,-2.8971,1.9745,3.3893,1.3441,
3.7069,-8.9599,5.7,-0.20342,-94.977,-18.906,5.1519,2.3021,-4.6899,-1.8433,0.41019,-0.79549,-1.8753,-3.7978,
5.1714,-9.1459,7.5269,-0.43241,-96.7504,-11.2644,6.5298,6.2611,-0.79334,-3.9021,3.0364,-1.9528,0.88807,-5.2574,
5.1026,-11.7302,0.56783,-4.0219,-105.0454,-18.0604,1.0763,-1.5864,-3.3971,-9.6937,-2.2074,-1.5947,7.8247,5.4224,
3.109,-2.1085,-3.0819,-4.5032,-109.7089,-17.2175,-2.1215,0.19625,-8.2547,-4.5324,-7.6184,1.1523,6.632,5.8202,
-3.826,-3.9102,-0.0044564,-7.6075,-115.6599,-9.436,-0.54797,3.0765,-10.1698,-0.40403,-6.6793,3.9757,0.44954,-1.7599,
0.98283,-7.291,0.23678,-2.0898,-114.7459,-10.5571,3.0999,1.6871,-3.0519,0.82504,0.71131,4.4601,-3.6748,4.8532,
2.1292,-3.7201,-0.98226,1.651,-114.369,-16.4311,4.1192,1.8269,5.5671,5.8372,5.7303,-0.86923,0.64306,1.429,
-6.9167,-5.6663,3.174,2.7572,-121.6069,-21.9532,4.5954,0.99434,4.51,10.0667,6.5913,-0.57611,10.4864,-10.9493,
-7.7065,-9.9056,2.7426,4.279,-123.3488,-27.1435,2.6324,-1.7164,1.5883,5.8473,5.4729,5.4845,14.9189,-4.7487,
-2.1829,-4.7317,-0.55543,0.40684,-108.958,-23.3457,0.30533,-0.89053,0.76987,6.2194,3.9397,7.3246,9.4445,8.3107,
-2.0519,-1.0738,-2.9327,-0.0995,-102.4205,-15.1965,4.1429,1.573,-4.579,5.8462,-2.5636,0.61811,3.5752,6.8477,
-2.4107,-1.0089,-1.31,-0.09353,-99.1674,-11.3917,6.7873,1.4786,-6.7144,-0.77108,-1.9274,-1.8291,8.1814,-0.3116,
0.14404,3.3899,3.1069,-0.087919,-95.6279,-9.2624,2.0413,1.8719,-3.9014,2.1672,1.0803,-2.2013,4.798,-11.3801,
1.3405,6.3198,3.1612,1.1224,-97.3618,-8.4655,0.71377,2.4827,-1.9801,8.063,-0.18959,-2.7923,-2.9619,-6.1178,
-0.42719,5.2172,-1.1258,-1.5965,-100.9206,-10.1272,1.8758,-1.2817,-3.0663,3.4819,-1.3835,-1.4195,-0.13268,8.3493,
-3.5346,7.5558,-5.638,-4.6337,-102.8191,-15.0632,-4.2623,-3.8564,-9.3903,-2.2707,-4.434,-0.12951,-0.84808,7.7276,
-0.67142,11.1998,-2.1662,-4.5967,-98.8191,-12.9541,-1.355,0.47284,-4.7293,1.481,-1.9983,0.11969,0.4081,-6.8361,
3.2255,5.7073,-0.10783,-3.8392,-99.6386,-9.7665,2.5824,1.8905,-0.1072,2.8382,-0.91479,-4.7084,2.3116,-6.5464,
1.8271,0.78557,-1.7886,3.3815,-107.7603,-9.9034,0.25833,3.4643,-3.2338,1.945,-1.1004,-4.1845,2.8962,-2.0558,
-0.93452,0.49701,-0.47644,6.3117,-113.7074,-12.4427,2.412,1.5692,-4.2451,2.5512,0.65238,5.4661,3.4454,-4.584,
-2.3245,3.8419,-3.3397,2.5587,-110.2592,-12.6602,-1.5889,-4.3093,-5.4364,-1.9404,-3.2429,6.5846,1.3107,-1.8986,
-1.7028,3.1292,-2.6576,-2.4157,-110.3928,-9.0083,-4.8682,-1.6408,-4.6285,2.0321,-6.905,2.3329,-1.1783,6.8917,
-2.3236,-6.9409,1.1173,-3.958,-114.1331,-13.5295,1.9318,1.5911,-4.5918,7.9362,-5.2854,3.3983,-3.2768,4.7915,
-4.3536,-7.7296,-0.15482,-1.5511,-106.562,-19.2254,6.3954,0.77251,-5.5213,4.8087,-5.2094,4.8814,-1.8751,-1.0399,
-3.1282,-3.8911,0.33663,-0.49398,-98.7222,-17.5897,7.4577,-1.6842,2.5227,2.1098,-0.076392,4.5887,1.6116,-4.3517,
-1.2533,-4.381,0.5574,0.25856,-103.1632,-12.437,4.8406,-1.3422,7.915,-1.6322,6.4357,2.1438,2.7198,-7.706,
-2.1424,-5.5644,-3.8144,-3.1309,-101.7937,-6.3881,2.6225,-0.77926,5.5119,-1.0523,7.0139,-0.39499,-2.2637,-0.012819,
-2.9775,-1.3739,-3.1033,-3.9072,-93.7576,-8.8971,5.3574,-0.25034,5.6633,7.6882,5.6289,2.0391,-4.0558,12.5212,
-4.9683,4.7343,-5.0865,-1.9858,-97.5324,-17.7631,2.8666,-0.47652,5.5647,7.4681,2.6403,-1.6985,-4.0537,2.8521,
1.1144,8.7886,-1.8893,-5.2411,-105.7805,-12.8414,0.76638,3.8904,5.7128,5.0913,5.8559,-3.5248,-2.3642,-8.8882,
3.2167,5.1278,-1.0526,-5.6495,-113.5336,-8.4555,-0.48489,1.9697,6.0929,5.9911,3.8173,-3.5547,-5.8378,-4.2575,
-1.5558,5.0613,-3.1588,-2.6592,-111.7831,-12.5277,1.2317,-3.2099,8.8606,6.3548,0.93696,2.2024,-6.2106,-2.3151,
-1.9446,6.2036,-0.076977,-6.3563,-113.7534,-15.1502,3.0857,-4.4633,10.7393,4.0451,5.2193,3.9982,-2.9457,-4.1042,
1.5465,2.9394,2.8202,-4.5286,-121.0282,-14.2412,2.4186,-2.2673,6.2386,2.3566,4.9061,-2.9901,-5.661,-5.3042,
-0.71545,3.004,1.9276,-2.5697,-118.707,-13.1458,3.4788,0.037866,7.0696,1.4918,3.4069,-2.0878,-1.7059,-12.4577,
-4.2877,2.5825,-2.2852,-4.5849,-117.6104,-15.4903,2.065,-1.6514,11.7068,0.67919,5.3714,0.6888,4.9037,-4.7206,
-3.5485,-4.3209,-5.0406,-3.8274,-124.6538,-20.8274,-0.9514,-5.4087,11.4868,1.6028,6.4954,0.64747,3.6456,9.6626,
-7.6744,-9.3643,-4.2562,-3.5982,-127.1772,-26.3266,-4.2688,-6.5309,12.7253,3.9167,10.444,-1.3196,-0.42954,7.034,
-11.5522,-12.1769,-3.5189,-0.48981,-120.9928,-26.1933,-8.8329,-5.6567,13.4081,7.0562,14.1557,1.1697,-0.40376,-3.9929,
-8.9307,-15.3024,-4.2719,-2.8708,-120.4819,-25.5858,-12.1595,-7.2457,8.265,5.6687,6.5577,4.4742,-2.7899,2.5134,
-2.3693,-5.4666,2.4924,-0.52892,-109.1557,-22.8454,-5.8864,-2.7131,8.9744,3.6414,2.0669,7.8212,-3.3454,4.5318,
-9.6987,-3.4512,-0.79043,-7.4868,-104.2933,-23.1616,-9.6303,-3.2735,9.1591,6.0742,2.666,6.1469,-1.9396,-0.80159,
-17.5529,-12.1622,-13.5175,-18.3663,-112.1357,-25.3874,-19.8987,-7.6563,4.5122,5.4688,3.7113,0.23444,-1.5823,-2.4407,
-2.3998,1.8239,-6.6809,-5.4537,-107.215,-19.7668,-12.1973,-0.20755,5.9287,6.8279,8.5499,6.7279,0.68183,-4.4634,
3.4083,6.294,-2.1824,-3.9214,-88.4899,-20.2678,-9.778,-2.364,6.778,9.5515,2.4935,10.4218,-4.9025,-5.8826,
0.070572,5.6752,-2.2927,-4.4093,-85.8318,-16.8828,-9.9145,-3.9096,8.0583,13.076,0.65688,7.6271,-6.7777,2.9058,
4.8868,16.9041,-7.4575,-5.1088,-80.2002,-10.085,-6.9097,0.18109,-0.13815,3.1321,-1.311,3.7952,-11.6735,-4.9811,
15.6808,29.9898,-4.1176,-6.2485,-68.6393,-1.2852,-2.6383,6.4372,-3.5039,-3.3223,-4.6068,7.4239,-12.4193,-4.2003,
12.8118,32.4085,-2.9066,-8.2838,-73.1975,-5.0645,-11.1571,0.74832,-9.5601,-8.4256,-13.4889,-2.1806,-13.6023,2.3187,
21.4431,44.564,2.8114,-1.7612,-55.0674,-3.5553,-2.5339,4.8008,-7.7817,-8.161,-6.1721,-6.1471,-6.2783,0.0099332,
34.2565,55.9901,2.6427,-4.0656,-37.6633,-3.8239,3.8851,8.3696,-6.8329,-10.0815,-6.7656,-3.3681,-9.276,-4.8109,
33.5264,57.4512,-4.7469,-12.981,-49.5035,-15.1639,-10.448,6.9028,-8.3509,-6.1024,-17.4472,-4.1301,-15.4686,-3.0762,
32.4792,54.4861,-0.12335,-10.7558,-60.6333,-21.0029,-11.6293,12.7552,-5.4397,1.4946,-10.6158,-6.7749,-9.7198,-0.48153,
33.4227,56.0374,2.7763,-2.8799,-60.2495,-22.1531,-4.1824,13.4364,-8.9699,-7.272,-8.0504,-10.7065,-13.9571,0.029524,
28.7658,50.0241,-1.4876,-2.9481,-66.0345,-27.3314,-8.0293,9.0148,-10.6009,-14.3079,-16.0035,-11.2694,-20.1095,4.1251,
25.5943,42.2021,1.494,-5.1811,-76.1725,-35.3323,-9.9574,10.8842,-6.5901,-7.1822,-13.1149,-7.2185,-11.6719,0.98531,
23.3353,38.4647,3.0915,-0.29092,-85.7021,-39.7203,-7.1908,13.8466,-4.5075,-2.6539,-7.2663,-1.7242,-2.5359,-3.1712,
14.4633,26.7568,-1.1913,0.93183,-93.3342,-51.0754,-3.1439,12.2924,-5.9243,-4.1819,-6.5893,-1.3798,-3.1066,-3.2219,
10.4621,16.7157,3.4595,3.0451,-88.939,-62.1108,4.9984,15.1703,-5.3279,-3.69,-1.6147,-1.5379,0.21325,-7.1259,
6.4599,4.6256,3.7338,-1.4764,-97.7027,-72.4842,5.6624,9.9218,-4.5263,-6.3612,-3.446,-1.9276,-0.76387,-7.1807,
5.3496,-5.0522,1.8228,-2.1105,-105.9405,-76.0891,2.1898,1.8549,-4.4954,-4.774,-6.8544,-0.12495,-9.6359,7.3501,
4.0645,-4.2669,2.1956,1.3904,-94.7638,-71.524,3.0221,5.5998,-6.636,-5.934,-5.4791,-0.59962,-11.95,11.8505,
1.8922,-2.5649,8.3306,2.753,-89.0778,-71.5706,11.0357,12.4948,-2.8637,-6.5421,0.63402,-2.4916,2.867,-2.9605,
3.9479,-6.0264,9.9995,6.2032,-91.6873,-68.9636,9.6507,10.0575,-1.0046,-0.60594,-0.60932,-2.1011,9.082,-12.0629,
1.783,-13.3773,3.1332,1.9749,-85.2215,-64.3437,7.6256,3.6697,-5.2829,0.39451,-3.947,-2.4572,0.8245,0.23031,
-0.49334,-14.2622,3.6684,-3.2055,-79.3855,-58.796,13.6758,4.1726,-4.7247,-4.2087,-1.5408,-3.0329,2.462,-2.4348,
0.74155,-10.7549,5.6174,0.12028,-79.6836,-52.6172,14.5424,6.0914,-5.6465,-7.5711,-4.5818,-7.9122,3.0372,-11.2064,
-0.7492,-12.5202,5.2804,-0.36887,-81.1696,-49.4602,12.2236,2.8334,-6.754,-6.6349,-1.8968,-11.2938,-1.4833,-2.8212,
-3.8377,-13.4557,3.7583,0.8581,-85.217,-46.7335,12.6951,1.9405,0.15918,-2.6214,3.7606,-2.6625,1.7391,11.4481,
-6.9817,-14.0949,0.64047,-0.63942,-92.1553,-47.7857,9.523,3.2701,4.9701,0.42818,-0.80309,0.38957,5.4909,6.061,
-5.8397,-13.4899,6.1459,-4.6982,-89.7593,-47.0879,8.2289,6.6896,5.877,0.64322,1.8964,0.125,7.3309,-1.7743,
-7.6587,-15.8138,2.6439,-6.5857,-88.9532,-46.432,5.5658,1.2267,1.9092,-2.5286,3.4696,0.3587,4.2397,-1.909,
-5.5119,-9.3218,-2.095,-5.95,-84.8218,-41.4769,5.4728,0.42977,3.4814,4.6125,5.4302,4.4345,6.1545,1.3386,
-3.7352,-2.9777,-0.52278,-4.1465,-81.6604,-39.47,6.1086,7.1527,1.8265,7.7104,4.1407,4.6506,6.7493,-1.1517,
-4.4752,-7.1376,-1.4555,-1.4874,-82.0632,-42.8866,7.1881,8.1695,-0.69348,0.016741,0.99998,0.51497,7.3085,-2.0467,
-3.7245,-12.0117,-3.7785,0.52982,-81.9601,-44.1701,8.6852,5.269,5.1329,-4.3224,0.93975,-0.96196,5.9058,6.2711,
0.83753,-5.5062,2.233,5.8009,-79.4524,-34.2888,9.1282,10.7381,4.8252,2.6857,3.2942,-1.8683,3.1416,12.6435,
-4.9973,-9.5146,2.5809,-0.81412,-82.8805,-34.642,3.2779,6.237,-8.9621,0.59633,-2.2066,-8.0232,4.3989,-1.1305,
-3.2512,-8.9437,4.3543,-1.7291,-68.2664,-35.9375,5.4913,2.9707,-4.0861,-0.40378,-2.0742,-3.685,9.4376,-9.2574,
3.6923,-0.21196,5.0573,2.7129,-55.4936,-31.8531,9.5006,7.6127,5.8005,1.5491,0.94279,-2.9819,3.5687,-0.50726,
2.9891,2.2107,3.7898,-0.82407,-66.264,-28.9778,6.5202,11.4945,3.0421,-1.4361,0.88645,-10.5156,0.94423,2.4155,
-0.80569,3.2833,1.3933,-2.9438,-70.6033,-28.9263,0.5854,5.7436,-0.27343,-1.109,-2.3002,-3.8591,9.3237,-1.3449,
-1.9626,1.881,-3.2701,-8.3108,-57.9314,-29.3599,-0.65502,-0.14507,0.94781,4.0188,-4.3318,3.8438,5.1489,9.5821,
0.083307,-2.0882,-2.5919,-8.2941,-55.9016,-27.1164,4.205,3.72,1.8548,4.2596,0.74879,3.6136,0.50116,15.7561,
-4.5012,-7.5063,-3.6415,-6.5914,-66.6475,-27.1764,0.81944,0.8455,0.056521,-1.5394,1.9089,1.7094,4.5687,0.71069,
-2.062,-9.707,2.603,-2.5805,-63.9742,-24.341,1.9756,-1.3739,2.2223,1.6865,-0.37477,-0.56236,4.0536,-5.9604,
1.436,-10.0892,7.7492,4.805,-53.8692,-23.8446,7.1594,4.4929,1.6068,2.5494,-2.2802,-4.8672,-1.9744,3.5561,
-2.9883,-9.9655,1.9819,4.5169,-64.1344,-22.8957,6.2477,8.0799,2.9569,-3.3884,-0.21547,-1.2005,4.4108,-4.3699,
-3.5321,-9.6088,-2.2346,1.5941,-67.2762,-12.1221,1.7753,6.3896,5.9127,-3.4263,1.9669,2.4868,13.5464,-4.3489,
-5.4896,-10.2373,-1.3774,3.1859,-50.4652,-3.4408,0.94563,4.8011,-1.9141,-2.9795,-2.2487,-2.242,8.1541,5.3123,
-8.2932,-10.8284,-1.0538,3.7181,-42.8578,-2.5115,4.5048,3.7902,-5.4142,-2.0774,-1.3905,-0.90215,2.6031,4.7526,
-5.6267,-11.3837,-1.7137,3.2538,-54.3863,-3.5659,0.13644,1.8753,1.4179,1.1805,4.7183,0.83898,5.5802,2.2981,
-2.397,-13.5932,2.7274,4.5044,-60.8848,-5.2801,-3.7281,1.7628,13.3844,4.4837,15.5224,-2.1039,11.03,8.4267,
-10.4479,-22.9005,-0.32827,3.2703,-62.0522,-14.1223,-5.4326,-6.5377,15.9553,1.8045,18.9294,-2.9415,9.8862,6.4748,
-8.8567,-18.634,-1.2724,6.4485,-62.1852,-14.2389,-0.28597,-3.2529,13.0703,4.1068,12.9734,2.5376,9.7755,-4.0366,
-2.541,-8.3571,1.2138,4.1332,-60.8645,-7.1182,5.0336,4.6548,9.8757,4.8245,6.4102,-0.98886,7.7424,-12.9532,
-2.8707,-7.3736,0.65881,4.8493,-59.623,-2.3526,6.1776,1.9652,8.3191,3.0886,6.9896,-0.92976,5.3495,-5.9097,
-6.3136,-11.0287,-5.406,-0.021183,-56.2865,-3.4165,0.74597,-6.1063,0.83026,1.2163,3.437,7.08,-0.99682,8.5449,
-5.2117,-3.8593,0.46171,-6.5276,-50.7402,-2.9703,-0.98624,-4.0529,-5.2453,2.8303,-1.8307,7.8603,-5.5165,6.4657,
-2.4886,3.6029,3.3263,-4.6895,-46.2495,-3.2743,0.51896,-0.91742,-3.9665,4.5889,-4.6131,3.0501,-6.1496,-5.0093,
-4.2677,-4.8082,-3.14,-5.8546,-45.8849,-5.0062,-2.8864,-3.7547,-0.3543,6.2415,-0.9621,3.3493,-1.4421,2.04,
-6.1806,-6.6887,-3.6748,-4.2978,-42.8906,0.83798,-4.8826,-0.87806,-0.091844,7.5545,0.78308,3.3895,0.33142,4.5689,
-4.8459,-1.949,-4.9001,-2.1122,-40.3174,5.126,-3.1434,0.62088,-2.4969,3.7268,-1.1921,0.77554,-4.5087,1.4022,
0.74751,-4.7241,-3.6422,-5.8419,-43.201,3.3722,-3.9191,-2.3089,2.9555,4.467,2.2534,6.5136,1.064,8.5489,
0.46146,-7.092,-5.1107,-7.1783,-49.5268,-0.44532,-11.6375,-5.3036,4.4657,5.8865,2.8413,6.8459,6.0621,7.7948,
-1.2535,-7.3899,-3.1173,-3.1322,-52.0988,-0.65957,-6.3599,-1.8519,1.0642,4.8099,3.8762,-1.0367,2.5649,0.81964,
5.8116,-5.7412,4.542,-3.1853,-43.9112,1.0672,2.4578,2.3566,1.7237,4.7627,1.4744,-1.2154,-3.6146,-4.7731,
6.6685,-1.7811,2.1001,-9.5018,-32.3585,2.6902,-4.1974,-4.2925,3.3073,5.682,-4.1574,4.4013,-1.7107,-6.6557,
1.9293,3.1458,-6.7027,-15.1985,-35.2377,1.5647,-9.7304,-8.3735,-0.2658,5.8228,-5.8364,0.28065,3.6943,-0.472,
2.5369,9.947,-2.6852,-12.1174,-37.2208,4.6043,-6.013,-3.7738,-2.419,6.6787,-4.2809,-4.3155,4.678,5.5819,
-0.74854,7.6631,0.12681,-12.5954,-39.5673,4.0868,-7.3397,-4.7524,-1.0688,7.0011,-5.7115,-2.3696,0.29972,-2.2251,
-2.873,3.1058,-3.0136,-9.1884,-44.1826,0.22644,-7.1401,-5.6723,2.611,2.9659,-1.7532,-1.0223,1.0049,-1.8504,
-2.2187,4.8476,-1.8689,-4.7807,-41.0497,2.141,-2.3733,-0.99367,5.3464,1.8236,2.2079,-0.96098,7.6935,5.9734,
-2.0856,6.9673,1.1357,-8.8322,-36.6586,5.387,-2.2309,3.8867,6.4718,2.1961,0.62966,-0.42139,1.4473,-8.485,
4.3065,10.8876,3.4777,-2.5177,-36.8694,8.4378,-0.1689,5.5817,8.4941,0.13617,2.0381,1.0502,-5.8704,-16.5323,
2.8431,6.1368,2.5459,-1.6435,-39.7187,5.7626,-0.88189,-4.1535,3.8869,-1.559,1.1927,-1.6642,-2.8668,-1.4403,
-6.4868,2.3944,-1.9454,-7.3297,-36.8534,1.5602,-2.275,-11.6168,1.2433,4.8013,1.1209,-1.0822,4.0538,10.8183,
-8.5077,6.1071,-10.5057,-8.8181,-39.9451,0.98469,-7.9231,-8.5097,7.4352,8.8515,7.8021,-0.053366,2.3644,-2.8466,
-9.9254,-0.043925,-9.393,-10.6991,-51.6484,-1.4845,-18.0525,-7.9991,13.738,5.9103,11.1908,-1.014,-0.18763,-3.1578,
-15.5966,-6.308,-8.3473,-7.6468,-60.962,-4.7697,-21.7899,-8.4832,10.9858,5.0735,6.6628,4.8316,1.2697,4.7447,
-14.6606,-0.14474,-11.703,-6.2239,-55.3761,-3.0375,-19.0364,-5.082,8.3982,9.1077,4.817,10.3261,-1.6988,-2.7711,
-10.1658,4.9254,-6.9033,-8.5018,-44.0998,1.2419,-16.6892,-3.09,14.402,14.1046,8.1431,10.4296,-1.3557,-3.8099,
-13.6532,-1.8781,-10.1045,-10.6432,-49.8897,-5.3401,-21.2315,-2.6632,11.8507,11.0892,4.0391,6.1884,-3.4435,-0.44777,
-15.2441,-1.283,-11.4264,-9.0403,-60.9963,-5.9835,-19.9576,1.8349,10.1758,11.8701,5.2431,6.7815,-2.755,-1.8672,
-12.8835,0.72195,-3.5102,-6.5699,-56.252,-2.7327,-19.2423,-1.6494,8.1187,15.4959,4.4463,5.8924,-1.6256,-2.7192,
-8.0129,-1.9727,1.7618,-4.4883,-54.0819,-7.1478,-17.3646,-7.5762,8.3547,15.2898,3.4569,8.6721,-0.32297,9.2543,
-6.3273,-4.0235,-2.4412,-5.9062,-64.937,-13.2269,-17.5276,-6.8807,8.0944,12.2032,3.4904,9.839,-0.54456,14.7246,
-1.8503,1.7615,-2.5357,-6.2752,-48.869,-5.4434,-17.6812,-1.4062,5.4396,11.7115,1.5938,5.6333,-3.6454,0.10277,
4.5277,7.4404,1.4728,-6.8626,-31.8368,-1.2604,-10.8358,0.12446,6.5595,10.045,1.4981,2.4027,-2.9447,-4.7241,
0.88161,1.2094,-3.9182,-3.0764,-33.9035,-13.7183,-9.7037,-6.15,4.2377,2.2114,1.4082,-1.1154,-3.25,7.129,
-5.679,-3.4427,-7.2983,-1.2048,-45.9693,-14.5822,-11.2904,-6.986,5.1885,4.2482,4.9389,1.1209,-0.88558,18.0292,
-2.6872,-6.8515,-2.7631,-7.158,-42.1265,-10.0923,-9.8901,-4.8797,5.1182,8.5725,4.4016,4.1867,0.37239,9.4756,
3.0179,-5.2354,1.0179,-5.0416,-38.3939,-11.1737,-8.5735,-4.3457,2.6417,4.9249,0.039958,5.6225,0.59124,-4.3495,
-6.8044,-3.9572,-1.4531,-4.7388,-40.9107,-13.3956,-9.0232,-5.5314,3.9297,4.1473,6.7867,5.2854,2.4842,-4.0883,
-10.9756,-4.9248,-2.089,-3.7314,-39.6612,-10.9044,-4.8666,-4.9583,9.7197,11.8524,16.2612,11.9579,3.5402,7.9673,
-0.19395,-7.0397,-1.482,-0.13327,-41.1381,-6.394,-1.6823,-3.6967,10.5821,15.4794,11.9113,15.0966,4.2914,11.3454,
0.78178,-8.0633,-1.8747,-1.5713,-43.9722,-5.0462,-4.4737,-4.439,8.0192,10.2125,9.7506,11.7809,5.4804,5.3623,
-7.2189,-5.4103,-1.0394,-2.1999,-47.3594,-7.8765,-7.8207,-2.4855,7.2971,7.4306,10.3709,11.7969,4.9106,11.5485,
-6.786,-6.0498,0.95097,-4.9607,-39.6976,-10.2967,-7.8336,-1.3722,4.9308,5.0563,3.4814,11.5713,0.75938,14.7118,
1.3342,-4.7227,3.7862,-3.217,-25.7464,-5.3403,-5.4352,-1.7721,0.77881,2.3426,0.38022,8.4666,-4.5886,2.2597,
0.53102,1.5859,2.8359,-1.8189,-22.9968,-2.3686,-5.3503,-2.8708,0.97282,0.99698,1.5625,0.0046646,-6.4827,-3.4198,
-2.3931,1.491,2.184,-3.1558,-21.6167,-1.7443,-5.029,-3.1807,5.253,4.7938,1.9509,0.48655,-0.79083,4.9808,
-2.9727,-4.6238,0.84793,2.0954,-15.7402,-1.3984,-6.8967,-7.5694,2.2865,5.2293,-2.7457,4.5549,-0.020253,3.4769,
-3.0353,-3.6234,0.55609,3.1745,-14.0727,-0.59163,-7.2058,-4.9461,1.4264,5.1565,-0.89371,4.5226,-1.2243,0.1348,
-5.5047,-3.1651,1.7276,-5.934,-17.8078,-3.2077,-7.4968,-1.0339,3.028,4.1237,1.3291,2.0821,-1.3918,5.6703,
-4.4508,-3.6983,0.90123,-6.3006,-18.4264,-2.774,-7.2877,-0.73066,2.6056,3.6356,1.9729,2.1984,-0.5852,9.4277,
-0.32764,-2.0304,-1.0813,-1.5845,-21.1774,2.6948,-4.4405,0.27727,-0.44346,4.8635,-0.073884,2.5482,-1.5142,2.1129,
3.3077,5.0816,1.153,-0.2839,-23.04,4.7025,-0.55847,3.3944,-2.1038,5.2948,-2.7208,5.529,-1.6645,-2.5929,
1.1806,-0.044043,1.5658,-5.5695,-23.5858,-3.2924,-0.52496,1.262,-0.53136,4.0132,-2.0756,6.6431,-1.0827,-0.50917,
-0.33631,-6.7901,3.4002,0.067073,-22.1706,-1.1664,1.435,-0.25971,6.7311,10.5211,3.8338,10.1011,1.875,12.0546,
-2.0031,-5.1776,1.0268,5.1245,-23.9739,4.4469,-0.82052,-0.48533,7.5323,12.0588,4.8088,15.5203,-2.3351,16.3928,
0.76838,-4.1438,3.6165,2.1657,-26.1506,0.56448,-0.53056,-0.21501,7.8035,9.6483,3.7971,18.2048,-3.4001,4.5632,
-0.000848,-5.5822,3.1584,5.1695,-24.8226,-1.6383,-5.0782,-0.44331,7.0941,10.2744,4.7744,12.533,-3.9192,-2.7007,
-10.8473,-11.273,-4.0208,7.0282,-30.3231,2.0752,-13.6914,-0.17551,4.4995,9.4168,6.6573,8.1653,-1.997,9.2717,
-13.0885,-14.453,-1.8513,3.2326,-35.2524,-1.9057,-9.4954,-2.0932,7.604,3.5496,2.8834,5.7477,0.050986,8.7154,
-2.662,-6.3548,3.0802,2.5564,-21.0859,-3.2374,0.23354,-2.9317,9.0757,9.1214,-0.18189,2.5105,1.012,-5.9075,
-1.7794,-5.733,5.0646,0.71582,-18.1338,2.5004,-4.3602,-2.0329,7.8083,18.4556,5.8546,4.0467,6.9768,-1.3352,
-9.3854,-15.03,1.3862,1.6367,-31.1457,-0.060171,-13.7396,-2.8748,10.7138,11.0818,7.9134,6.214,6.0763,10.314,
-5.6892,-15.3335,2.5084,2.7438,-26.5052,-3.1896,-6.8896,-3.9076,19.471,6.3195,8.162,7.0464,1.6144,-0.18673,
-1.9737,-11.0388,7.1783,-1.7593,-10.8149,-2.9984,0.75434,-5.6015,19.2668,7.8683,9.6002,1.3212,1.9992,-6.4423,
-3.3013,-8.4485,3.3734,0.75657,-16.0711,-0.40818,0.22692,-1.4088,9.4339,4.022,6.6143,-2.1323,8.6284,2.1392,
-4.0673,-7.9414,-4.542,-0.25292,-24.2658,-1.8297,0.21353,-0.36021,1.1553,-2.968,-1.0136,-2.9689,3.2898,0.082889,
2.2025,-1.4396,1.7558,4.8237,-16.7843,-1.4792,3.8159,0.38453,1.3268,-0.13862,0.25226,-2.0676,-2.933,-0.64521,
0.38337,-0.14766,5.2661,4.2935,-17.9462,-3.0774,2.8643,-0.84361,0.042092,-5.6737,0.96026,-1.22,-6.8541,-0.36531,
-0.84492,0.10217,2.2991,1.8663,-19.5207,0.24069,6.3078,1.8581,0.76293,-7.9848,3.5542,1.5043,-6.6843,-6.3694,
-0.794,-1.8319,-1.2131,6.0929,-15.4572,0.22602,6.4111,-1.1457,1.6812,-5.5773,1.8945,-1.4782,-0.49841,-7.4333,
-3.3979,-2.4454,1.5108,4.0401,-12.8428,-0.51044,4.3392,-4.2104,1.8209,-5.0017,-2.3166,-1.1486,2.1826,4.8229,
-5.6042,3.004,3.8303,3.7977,-9.1799,5.3048,7.9352,0.38099,3.6398,-4.2197,0.71449,5.1869,-1.8048,4.5335,
-8.8836,-1.7562,-0.49713,6.2211,-10.3164,3.299,5.7721,-2.2932,4.1446,-6.6178,6.6974,-2.114,0.95485,-9.8385,
-6.4221,-8.3991,-0.46707,4.4018,-11.6253,-0.27268,3.9798,-5.5298,2.4503,-5.2566,7.742,-6.8076,6.2004,-6.9583,
-4.1088,-8.3773,2.4532,5.5838,-6.5895,3.1174,4.7051,-1.3419,2.3031,-1.567,3.4209,2.2777,0.043602,7.4387,
-10.6108,-16.0698,-2.9966,5.7307,-10.5327,0.038335,-1.3623,-3.1896,4.0931,-2.9193,3.6976,3.1049,1.9692,9.8844,
-10.697,-17.2748,-8.3604,2.7357,-15.9263,-4.0613,-7.788,-5.1673,3.6065,-4.9133,5.6449,0.26751,8.8404,-0.10864,
-3.0653,-11.1762,-6.1716,-0.56144,-7.9808,-0.20222,-4.1873,-1.2419,-1.1892,-2.9308,0.72691,0.49289,-0.12566,-6.1272,
-1.9175,-14.8444,-0.016691,3.3282,-5.0918,0.77378,1.8486,0.76082,0.80993,-1.3091,1.1652,0.46285,-2.0463,0.024541,
-8.3102,-18.5332,-1.7027,9.1543,-15.6324,-5.7804,-0.43174,-3.8643,3.4127,-0.98939,6.1572,1.1582,2.656,4.6026,
-4.9193,-12.6007,-0.1545,12.4616,-19.9971,-5.4333,5.8609,-4.1146,11.4028,5.3367,16.3929,6.8735,2.9788,-0.97599,
-3.901,-13.0498,4.4343,10.9908,-17.11,-7.7586,6.7143,-5.0728,9.0317,-3.9018,13.2399,0.43534,1.5945,-11.2815,
-8.7284,-13.9538,3.4451,5.7518,-18.7347,-8.9801,-2.6064,-5.4916,-5.6102,-14.9956,-0.81066,-3.6884,-0.67006,-4.5789,
-4.8302,-9.2602,3.2384,3.9605,-17.6107,-3.621,-3.4139,-4.1978,-8.7686,-11.6858,-6.0647,-2.0208,-0.62986,5.3368,
-2.6125,-10.151,3.5263,6.1332,-10.7694,-0.99343,-0.3172,-7.3206,-8.2427,-13.8769,-8.5931,-11.0584,-0.10991,-6.5528,
-2.9379,-9.0598,4.7607,7.6932,-3.3744,2.9228,3.0765,-3.0247,-9.6761,-14.0084,-5.6671,-8.4669,-1.5498,-5.6774,
-2.2797,-3.2136,5.9213,9.6417,-7.0285,7.0857,4.8201,2.4594,-8.6136,-8.3476,-3.8813,1.6821,-9.1696,8.7632,
0.26793,2.2821,5.0839,11.9559,-8.5348,4.7326,4.0487,1.3477,-3.7582,-0.61571,-5.0945,1.0995,-10.0654,7.635,
2.6618,3.5912,4.2967,9.3102,-1.2742,1.5559,4.7699,1.749,1.2878,6.1699,-1.4146,1.0333,-3.6767,-6.9231,
0.57385,-1.9269,2.1107,5.8595,-0.23368,1.4626,2.5555,3.5723,-0.7177,2.9076,-0.36537,3.3814,-5.3843,-2.0489,
-1.1476,-3.9807,2.2252,1.8923,-3.3529,1.616,1.6791,3.1168,-0.91583,2.0101,-0.58464,2.4554,-2.8923,12.174,
1.3316,0.59671,1.1276,0.33271,-7.972,1.0374,1.0966,-2.8546,-3.2708,8.6381,-2.4775,1.8264,1.6198,10.118,
5.831,7.5508,-2.0735,9.2308,-5.8067,7.0002,3.2,1.896,0.058497,11.2529,0.32222,9.6705,-0.16463,3.9673,
3.3118,4.9283,-0.26164,10.8459,2.4955,8.2676,5.1769,5.3974,3.6706,9.3726,4.8824,8.8491,-3.7699,10.237,
1.4261,-0.9112,2.8873,7.0619,5.9612,1.2639,4.6256,1.9403,1.281,7.6052,3.3844,-0.5997,-2.3387,5.0433,
5.4379,3.2413,1.9912,6.8791,6.3266,-0.98112,4.589,1.101,0.96318,0.15949,1.0122,1.1235,0.45273,-3.2131,
5.1116,7.8671,3.3175,11.2871,11.2494,0.52355,6.2418,-1.3757,4.7618,-5.1532,4.8078,6.8407,-0.5383,5.6564,
4.0815,4.2616,2.8775,15.1892,19.9745,-2.159,7.0722,-4.4262,6.1633,1.6639,5.7242,1.8505,-0.26504,3.6298,
5.7651,-1.2966,1.7407,8.4935,23.5967,-4.4398,7.13,-1.7502,3.8651,3.9745,2.0065,-2.1167,0.71496,-4.783,
4.4553,1.1914,0.67243,7.5015,15.9142,-4.1734,7.1841,-0.19942,5.5614,0.36154,2.8505,3.313,1.6359,6.5912,
1.5364,0.39698,1.8369,11.1487,5.5591,-6.0921,8.4403,-7.1773,8.3612,2.9909,8.2226,3.3551,0.33294,13.6676,
2.1671,-2.7603,2.4501,5.9005,9.3231,-5.0037,6.2467,-4.5771,5.6903,3.0529,5.5601,-2.8717,-0.41039,-1.2525,
4.6887,4.3952,-1.3124,0.9672,16.7177,2.7688,0.81065,3.1694,0.28724,-5.5664,-1.281,-3.9047,-0.62674,-3.9487,
0.79192,7.2649,-1.4746,2.1145,1.6146,11.5203,2.4492,1.292,6.296,-4.9914,3.8575,-1.5008,0.61616,5.2058,
-6.9684,-2.8119,-0.90418,3.9153,-12.5822,12.2753,3.7481,-1.6781,10.7385,-0.35318,8.4463,-2.857,-0.86707,-8.1219,
-4.3811,-1.9203,-1.0909,3.9218,-23.1555,12.2617,2.8003,1.0742,6.9607,-0.091021,3.8422,1.8937,-2.9842,-8.3575,
-0.98498,2.2925,0.17962,1.9991,-7.6662,12.2491,4.3193,-1.1597,3.4098,-2.7369,2.4066,5.8777,-4.0102,6.2439,
1.2433,6.2523,-0.07212,5.0126,0.3861,11.7551,2.3729,-0.84912,1.9999,-2.3317,2.9851,2.3915,-4.9749,11.051,
2.374,9.9745,-2.7193,0.6145,-2.2884,7.4344,-3.3126,3.7816,-0.28923,-0.98651,-1.2914,0.56079,-6.3636,-3.7121,
1.7494,9.8582,-0.62776,0.095467,-3.1152,5.0604,-0.22159,3.5544,1.1746,-0.92755,1.6784,3.4194,-3.5715,-5.5375,
-1.0067,6.6152,1.0971,4.669,-0.75911,8.3722,2.4428,1.654,1.827,-6.8974,6.157,-4.7395,-2.6343,7.0868,
-2.6335,5.0134,-0.17399,3.1841,0.97366,7.6289,-0.35486,1.7957,0.030188,-10.5809,1.6902,-12.4088,-3.1991,-6.5948,
0.89895,8.569,2.729,6.367,0.43308,6.6887,3.5228,1.6879,2.9209,-2.7157,0.62494,-3.9515,0.36729,-4.2709,
3.0139,6.3674,4.2522,5.2619,-5.6185,4.1185,6.4447,-0.10033,5.3965,2.0267,5.6489,1.8289,-1.8241,10.0853,
3.3155,2.6114,4.479,1.0902,-8.6556,-1.4313,1.2373,-0.57624,6.037,-2.4332,2.4179,3.6474,-9.4275,7.1906,
-0.49908,1.2496,2.0414,0.7836,-6.4492,-3.0324,-0.041991,1.6273,9.7724,1.8104,-4.7173,9.4543,-5.2462,-4.0869,
-5.7713,-1.2359,-1.9375,-1.1916,-6.0621,-0.44031,0.44292,0.56576,11.1143,11.3427,1.8327,5.995,3.7452,4.8349,
-2.533,1.7307,1.0708,-0.15578,-2.806,1.9962,-2.9581,2.46,7.0729,12.5904,6.0611,3.7071,-0.81779,9.8475,
-1.6579,2.832,1.7297,-2.7982,0.013413,-2.7031,-0.12976,1.5893,5.9254,5.8092,-1.7746,2.2792,-7.2764,-4.8434,
0.85173,2.662,3.5541,1.2261,6.2794,-2.5409,10.4833,-0.43427,7.98,4.0144,-3.5963,-3.6422,-0.57333,-7.5658,
-1.1273,1.0563,2.8587,5.0091,3.9744,0.021933,4.5519,-0.40799,-1.1756,-2.9747,-0.4878,-9.6904,1.3895,3.0113,
-6.6035,-0.69455,-0.44609,-0.35288,-1.3257,-2.1488,-4.1571,3.2317,-2.7921,-8.8225,-4.0742,-6.9396,-5.2016,7.4102,
-1.3866,5.6141,-0.41933,0.63216,12.2514,-1.5375,2.8408,3.0378,3.16,-4.9182,-8.1681,-2.6668,-7.2996,5.0374,
1.1067,7.6874,1.534,2.0405,18.265,0.96492,7.9734,-5.3392,-0.88597,-3.6593,-3.8216,-6.8451,-2.0414,-3.4596,
-2.8161,1.9235,3.3702,1.4361,8.4922,0.42509,0.26372,-6.4651,-3.7253,-7.778,-0.21783,-9.3269,1.4555,-9.519,
-0.47796,5.4235,0.51687,3.5191,14.4904,4.015,-3.3671,2.3585,0.1136,-2.2497,-1.4101,1.1151,2.0911,0.93454,
-2.1363,5.8212,-2.6479,-3.1997,17.7183,7.8712,-2.4424,0.52997,3.722,2.4644,-1.5666,3.699,-1.1676,11.2426,
-0.5623,5.4719,-0.56079,-0.59763,14.2449,7.399,1.5606,-0.46615,6.8731,0.38832,-0.026391,-3.2714,-2.0619,7.6755,
2.8461,7.554,-0.52691,2.8129,17.7287,-0.27559,1.9491,0.52591,2.6046,0.36526,-1.4708,-1.629,-0.0097441,-0.97998,
2.1932,5.1723,1.9151,0.71571,17.6291,-2.6694,1.8324,0.012656,0.037938,5.6458,1.5097,7.6275,2.8831,-1.4029,
2.5435,5.8263,0.83583,3.5653,15.1251,4.7216,3.1682,0.97576,5.3383,5.7889,3.8292,3.7959,1.7463,-1.8011,
2.3912,6.9228,-2.1062,-0.02285,16.6282,2.0279,3.4603,-0.046879,2.6077,-0.34274,0.7072,-4.1449,-0.28692,-0.24655,
-1.368,3.3741,2.5993,0.70119,11.5329,-8.9398,0.11942,-0.7672,-5.5028,-3.9378,-0.54029,0.68332,0.93536,12.0605,
-3.937,-1.4081,4.6125,5.7208,7.2255,-9.6087,-1.575,-1.926,-4.9312,-5.8707,-0.26691,-2.4912,-0.80799,10.6135,
1.6019,2.0509,2.4075,5.8595,17.397,0.12688,4.3041,-1.3285,-0.29699,-5.5185,2.1592,-4.7518,1.6511,-2.5563,
-5.2429,3.3743,0.81705,1.1698,17.3175,-0.36244,3.0818,0.19724,-4.6177,-7.5973,-0.38022,-2.5383,2.998,-8.6697,
-13.8466,-1.4081,1.4912,-2.9979,8.8064,-8.7771,-3.1289,0.90853,-6.992,-8.3469,-1.5629,-5.0373,-1.7614,-1.1598,
-6.0262,-1.0824,4.053,2.2434,13.3395,-8.4916,-2.2181,-1.7973,-4.8855,-5.6767,0.2183,-4.4943,-3.8251,7.8276,
0.12019,0.42854,4.292,4.5191,21.6982,-3.6436,3.2179,-7.4743,-3.6278,-3.8901,-0.75889,-2.2963,-0.70327,8.322,
-1.3328,3.2953,1.142,-2.9829,26.6633,-6.799,11.2195,-7.0254,-6.7846,-9.4413,-7.4623,-6.9787,-4.517,-0.85393,
0.67511,11.2926,-1.3369,-5.2142,30.3659,-5.4269,9.1003,-2.2657,-9.2698,-10.8028,-8.9425,-8.4884,-6.6563,-7.5514,
-2.2577,6.2765,-2.7027,-6.8293,21.3131,-4.6196,-4.9433,-3.5758,-6.7856,-6.7804,-2.6216,-7.015,1.4556,-8.5448,
-1.6403,0.59723,1.3158,-1.1174,14.7317,-10.127,-3.6823,-2.8793,-5.4142,-6.3736,-1.018,-8.0404,2.8145,-6.5858,
1.3509,4.418,0.27277,1.36,16.7403,-10.9654,8.108,1.632,-7.4997,-10.8116,-6.2594,-9.4859,-5.5493,-9.5649,
-0.17666,5.117,-4.0821,-4.9883,11.3973,-6.4509,7.6213,2.4981,-6.5675,-9.1988,-4.4378,-6.9888,-6.1804,-12.3657,
2.2443,5.2917,-2.8731,-3.2426,12.1595,-4.1359,4.7536,0.42029,-5.2094,-1.8982,-2.2431,-2.7129,-3.3993,-1.0182,
1.6275,2.5643,0.19156,-2.0839,16.2506,-9.1901,11.2171,-2.0153,-5.8609,-5.1586,-5.0013,-1.586,-3.1955,10.6118,
-3.2909,1.9281,5.9646,-0.995,12.8652,-10.5669,11.026,-0.44811,-2.6172,-10.6336,-1.3267,-5.3477,5.1914,8.5288,
-6.7089,3.0177,1.0275,-4.5507,8.9598,-9.6919,-3.3739,-1.1446,-9.45,-15.0573,-5.8264,-9.6061,3.6746,-5.2393,
0.68378,5.4879,3.1352,-1.6264,13.0018,-0.67451,3.3363,5.4318,-12.9802,-11.0206,-7.6462,-6.3784,-2.0893,-5.6481,
0.88372,1.5432,2.7061,5.943,10.5347,-1.8389,13.5004,2.9367,-12.9243,-12.0461,-8.3923,-10.0931,-7.5075,-3.1396,
2.036,5.548,4.7129,7.2737,17.3744,-6.3083,10.0388,1.0733,-7.5695,-9.6366,-3.7914,-4.4258,-0.067658,0.66423,
-0.014594,4.251,2.5017,0.57051,18.7421,-10.7503,-1.6505,-0.91906,-8.5614,-6.648,-4.0461,-3.6786,4.7569,-1.304,
0.95038,2.5499,-1.0226,1.9823,19.5457,-8.6592,2.7866,2.9922,-10.458,-4.3212,-6.6956,-4.4219,3.5074,-3.1538,
3.3035,2.8789,1.9308,2.8277,19.8192,-6.6934,7.9221,0.40258,-7.9024,-4.5439,-5.33,-0.30023,-0.55945,2.3376,
-0.26895,1.2601,2.2971,5.0679,15.2554,-9.1843,4.0725,-2.5143,-5.0183,-5.2353,-2.1179,3.092,-1.9719,5.5716,
0.22935,0.70233,0.71328,7.1742,14.8225,-9.5974,6.7205,1.4932,-4.717,-4.439,-1.9906,1.4605,-4.7459,-1.029,
4.3129,0.41923,1.3938,4.5751,18.9948,-6.3697,12.3433,-0.2832,-8.5313,-2.9674,-7.4148,-1.2783,-10.4867,-8.921,
7.1874,3.0454,2.5153,7.4338,25.8089,-0.92611,11.3615,1.4208,-10.1884,-2.5486,-8.6569,2.896,-4.3141,3.9066,
2.1764,3.1036,0.19474,3.3719,19.1984,-1.112,6.1,4.4686,-10.3004,-6.9754,-5.4864,1.9989,4.8628,13.0717,
-1.5693,8.9432,-1.022,1.4826,13.4675,0.64221,6.9395,7.3342,-7.0311,-4.8695,-2.5059,3.5664,5.2942,0.47752,
-6.5364,8.6476,-1.2017,1.6346,19.6491,-4.458,4.8359,3.7606,-4.922,-2.8901,-4.0427,2.1471,4.2536,-8.4692,
-10.0006,-2.9585,-0.64762,2.0189,9.7932,-13.8315,-3.1674,-3.6958,-0.77029,-3.1986,1.5025,-2.8024,7.8548,1.6799,
-8.196,-3.9861,-1.8138,5.513,-4.8944,-12.2787,-11.4133,-1.7871,3.855,-1.3197,6.9557,-1.9111,5.2141,5.1943,
-2.6421,4.2068,-3.8742,-1.8072,2.7506,-7.9263,-8.0769,3.3823,-3.3657,-3.4097,-2.3792,-3.9656,-2.0881,-9.2173,
11.6165,17.211,-0.50845,-2.4224,16.6856,-0.94304,6.1462,7.2765,-11.5997,-2.482,-8.2623,-3.4865,0.68801,-2.2768,
16.8241,15.696,-0.95988,-3.2409,29.7845,-5.2252,8.6695,-0.39097,-16.2064,-1.8511,-7.2846,-5.6879,2.093,11.9598,
12.1994,8.2465,-1.1435,-6.1797,42.0974,-16.7218,8.3905,-5.9109,-15.9571,-2.4632,-6.1244,-6.5517,4.6187,7.9882,
11.4677,9.6802,-0.59271,-2.9166,53.6715,-21.9851,9.8155,-3.6278,-15.9633,-5.2072,-8.1668,-9.0504,3.8594,-6.5911,
13.4305,8.3762,2.5761,1.3555,64.5513,-18.979,12.8418,-3.6518,-13.3185,-3.6902,-3.5797,-6.8204,-4.3261,-16.9212,
9.2504,-5.6239,2.4218,2.2383,54.0498,-25.553,9.6609,-12.1096,-15.4117,-9.2531,-2.8827,-6.4114,-11.2971,-13.0136,
7.4904,-5.0453,2.9991,4.2734,47.1913,-26.1892,11.2502,-8.7317,-12.8,-10.3854,-1.0228,-5.7855,0.70865,-10.0634,
2.9436,-0.1633,3.0606,0.88347,45.5652,-22.9306,9.8523,-1.6998,-9.3809,-5.6649,-0.72045,-5.1974,2.3534,-11.6288,
4.454,-2.3224,5.5283,7.8206,45.9645,-21.3136,10.4662,-3.7672,-5.6843,-1.7094,0.045904,-3.1986,-1.885,-1.5313,
5.1508,-9.8961,0.85805,6.3872,42.7247,-24.8553,10.8028,-11.7357,-6.7893,-3.5348,-1.4029,-3.0064,4.9768,6.7556,
5.0827,-6.1688,0.5656,2.8705,42.8125,-20.7126,10.8775,-7.4166,-8.5516,-5.0099,-3.4879,-3.5489,6.8474,-0.63965,
6.7062,-1.4602,9.6905,9.447,43.618,-11.2752,13.1172,2.6696,-5.6281,-1.817,-4.7251,-5.7464,-1.7584,-6.8676,
4.6166,-2.0959,10.7963,6.711,38.3496,-11.3218,12.0892,1.7861,-0.22875,-0.021232,-3.2363,-5.643,2.4444,-1.3943,
2.8936,1.4045,3.3998,-2.8505,33.6385,-18.3552,4.1327,-4.1054,-5.5179,-2.4299,-5.9344,-4.8223,9.0465,-5.6492,
9.9508,6.6224,2.7139,-2.6795,34.9944,-16.7718,7.7412,-1.449,-5.6688,-0.8378,-5.0964,-4.5329,5.6116,-13.9869,
6.2205,-0.28215,1.346,-1.7956,31.2078,-13.1141,7.5179,-1.1208,-1.2311,0.89946,-4.5494,-7.3942,3.1055,-10.9783,
-3.5527,-2.9168,-1.3863,-5.3032,25.7199,-13.5323,2.4875,-3.7047,3.4226,3.0147,-3.0712,2.4494,2.6782,3.7804,
-3.0988,1.3558,-2.0263,-8.6007,21.5254,-15.372,7.3997,-4.206,3.4579,1.6287,-2.6462,5.4357,-5.4364,3.9151,
3.3536,2.7203,-2.3866,-2.782,19.7517,-12.0393,12.7403,-1.0611,0.84034,1.0491,-2.4874,-2.6032,-7.0384,-6.4432,
0.74204,0.14669,-4.1719,0.2772,13.2639,-10.835,6.673,-0.99768,-1.1385,0.98588,0.55415,-0.51903,3.0251,-5.0925,
-4.3639,-2.031,-4.6447,0.019373,12.7091,-11.8721,6.0319,-1.1786,-0.82946,-0.27833,0.76209,5.056,5.0125,-3.1,
-2.4149,1.2238,-3.1607,2.6693,25.6851,-8.5085,15.07,2.5076,3.8001,1.4256,-0.0069911,0.65525,1.0963,-6.5294,
-2.7517,-2.7057,-2.9708,1.5455,24.1442,-7.0336,12.2378,-0.053235,5.5005,1.8222,3.85,-6.1327,2.959,-10.4757,
-2.1047,-2.0615,-4.7208,2.4166,14.5006,-5.6478,7.1648,1.3962,3.2423,2.1948,6.0292,-2.8727,4.2277,-11.2934,
-1.7374,0.23185,-7.571,-2.3076,14.8356,-6.514,6.9759,3.9635,3.7706,0.3759,3.0163,-1.4951,0.3586,0.23043,
-3.0794,-4.1208,-4.7066,-4.0974,20.2122,-10.4614,5.1111,-0.61259,5.9545,0.35335,3.7992,-5.2617,2.7472,13.232,
-0.72549,-2.6683,-2.737,0.24582,20.2046,-9.1106,1.6714,-3.2269,1.018,1.5374,5.2585,-4.7051,4.2696,3.0381,
1.9694,0.62505,-2.3316,-1.9383,12.9665,-3.0206,3.74,0.58188,1.68,3.1322,3.7379,-1.2895,0.88017,-8.9545,
-0.077226,-1.8228,-2.1919,-0.37599,6.4039,-3.8035,4.4797,4.8855,2.5433,0.5339,0.62135,-1.6943,-6.4037,-2.1505,
-1.0365,-2.1954,-5.4349,0.6109,12.2864,-7.4316,2.2827,5.0743,-0.98375,0.98426,1.5484,-2.0746,-7.9472,4.245,
2.8823,-0.61762,-4.6266,-1.8361,13.9594,-6.5038,2.146,2.3595,0.5213,2.3712,0.97333,-1.9499,-9.3988,-5.6509,
3.4325,0.62496,-0.73335,2.8536,6.1322,-4.9083,5.6324,0.53093,2.6594,1.0239,-3.1827,-3.5199,-8.5937,-8.4446,
1.2982,2.9974,-1.6534,4.1284,9.6206,-2.6856,8.1868,0.016914,-0.39244,1.9266,0.86492,-2.3451,1.5627,6.1621,
-0.46696,4.9867,-6.6159,0.74766,11.2128,-2.2835,-1.222,-1.1894,-2.0561,0.60568,2.5003,0.4472,2.6742,7.3586,
-0.43894,-0.61471,-4.2908,3.1129,-3.56,-2.1465,-6.4514,4.1846,2.4056,1.0513,0.42204,1.3842,-4.2352,-0.31374,
-0.17164,-5.1576,2.9565,4.6134,-2.9849,-5.151,-0.038737,5.1388,2.0203,0.26529,0.15575,-6.6526,-5.6678,1.8747,
4.9003,2.1418,7.8408,6.9881,11.2942,-3.6366,5.9896,1.6975,-0.27011,-2.8837,4.7257,-4.5662,3.1079,6.3415,
1.9548,-3.0484,1.3444,3.4354,24.7165,-10.4083,1.0505,-3.4665,-1.4592,-10.1829,1.7906,-2.605,6.5369,-1.5108,
2.0789,-2.6246,0.54081,2.5063,25.1617,-11.9529,-0.21785,-2.5352,3.2081,-7.8847,0.47833,-5.5822,5.9037,-5.9994,
2.6771,5.4871,2.1956,-0.77754,27.7496,-5.6922,1.4824,-0.21389,3.2566,-4.2781,2.6188,-4.5239,-0.95847,-7.8091,
-1.5811,1.0603,1.3407,-1.454,22.469,-5.5918,3.0805,2.9322,-0.072069,-4.2626,5.113,3.2191,-4.0342,4.4698,
-2.4501,-5.2703,1.2603,6.346,13.8902,-8.6308,5.3063,0.82807,2.3424,-0.15049,6.2525,4.9542,3.4387,18.3016,
0.107,-7.8461,-0.26159,4.519,12.5749,-9.0768,2.5778,-6.452,7.0226,1.3048,5.3954,-0.16333,2.7504,11.2987,
1.5468,-6.8934,1.6823,3.7659,10.3741,-5.6399,0.97683,0.68357,10.4576,-0.70169,5.5536,5.6311,-3.1992,-3.4792,
-3.6074,-6.2386,0.37629,3.2988,3.7259,-6.5068,-0.2873,3.2939,5.2506,0.54548,3.5329,9.3903,0.60796,2.3932,
-3.6322,-8.998,-2.2976,-0.99675,2.2971,-12.6241,-0.9932,-7.2678,0.83799,1.2359,2.5978,1.3553,4.1867,6.8291,
-0.040017,-8.9398,1.2145,3.884,9.3903,-12.3486,0.51288,-4.4214,1.7518,-0.2843,3.406,-0.17249,2.0075,-7.0778,
-6.3041,-11.296,0.65967,2.6866,8.3447,-10.1616,0.00017763,-3.1923,1.1648,-7.0162,1.7559,1.7665,2.369,-5.6892,
-1.1054,-10.618,-0.34401,2.0433,4.9517,-10.998,1.4462,-7.8212,3.0228,-8.5231,0.20404,-0.2679,2.709,8.7521,
3.0585,-7.3296,-0.08217,3.6081,5.3778,-13.4713,1.1182,-7.1107,5.4928,-5.3604,-0.53087,-3.867,2.3053,6.4195,
-5.8019,-7.372,7.1534,2.9095,6.0192,-14.1093,1.5333,-4.2737,6.6097,-8.8954,1.4289,-5.0815,8.9161,-8.0657,
0.33059,-3.073,9.6165,3.699,9.9966,-10.8524,2.4054,-5.9457,5.249,-13.6643,0.86104,-6.2226,4.5245,-2.6408,
11.157,0.24437,3.9783,0.82597,13.0122,-8.9962,0.57385,-6.3119,1.8006,-9.7108,0.56842,-9.4647,-0.80864,4.0256,
5.6671,-0.73439,5.6675,4.1506,12.2313,-7.0104,1.9854,1.7794,-2.646,-7.2002,2.4627,-8.4146,10.3273,-7.7853,
3.8808,1.7198,7.7376,8.2399,10.0514,-1.2871,4.2769,6.0109,-2.4872,-9.1785,3.2788,0.28494,10.1896,-11.1746,
6.7815,0.41178,2.6941,-3.5827,5.3509,-0.9687,-0.559,-0.85722,-3.5428,-8.8685,0.91295,0.026877,-1.7499,-4.4785,
3.2411,0.14611,3.2553,-3.6087,5.7528,-0.18768,-0.76688,-0.56482,-4.0536,-4.7215,0.6172,-2.6258,7.7551,6.6364,
-2.0148,0.37808,3.7831,5.0437,7.0948,2.4749,4.823,4.0486,0.76913,-6.1252,4.1954,-2.7095,12.3512,6.479,
0.75739,0.11466,-0.54145,2.0898,5.4641,3.5315,3.3281,1.6363,1.928,-10.8193,4.6668,-3.752,2.2099,-0.89941,
0.95314,2.2767,-2.6779,-0.68691,6.3413,-0.29561,-1.4507,1.2974,-4.6954,-10.8931,-4.0491,-0.87553,2.8009,3.2521,
-6.5759,-0.51099,-2.2763,2.9697,4.7558,-1.9651,1.7694,5.7988,-4.6546,-10.4805,-6.4573,-0.58203,6.2483,6.1905,
-6.9044,-1.6854,-0.93461,5.9248,3.2651,4.1784,4.7965,8.1022,-1.2421,-12.5032,2.848,-3.6804,5.6322,-3.5812,
-1.9109,-2.3072,-0.63757,3.8825,8.1309,3.2048,2.3395,3.5187,-4.3006,-13.9219,0.026014,1.6021,1.1969,-6.4998,
3.5064,-1.6868,3.739,4.6135,14.3917,0.60211,5.0917,4.2719,0.77772,-6.8201,-2.3861,11.147,-5.1419,1.6034,
-1.2833,-2.7909,-0.58269,4.5776,8.4668,0.32479,0.68883,2.3284,3.3822,-3.2774,-4.8941,0.11383,-3.1462,-1.1443,
-1.9296,0.028115,-4.6451,4.062,4.3433,6.3311,-0.55779,3.3935,3.4206,1.4985,-3.3951,-0.6159,11.1426,5.9142,
0.83748,-0.69716,-3.1613,4.059,3.3596,5.2281,1.1627,3.913,1.046,3.578,-0.058616,10.749,7.4611,12.0666,
-2.1048,-3.065,-3.4536,0.92341,9.9069,-0.87018,0.12905,0.30426,1.4652,1.4351,0.90969,8.6583,-0.21699,1.7021,
-5.594,-5.0507,-3.9697,-4.1937,12.4458,-6.3616,-3.0122,-4.7757,4.0288,-1.3025,-3.2427,-1.2612,0.51893,-7.3181,
1.008,-4.2655,-1.3212,-1.5317,3.986,-6.4621,-3.3136,-4.9713,-0.069513,-5.5625,-2.566,-1.6677,-2.4045,-4.951,
5.5272,-3.2862,0.44532,-2.1627,3.9881,-2.4587,-0.94518,-4.4321,-1.7526,-10.7723,2.1677,-0.84475,-9.732,-5.3769,
0.85705,-1.643,0.90077,-0.10497,13.8719,-3.2755,1.5214,-4.6483,2.6911,-8.198,2.0374,1.1344,-8.184,-5.5364,
-0.64018,0.38376,-1.0815,3.2758,10.1473,-5.4891,-2.4258,-3.887,-0.84479,-0.95724,0.95132,5.4046,0.50219,-1.3474,
3.2544,-1.5677,1.8757,3.0795,2.7896,-3.2315,-9.0294,-4.1359,-1.2763,1.9925,-0.55225,5.0806,5.7745,1.1433,
3.7823,-4.6069,2.4863,6.028,5.2735,-7.1352,-9.2107,-8.4675,2.8979,-1.2603,-5.0986,-2.2144,-3.0079,-5.433,
2.1088,-0.47432,1.373,2.774,10.2597,-7.1891,-2.8733,-8.4414,0.79606,-3.5951,-2.8643,-2.0813,-11.0224,-8.9631,
3.4288,8.7134,-2.566,-6.5517,12.0543,7.3423,-5.5932,-4.5607,-10.3392,-4.3435,-4.6209,-2.4386,-10.8432,-5.0511,
14.551,22.2906,-0.72456,-0.61477,16.3925,21.0018,-2.1243,7.0414,-8.0318,-0.94959,-5.0667,-7.8361,-5.1311,3.2054,
15.1245,32.1606,-0.68132,0.38621,2.8759,33.8416,-4.8892,7.583,-5.6215,-6.195,-5.7268,-14.5965,-7.7156,-0.84304,
16.3861,43.4879,-0.88141,0.12207,-5.2506,45.9111,-10.6214,10.7434,0.25942,-4.618,-3.2136,-8.1771,-3.6372,-0.069094,
21.1873,52.4475,-3.7208,-6.152,-7.8281,57.2565,-13.3588,15.4012,3.1361,-3.8592,-7.8417,-10.0969,-2.9368,-6.8141,
31.4855,63.4007,0.84099,-1.4448,-10.2507,67.9211,-6.2905,22.6721,1.5019,-1.6997,-7.8534,-7.0807,-4.689,-10.7438,
31.7655,73.6966,-2.343,-3.0449,-9.8764,77.9458,-8.0822,25.4091,-6.06,-0.87439,-9.0689,0.33402,-13.8072,-2.145,
32.9928,83.3748,-3.8894,-7.4417,-3.2583,87.3691,-7.3561,31.3566,-7.3838,-0.58119,-12.1405,2.001,-12.7381,12.0837,
39.2082,92.4723,-0.76373,-0.72845,-6.4372,96.2269,-4.9868,37.1878,-10.797,-6.8126,-19.607,-1.0114,-10.5277,18.7098,
39.748,101.024,0.24619,1.7252,-13.2816,104.5533,-6.1336,37.8488,-13.0414,-10.2605,-19.8766,-1.9148,-15.1985,7.4641,
36.399,100.6267,0.23119,1.1399,-12.9669,100.9314,-5.2834,37.9882,-12.7411,-7.7164,-16.2736,-4.2098,-15.7326,2.6782,
34.2149,92.6606,-1.2287,1.5533,-8.8146,101.1418,-3.5204,36.673,-14.8689,-10.6281,-18.6719,-5.8856,-11.8968,5.4093,
30.9571,83.0036,1.0142,1.2191,-15.7573,100.135,-5.4783,30.8572,-10.8433,-13.1237,-14.4181,-6.7378,-7.5671,4.3618,
25.7255,75.6135,4.8099,3.0744,-28.3092,96.5373,-9.0062,29.006,-7.3004,-9.9259,-10.6607,-8.7434,-9.5235,1.2078,
21.5306,72.2818,2.352,-1.2077,-24.4415,91.9501,-6.2965,31.3628,-10.478,-4.2687,-11.7081,-3.1574,-14.9778,5.7149,
17.5872,66.2572,0.041676,-1.8586,-24.1803,83.782,-3.7495,28.2757,-7.1983,-1.8434,-10.2827,-2.245,-19.6228,4.1667,
19.6657,60.1128,1.7262,7.6532,-28.2731,76.1037,-6.1759,24.4102,2.1519,1.8824,-7.4963,-1.8691,-13.8659,-1.6267,
14.3882,47.5882,-2.4745,-1.7239,-20.069,63.1016,-9.9029,18.3661,-1.1105,1.5287,-8.734,2.3402,-8.4544,4.9786,
8.4634,40.1534,-4.0135,-5.718,-14.7675,56.1823,-7.1393,20.3974,-1.767,8.9086,-3.6305,3.8872,-4.8139,13.5977,
2.8937,25.4519,-3.5315,-0.31348,-27.9815,46.7856,-9.3623,19.8967,0.50799,14.3998,-4.6177,3.4128,-5.2482,3.864,
-6.6797,9.8248,-6.4529,-4.3918,-40.4026,29.8784,-16.7541,10.7494,-6.5121,4.618,-9.4021,6.3413,-8.0666,-5.2856,
-8.448,-4.8647,-5.3428,-3.8873,-34.604,15.6727,-12.1339,9.3811,-2.024,-2.6489,-5.2225,5.2379,-5.8953,3.9491,
-7.9412,-12.0448,-1.1658,0.68424,-34.4559,9.4302,-7.5494,6.89,8.2208,1.3664,-2.981,-3.7535,-4.5773,-1.1081,
-8.429,-12.768,2.7605,7.3921,-41.0655,6.9362,-7.5784,2.1383,7.7275,7.5509,-2.3202,-1.5996,-7.6771,-13.5751,
-14.1898,-18.2689,-0.29719,6.9486,-47.2784,0.73541,-9.0519,0.081784,3.4075,0.83134,-3.1449,0.42409,-12.0372,-6.0117,
-18.1591,-25.8494,-1.2437,2.1929,-48.2981,-5.5757,-9.955,0.55881,7.0594,-0.6648,-1.028,-2.0115,-4.5661,2.0618,
-17.5515,-25.7447,-1.1691,2.5437,-42.0257,-4.2768,-11.2855,0.52528,6.6358,5.6421,4.8183,-4.7829,2.9387,-6.739,
-16.9806,-25.1641,-0.61676,-1.9475,-39.9864,-7.8768,-11.5729,-1.9166,2.8635,3.8571,7.9034,-5.9424,-3.5043,-8.2626,
-16.2027,-24.3771,-0.33879,-8.8205,-39.7563,-15.8399,-11.6014,-6.8628,5.3428,-1.4356,1.8856,-1.0061,-10.2839,-3.1876,
-15.7125,-23.8788,-2.7286,-7.8089,-35.9249,-13.4432,-12.8335,-6.9334,10.8068,-0.38559,0.80859,-0.46379,-4.3643,-3.4783,
-14.5288,-26.5435,-2.3239,-6.1355,-34.0104,-11.4318,-11.3402,-2.4196,12.8099,7.5917,4.8574,-5.0152,-2.4152,-4.9568,
-13.898,-27.6024,-1.9435,-7.4546,-34.6211,-18.6996,-10.9012,-3.9621,8.9078,10.2693,0.46863,-3.0276,-8.2958,-7.7929,
-15.2333,-25.2229,0.34227,-9.6584,-32.7848,-18.783,-9.0418,-6.8574,10.5425,9.4121,0.68148,-0.19436,-2.7368,-6.12,
-13.8374,-26.602,-0.1602,-5.7049,-28.4076,-15.7278,-5.6073,-7.4103,11.8382,9.8113,4.9789,-1.629,3.6939,-1.8964,
-11.0789,-31.2724,-4.4889,-3.434,-21.8826,-20.0868,-3.8246,-10.8221,9.6816,9.705,4.1982,-2.4951,-1.348,-6.6034,
-11.3783,-35.6628,-0.84535,-4.6744,-19.6056,-24.184,-0.70279,-11.6188,11.993,8.6405,3.4642,-1.3813,-0.78496,-5.2431,
-15.5161,-38.8255,1.1333,-0.055414,-21.3215,-24.6609,-2.5886,-10.9219,13.2019,8.6043,6.6306,-0.8167,5.5289,7.1229,
-16.2721,-38.6653,-5.4424,0.67104,-17.8731,-21.9762,-4.1207,-10.0254,13.6148,10.2569,9.366,0.43736,5.4379,5.9723,
-15.2958,-38.7555,-7.0436,-0.81502,-14.8723,-22.1039,-4.3554,-7.0133,11.834,11.0878,6.3944,0.41158,1.2557,-3.5446,
-14.8602,-37.3943,1.0916,-0.76635,-9.1597,-25.1162,-4.5763,-2.2544,12.0876,15.7249,3.5999,2.3148,7.9286,2.9344,
-13.4864,-33.7046,1.5083,-4.577,-3.7894,-21.1989,-3.3376,-3.0832,9.9164,18.1561,3.866,-0.71633,11.7914,9.0251,
-11.2312,-22.0411,-9.1873,-6.7127,-5.9724,-5.8269,-8.4397,-5.7905,0.6445,11.7639,-2.6327,-4.53,-3.0161,4.6274,
-9.5935,-7.7037,-14.903,-11.1302,-14.7731,8.6227,-16.6105,-2.0686,-1.8043,12.0224,-9.2231,1.0445,-16.9351,0.49292,
-9.0174,-0.010195,-13.0445,-14.8007,-26.42,22.2053,-21.8803,4.322,-1.696,14.6755,-9.1517,0.98181,-19.0523,-2.9106,
-4.138,10.1133,-13.7081,-11.0206,-33.9938,34.973,-20.0856,13.2217,-6.415,13.3126,-8.1207,0.9229,-15.499,-0.80782,
-6.3001,15.2913,-17.7061,-17.1081,-46.0542,42.9975,-21.7727,12.9106,-10.8506,9.1396,-13.9002,3.2779,-20.8354,-0.75912,
-10.5016,20.3992,-8.6902,-13.4303,-56.909,50.2998,-21.1895,15.2692,-3.6918,11.7245,-10.8972,3.8043,-15.4881,0.49103,
-8.9074,19.175,-4.3122,-4.9119,-50.6021,50.6561,-16.5439,21.1017,-1.06,8.1287,-3.0123,1.1657,-6.3639,8.1746,
-4.5166,16.5787,-6.946,-3.6529,-40.8171,42.796,-12.6588,20.3176,-4.3708,3.3027,-5.2422,3.9878,-12.249,12.5044,
-3.5225,19.1992,-4.3598,-4.1568,-36.1989,45.2901,-10.6942,15.9652,-3.8674,2.3814,-9.9891,4.4717,-14.1649,8.1389,
-4.0342,17.8065,-1.4469,-2.7023,-37.1602,52.9368,-9.3294,17.6587,-1.4664,2.4797,-3.364,1.5525,0.78495,12.2301,
-3.0691,11.1942,-3.0471,-0.37081,-37.1,49.0375,-8.5284,24.0707,-1.6196,2.0897,-2.439,2.1821,9.2942,21.3784,
-5.0541,5.4609,-2.1414,-2.5177,-39.9355,39.5878,-8.7401,22.8679,-1.281,2.2053,-6.8719,1.3282,-5.3634,14.0702,
-6.4381,7.7848,-1.7719,-4.5363,-42.1189,40.3455,-9.9029,18.8443,-1.4451,4.7241,-5.2548,1.4895,-11.1879,9.6106,
-4.8465,14.3076,-9.6194,-4.5046,-35.9761,43.9508,-10.5136,17.955,-3.0456,4.2001,-6.1443,3.0874,-8.8294,16.5057,
-4.7971,6.9412,-8.3193,-7.3678,-28.2741,38.6622,-6.2673,16.1544,-2.14,3.2248,-4.5708,2.1792,-7.0948,17.2022,
-7.4011,-7.5753,-2.0353,-5.4797,-34.7724,29.5938,-7.3373,11.329,-0.083172,2.5496,-2.3682,0.12004,-4.7407,5.0835,
-6.9573,-11.8208,-4.8055,-6.115,-35.0964,21.0695,-12.2,9.2027,-1.0423,1.432,-5.1184,3.0051,-6.8666,-7.7552,
-5.5762,-13.0399,-4.5174,-12.0149,-26.2422,10.1641,-10.0219,8.1684,-3.3901,3.7565,-6.7397,7.6453,-8.383,-3.9157,
-8.6156,-21.8981,-3.282,-6.9552,-27.5597,2.8058,-5.0818,5.7506,-3.1867,3.5311,-4.4071,4.7765,-5.4694,3.0681,
-10.2676,-23.7174,-1.8796,0.93369,-27.111,5.2888,-2.6075,9.0207,2.066,-1.7422,0.91922,1.8385,-2.49,0.71513,
-9.6518,-17.9563,-3.2133,-0.56836,-16.3255,4.0074,-3.8976,9.4436,3.388,-3.0837,0.86384,3.6567,-1.8584,4.5284,
-13.8932,-15.9148,-6.8771,-6.3191,-10.5255,-6.8386,-5.1098,3.0921,-2.5996,2.8856,-2.0803,4.8833,-2.711,17.2719,
-14.747,-11.8267,-2.3669,-2.3247,-12.5455,-11.9717,-5.0444,-0.70857,-3.1668,3.4356,-0.7504,1.939,-3.2715,13.1023,
-7.1133,-0.99371,3.0778,6.4918,-6.008,-6.4326,-2.8135,-0.18412,0.3977,-0.14496,3.151,1.3407,-1.147,4.6034,
-6.6865,-2.3803,2.4112,3.6922,-2.273,-7.9749,-2.1623,-0.65501,-0.59048,0.82807,0.55182,2.7061,2.7782,10.1118,
-7.4904,-8.2633,2.9892,1.7832,-3.3419,-13.0402,-3.72,-2.3032,-0.31386,0.53719,-1.1687,-0.10763,2.3703,2.9973,
-2.4617,-8.4904,4.9794,4.3278,8.1868,-14.9089,-0.36333,-3.8517,5.7305,0.26399,3.9631,-1.306,3.4334,-7.5464,
-6.1701,-14.2473,-2.068,-2.6806,12.0343,-21.7269,-2.2695,-6.031,4.905,1.2122,2.2792,-2.1917,2.2633,-5.6475,
-4.3539,-16.7671,-1.9442,-4.4482,2.153,-23.3161,-6.4719,-0.84865,-0.69219,3.0679,-3.1599,-1.0961,-1.7291,-0.48821,
0.48709,-18.8946,4.6804,-3.4579,-0.14532,-22.64,-1.9862,-5.377,1.5185,-1.214,-1.7655,0.17492,-5.7227,3.1565,
-3.3988,-23.5457,4.3994,2.5339,13.8429,-20.7999,1.0253,-12.2855,6.2479,-4.0334,2.1971,3.0567,-2.0051,5.8594,
-5.605,-26.9532,-0.20291,0.93608,10.12,-19.5514,-10.1235,-10.584,1.5347,-2.3451,-2.7555,4.8015,-1.4024,1.6514,
1.48,-26.3001,2.2192,-4.9049,-3.0206,-16.9323,-9.9982,-4.6466,-0.96776,0.20592,-5.9644,5.9594,-6.1388,-6.1606,
-0.53721,-22.7941,7.3889,-0.75444,5.8377,-11.5783,1.2067,-0.99354,-0.42753,-0.2886,-4.1605,4.1558,-6.7345,-8.2014,
-4.8433,-22.3904,3.5711,-1.1906,19.5874,-6.0629,0.17044,-0.93347,0.56245,-0.27128,-1.9822,-1.3961,-2.956,-7.2269,
-5.0346,-23.4571,-3.874,-3.5298,18.7736,-9.5555,-2.2499,-6.1801,0.5287,1.6732,-1.8637,-3.2406,-2.7786,-0.52676,
-10.7581,-24.2188,-6.7746,-2.1127,17.4063,-17.9002,-3.8021,-10.871,-2.1546,1.3318,-3.9211,0.087346,-0.92516,5.5304,
-8.1846,-28.0686,1.3444,0.42395,20.7002,-13.9339,-3.0923,-3.952,3.2771,4.6261,3.5448,1.5281,9.2535,-5.8884,
3.6346,-28.5536,5.3616,6.4245,23.0738,-9.482,1.1908,1.8288,10.0704,8.4464,9.8401,0.23115,11.8318,-10.5968,
2.2115,-29.9736,2.3886,4.3516,22.4123,-14.9389,0.39623,-3.8248,2.9584,6.7341,1.2957,4.7968,5.0961,4.139,
-2.0186,-33.2369,5.3783,-0.97119,19.8623,-18.6223,1.5775,-6.7288,0.61177,2.7146,-0.95122,6.6782,4.5493,17.9907,
7.0204,-29.0733,3.3686,3.1847,20.8399,-19.1919,7.5086,-1.7456,3.7083,-1.0634,2.721,-0.71218,4.9995,10.6447,
6.8404,-19.8573,-0.44919,4.681,24.6512,-17.3173,7.2993,3.4211,-2.54,0.68735,1.3527,0.53562,6.3865,-4.094,
3.7786,-12.6401,4.1573,8.0154,32.5719,-11.2168,11.4404,4.4209,-4.0746,8.1181,2.4766,12.7958,13.4754,5.9129,
1.8647,-19.8354,1.2567,1.5089,32.787,-18.9799,13.4056,-6.6906,2.1955,7.872,1.6051,9.3769,10.9796,5.3176,
-0.8983,-31.4198,-0.50588,-3.6433,29.6147,-26.7587,10.914,-13.761,8.0897,4.2667,5.1242,1.8244,7.6698,0.90074,
-6.147,-41.5859,-0.95746,1.8779,25.4275,-29.9739,5.4389,-10.5252,5.6757,2.5644,8.6732,-1.6595,6.2452,-3.4916,
-4.8141,-37.1626,1.9923,4.1756,22.9377,-31.5497,7.5225,-4.5908,10.638,9.6412,11.527,-0.11342,11.173,-9.0669,
-0.6689,-24.8094,5.7291,3.4431,23.0077,-27.7285,8.5174,-3.8334,12.8918,10.0266,8.9072,-0.10662,16.7695,-8.5229,
-1.3521,-22.116,3.6982,3.4771,30.0629,-20.5217,3.4266,-3.8449,2.7183,0.024967,4.7573,-0.82358,16.0043,4.7629,
1.6213,-17.8968,4.4404,5.6788,42.3592,-13.9875,7.5595,0.24244,-2.2653,5.3263,5.9184,7.9027,12.6337,18.5771,
3.6932,-12.2437,4.8968,5.0971,37.528,-13.3892,10.2395,0.9508,-2.8523,14.8887,0.5016,10.0796,7.7783,18.5473,
0.097594,-20.1857,1.711,2.8631,23.225,-19.3348,5.2868,-2.4802,0.69333,10.6209,-5.3131,3.6907,2.4909,3.3345,
0.33248,-22.1078,4.7416,7.2708,27.857,-21.3079,4.7284,-2.0907,5.7127,9.2605,-0.89717,9.4946,2.5827,-6.1451,
-1.1335,-16.9247,5.4212,0.56828,26.1858,-20.9936,2.5167,-3.8932,2.4781,13.0435,0.60315,14.2278,3.3918,0.49034,
3.755,-15.4273,6.06,2.4621,20.2763,-20.698,4.7758,1.6433,5.2217,15.6355,5.3874,10.9638,12.8295,14.4404,
3.0478,-15.9479,6.6603,12.4373,18.0954,-29.5791,2.0789,2.9905,5.8723,8.9124,6.5105,7.8958,13.0236,6.8251,
-2.4378,-14.027,7.7069,9.7629,13.6355,-38.4096,1.9542,-3.9379,4.0742,4.5212,4.6736,9.3503,5.0113,-4.1897,
3.2521,-12.4622,7.0035,6.0441,11.6123,-36.8279,6.8986,-2.9782,2.6244,3.0451,2.7059,7.584,4.9521,1.6058,
5.4674,-11.7147,4.173,6.6455,19.5922,-32.2081,11.3052,2.0209,0.53853,1.4159,1.5795,6.6468,6.5829,4.8836,
1.5239,-8.3605,6.5741,11.7904,27.8169,-26.6602,16.1705,4.5508,3.6397,5.9107,4.1358,9.8634,8.3571,4.3497,
1.4322,-9.3051,7.1438,11.5647,27.5939,-25.5428,9.4154,2.3498,0.047095,6.5202,0.51343,5.8974,8.3378,4.5704,
4.9617,-13.3261,5.5099,3.8814,30.0356,-29.5538,7.1633,-1.4066,-5.4993,3.4774,-1.2046,3.3744,6.1503,5.0195,
2.2539,-14.4547,6.1436,3.6485,28.7157,-31.637,8.1798,-2.2866,-2.7593,1.823,2.2421,1.2437,4.817,2.3078,
-2.7018,-9.2491,5.7748,8.2501,23.6183,-27.8106,6.2429,-1.6672,4.155,2.1953,3.0717,-1.7232,6.9383,-2.6512,
-3.0219,-10.6224,5.9104,2.4522,16.4166,-28.0701,2.0117,-4.4595,3.9059,-0.82872,2.4052,-3.5482,2.1835,-3.4562,
0.29292,-15.5287,5.7968,-0.34602,17.6008,-33.3756,-2.2063,-7.3254,-1.8721,-7.2865,3.9481,-1.1662,1.8115,-2.5255,
-1.4121,-19.1765,0.86945,-1.0484,24.9806,-38.3629,2.5056,-6.1627,-2.4829,-7.0905,5.3983,0.10884,11.585,-5.0253,
-6.8705,-18.2666,-1.8338,-4.119,23.723,-39.1944,8.3808,-3.1414,1.7635,-1.1214,5.7977,-0.13865,11.1309,-4.4828,
-4.2894,-17.4118,1.4095,-3.6306,21.0943,-35.1557,5.2266,-4.1585,3.8266,-3.7055,5.2087,-1.3354,2.0271,-1.0806,
0.30607,-20.7056,1.8066,-2.4487,20.7925,-30.636,6.3591,-7.7651,-0.25917,-8.7856,5.3783,-2.7018,-2.4331,-11.1389,
0.76987,-17.053,0.25218,0.59051,22.9196,-31.208,16.583,-6.3351,-3.6178,-3.9199,2.6452,-2.5394,-6.1433,-16.7373,
-2.8915,-13.8606,-0.48608,-0.16805,21.7852,-32.9512,14.8649,-2.8217,-1.2318,-2.962,5.1379,-3.1102,2.1789,-1.9945,
-10.4306,-24.5981,-3.8311,-3.5322,14.6937,-33.8661,-0.0064893,-10.365,-3.0859,-10.4968,7.7219,-4.8515,14.5818,1.9818,
-3.7792,-23.3634,-2.3964,-0.18723,25.1403,-28.219,1.6811,-13.8409,-2.1778,-6.7335,6.5357,-5.7657,9.1272,-8.5014,
2.2321,-14.7308,0.15794,-1.1399,34.237,-27.4899,9.775,-10.6003,2.2911,0.41892,7.1074,-7.8299,2.313,-7.9914,
-3.4456,-15.052,-2.0209,-0.83074,26.6391,-30.4201,7.9834,-10.6874,1.9129,-4.1857,5.9578,-6.637,7.2357,3.3342,
-3.2389,-19.4515,-4.3098,-1.2628,21.1844,-28.1127,1.7198,-10.5281,-0.13003,-3.4527,3.1902,-6.7212,8.2478,-0.72228,
5.1504,-12.9818,0.28734,-1.1868,31.4827,-19.1951,5.9552,-7.4861,7.5903,6.8776,5.4092,-6.3177,4.8607,-9.3558,
6.7698,-1.1157,1.7161,-1.1154,34.4142,-15.633,11.3827,-7.5186,9.5457,7.4295,0.74606,1.2925,0.23047,-0.11713,
5.6405,0.6385,0.89003,-0.32533,24.3956,-17.3464,12.3867,-4.4162,3.4291,7.7069,-3.8782,8.6865,4.7962,10.7359,
3.1324,-10.2461,-1.3325,-2.4754,18.3522,-20.4032,11.8845,-3.9107,-3.7665,5.5568,-2.4407,0.2111,6.6776,-0.75449,
2.704,-10.8364,-3.4217,-2.0859,16.5281,-20.3841,10.9304,-5.3628,-3.2995,2.5723,2.2855,-3.8985,4.1077,-6.7348,
4.4699,-3.4375,-1.2882,4.3062,11.6801,-14.3405,8.3464,-1.1847,2.683,4.3461,4.0766,5.9764,3.8613,1.864,
4.6834,-3.7134,-3.1394,4.5295,17.7277,-11.5519,9.2917,-0.14994,0.11168,6.0133,2.3859,3.2075,0.25492,1.27,
3.9205,-4.9366,-4.8792,-3.455,30.764,-12.3048,13.5544,-3.5149,-6.1615,1.7962,2.2428,-8.0722,-7.4732,-4.5908,
6.3366,-2.4711,-4.8272,-5.4167,33.8594,-12.2894,10.5722,-2.5809,-2.6581,-2.4087,0.90315,-9.7568,-12.0858,-7.4486,
5.4745,-2.3228,-2.6094,-2.1996,26.0432,-8.6598,5.1176,-1.9441,4.2498,1.1102,1.3309,-1.941,-0.75578,-2.6629,
-0.15689,-5.5581,2.8496,-2.5498,26.8908,-9.1045,5.7742,-4.2378,3.5127,2.9716,1.7332,1.5497,7.4845,3.2812,
0.81685,-2.3321,1.2324,-1.9144,34.4364,-8.5582,6.3921,-1.091,3.7838,4.2395,2.1111,-0.95344,6.5535,3.0844,
1.9731,-4.3616,-6.7953,-4.933,30.683,-7.8038,6.2495,-3.1947,4.7621,3.7442,1.7435,-4.5116,0.61668,6.5147,
4.747,-9.4023,-2.531,-7.0474,19.6829,-10.2278,6.3567,-7.824,2.5479,1.1092,-1.2534,-7.1332,-7.6153,7.0879,
6.1494,-7.1509,3.6464,-3.973,20.6714,-10.3373,4.2881,-0.84662,5.0466,2.7299,0.99097,-7.9101,-4.9892,-2.7373,
1.6831,-6.4807,-1.634,-2.5298,27.867,-12.3682,3.7898,1.3738,7.3954,5.2176,5.5113,-4.7844,6.6384,-5.7066,
-0.10555,-10.6716,-6.1157,-4.5472,19.2051,-20.0622,1.8752,-7.6272,-1.0025,3.6988,0.60084,-0.39997,7.9273,-1.7488,
2.3114,-14.852,-2.8563,-8.6131,11.3041,-23.1968,6.101,-9.0977,0.021474,2.995,-3.2916,0.10597,-3.1536,-0.19758,
0.72642,-13.4785,-1.2386,-6.1677,18.8208,-20.8409,7.1812,-1.803,5.3233,1.3695,-1.6478,-1.8286,-8.2671,3.1887,
0.92381,-5.6801,0.040976,3.6024,24.6812,-13.5647,4.5812,4.3308,4.2805,3.4565,1.1021,2.8609,2.1113,9.023,
-3.4702,-9.1959,-2.8542,1.4578,18.3798,-14.197,1.896,-2.1958,-2.725,1.8026,3.4464,0.7608,1.9844,0.76857,
-3.7437,-12.0184,-6.0572,-0.075676,22.5797,-17.2016,5.1564,-3.5101,-5.9357,-3.608,-0.13465,-2.6591,0.41934,-6.0262,
-4.7243,-17.3229,-3.5242,-2.7222,20.502,-18.3387,7.0167,-2.0942,-3.4104,-9.899,-8.5627,-3.7044,6.4197,-4.9413,
-2.7539,-19.8989,3.6769,-2.3182,15.6562,-16.0333,7.8007,-5.5842,-0.072516,-9.5462,-3.4694,-5.6515,10.1321,-5.3679,
2.473,-7.3768,0.32284,1.9183,26.0451,-12.42,7.5737,-3.08,-2.2373,-0.53734,1.3185,-8.4459,6.8726,-3.841,
3.0475,-4.2831,-7.1683,-2.2942,26.6515,-9.9878,5.4315,-0.72603,-4.7546,5.5204,-2.8584,-4.3237,5.7374,4.3432,
0.2136,-18.1261,-3.1228,-2.8794,15.1705,-8.6654,5.3471,-2.8516,-3.2641,1.5738,-3.4098,1.4793,1.2958,8.6623,
0.92392,-26.5588,0.67974,-0.53772,21.2501,-9.3505,7.1956,-2.4393,-3.309,-6.9565,-2.4821,1.1494,-6.7359,1.6349,
2.0735,-22.7961,-2.4943,-7.0132,24.5544,-16.2613,4.5945,-4.4624,-5.2798,-6.7803,-3.5382,-1.0885,-2.7166,-5.4529,
1.2262,-25.0435,-8.3702,-8.2791,11.2713,-18.9008,2.6316,-7.3276,-3.7577,-3.722,-4.5312,-0.78225,3.9544,-4.8847,
-4.8731,-32.459,-11.9656,-4.6491,-2.1797,-18.972,-0.1776,-5.201,-4.2554,-5.668,-5.9464,-3.3866,6.3684,-6.761,
-0.24218,-28.5832,-1.1245,1.8966,-4.9412,-15.4234,1.2791,-1.0323,-1.1078,-2.4357,0.19476,-4.6295,7.4323,-3.4631,
-1.4329,-28.0733,-1.7799,0.57747,-2.9575,-14.7392,0.96137,-2.1757,-2.7285,-3.4944,-1.9861,-4.1107,5.2992,-3.4963,
-1.8291,-26.3889,-2.1553,0.54259,-0.85187,-13.3726,0.90392,-2.5273,-3.5289,-4.2488,-3.7949,-2.9,4.0171,-2.3224,
-1.7192,-24.3236,-1.5438,0.9922,2.0915,-11.6064,1.8138,-2.3754,-3.7994,-3.9941,-4.5317,-1.28,2.812,-0.73701,
-1.857,-22.1411,-1.2102,1.656,5.0993,-9.7047,2.4279,-1.51,-3.8124,-3.5135,-4.9827,0.0021284,2.4023,0.99444,
-1.2636,-20.3307,-0.17374,2.0386,8.1678,-7.6764,3.7284,-0.93747,-3.5836,-2.8207,-5.1657,1.9302,2.2582,2.381,
0.4992,-17.4236,2.0061,4.0857,11.7751,-4.5645,5.6741,0.80624,-3.1274,-1.446,-5.097,4.9476,1.8815,5.3714,
2.1565,-15.6551,4.5373,5.0454,13.7199,-2.1213,7.0209,-0.44743,-3.1812,-3.5284,1.2349,2.4816,0.56377,11.5571,
2.9912,-9.8953,5.7111,4.7429,24.948,2.3446,9.0095,3.918,-2.9901,-1.8706,0.19667,-3.4521,-1.8804,-2.152,
3.0529,-11.4707,4.6453,-0.12122,17.4256,-1.4115,2.4437,5.8523,0.32258,-4.8917,-3.4308,-2.5218,1.3657,-7.5663,
3.8338,-8.8543,4.8487,0.85015,6.7389,-0.36297,-1.5596,4.537,1.2673,-12.7931,3.5237,2.45,8.5148,5.9029,
2.3985,-7.6001,0.94237,0.075784,8.5037,0.8641,0.70316,0.16701,-4.3523,-11.7845,4.5176,1.5801,6.7986,6.2721,
4.6652,-11.4824,4.2603,-3.7851,1.727,-8.3468,5.9636,-4.1813,-4.0912,-5.2929,-1.0561,-2.3711,-6.1428,-5.6739,
2.939,-6.455,6.4148,-0.66552,-4.6432,-15.5587,0.78554,-4.8943,-3.8457,-6.9035,-3.4029,0.18127,-7.7024,-1.4766,
-0.61178,-2.6934,4.1017,1.7845,2.3839,-7.8765,-3.6004,0.70153,-0.24053,-4.0792,2.5859,7.4012,6.7395,9.2169,
-4.1905,-15.788,-0.24175,-2.9018,5.8565,-6.6808,-1.6971,0.90086,-0.94899,-4.0754,-0.22035,-2.4428,6.0941,-1.7,
2.5684,-11.2257,3.8701,5.226,14.9049,-0.73659,8.7686,5.908,0.31278,-2.1436,0.99771,-4.4659,3.0769,-4.2496,
-0.47775,-3.8033,4.1198,6.3587,0.99538,-3.1025,1.0121,1.2152,-2.1161,-3.9432,1.4198,-3.7155,2.8923,3.7186,
-3.1004,-0.44184,4.1138,5.2541,-8.4646,-5.0858,-6.0387,-1.0271,0.17978,-3.9478,3.504,-1.3237,8.2622,8.0746,
-3.3965,-1.3794,0.010398,2.5285,6.0228,-3.8165,-3.2661,-2.8934,1.1331,-3.7107,7.1499,-2.6903,8.7305,-1.5687,
-5.3617,-5.394,-3.1235,2.1356,10.241,-9.6131,-1.865,-7.2993,6.127,-2.7649,7.444,-7.1084,5.0734,-7.0184,
-3.1118,-3.1422,0.43838,2.9718,3.8422,-13.3746,-2.717,-5.897,11.544,1.2573,4.5873,-8.1277,2.8413,-7.0793,
-4.1304,4.5179,2.5812,-1.7863,11.083,-3.1724,-0.38482,2.8925,2.4152,2.8687,-0.26772,-0.65061,-0.94505,-9.3061,
0.69719,12.683,2.6673,3.8645,5.8387,6.4182,2.7718,7.7806,-4.2372,3.4199,-2.4208,7.8246,-0.64692,-3.2036,
8.3679,12.8861,2.0251,5.0791,-8.6116,-3.6081,-2.6974,1.5289,-3.0189,-2.0877,0.61719,2.5346,-0.1264,0.36282,
2.3222,7.0513,2.1446,-0.28731,-12.0718,-7.007,-1.3303,-1.2139,-3.0787,-11.8448,4.1951,-2.6792,1.5684,-4.2382,
-10.8325,3.2537,2.9802,1.6581,2.6318,3.5365,-1.2505,4.1611,-1.9301,-11.6161,1.5333,1.8199,5.8126,-3.9844,
-15.0028,1.1305,3.2834,3.9692,-11.6261,3.8065,-9.8521,4.8758,3.0064,-2.242,-2.4151,6.0495,5.9463,7.3424,
-3.2566,5.1603,6.702,4.9361,-25.0285,-5.3397,-7.574,0.48566,0.1747,-2.3487,-2.029,0.14269,1.01,5.2144,
6.8207,9.9119,8.951,4.3985,-9.4268,-5.2605,4.2087,-0.26638,-5.8613,-12.5721,-2.1487,-9.2659,4.0824,-9.1985,
7.8577,18.4764,9.8602,5.5809,5.2388,0.83991,14.079,2.6421,-6.9559,-11.3354,-3.4656,-10.6381,8.6582,-10.695,
9.3144,30.3833,13.6069,9.5848,19.0245,0.30735,18.055,1.5193,-7.5024,-3.4244,-2.7757,-9.0355,2.836,4.0467,
9.7197,29.0422,11.8264,2.2606,31.983,-6.9419,12.6332,-8.695,-17.1754,-15.2703,-9.3578,-20.0628,-6.011,-3.0655,
23.2365,41.3997,15.4556,2.6073,44.164,6.9722,17.6598,-2.8707,-15.6629,-19.6567,-11.6884,-18.3771,2.0624,-16.9816,
26.3013,53.0157,2.2357,-8.8773,55.6142,9.6871,17.8055,-5.8319,-21.713,-26.431,-20.8695,-22.8181,-4.0869,-26.2063,
37.7384,63.9348,1.1375,-7.381,66.3773,4.7673,22.5215,-9.8206,-17.9999,-25.3276,-15.7607,-26.7516,-3.8419,-17.8853,
48.972,72.9936,4.9256,1.257,76.4947,-0.82114,21.6521,-11.6414,-14.5098,-24.7718,-9.5124,-23.2181,-1.2008,-18.7403,
54.4693,78.9779,8.2455,-0.50563,86.005,-0.048967,28.7891,-8.7738,-13.3982,-23.5267,-6.2906,-13.8713,-3.2979,-16.893,
56.745,77.8548,10.884,-6.0187,94.9447,-3.1793,34.0514,-11.3806,-18.6197,-28.6226,-11.9389,-19.0643,-9.6077,-12.2638,
56.9553,72.9421,11.4363,-2.0426,103.348,-8.5321,35.6238,-11.4207,-13.8875,-28.1105,-7.1252,-22.0183,1.3326,-12.7333,
47.5124,56.2735,3.7602,-5.535,111.2471,-22.1202,30.8352,-16.2791,-10.4027,-27.1468,-3.5642,-22.8661,6.7963,-26.0693,
50.2055,46.8713,10.0423,3.233,118.6723,-34.1699,34.0466,-14.0973,-7.1272,-23.3488,-1.6629,-15.9508,5.1834,-27.2767,
47.4341,38.9978,14.5015,10.5108,125.652,-38.1452,36.5831,-13.4924,-2.6022,-21.2247,1.5699,-15.2347,5.1134,-15.7581,
33.7416,24.3652,5.6774,4.8183,132.2129,-49.9565,29.3266,-23.0469,-3.6512,-23.5669,2.1988,-25.1669,6.976,-20.3565,
33.1636,20.0115,7.7471,4.5294,138.3801,-54.3104,31.9056,-21.6644,-0.057871,-15.8859,3.5129,-19.8002,9.4497,-16.7248,
28.7634,7.7233,11.1385,2.8116,144.1773,-59.7287,34.3298,-19.8823,6.6943,-5.7737,8.605,-10.8994,9.3649,-8.9721,
12.9376,-6.8401,-0.85782,-0.97274,149.6266,-70.245,22.8698,-28.5716,6.5338,-4.7044,7.8475,-16.7532,13.382,-19.7622,
4.8103,-20.5297,-4.181,-0.91415,142.8184,-80.1303,17.6414,-31.6775,6.624,-1.5299,6.8945,-19.1224,21.2565,-25.3252,
-1.022,-33.3979,2.5778,0.82793,131.1163,-84.2405,16.342,-32.9103,2.6111,-6.0173,10.0963,-15.8057,17.8119,-18.262,
-12.771,-45.494,1.7,2.4653,115.7773,-85.2116,13.674,-33.1049,-0.19689,-10.2358,12.1418,-6.9036,19.3945,-11.1405,
-22.3688,-56.8644,-4.4278,0.63034,94.7306,-87.0886,11.1666,-35.6981,2.4662,-6.0063,10.2082,-1.4277,20.3998,-5.4107,
-26.8113,-67.5525,-4.1621,3.4846,74.9468,-86.2018,10.4966,-36.9304,3.2821,-2.7536,10.5601,-3.2703,9.0529,-4.6041,
-28.818,-72.176,0.18541,7.3733,63.4604,-82.7169,11.0721,-33.9915,6.7006,1.509,16.9163,-2.8331,13.089,-9.8715,
-29.7403,-74.8353,-1.5132,9.0998,47.3604,-80.405,6.7921,-32.193,13.2887,5.0339,19.0346,2.3986,26.0422,-11.4483,
-28.438,-73.2377,-2.8684,14.8201,34.8776,-74.6171,6.8667,-26.4055,16.3475,10.9983,21.2663,5.6287,28.8182,-0.63853,
-33.9624,-78.4844,-1.2503,12.9673,21.2156,-74.4784,5.9726,-25.785,11.9925,7.4462,18.0624,-8.8091,19.8581,-2.0462,
-30.9606,-72.8111,4.6094,12.6713,16.5683,-69.5274,3.2042,-23.2737,16.0933,3.1431,15.0505,-22.3805,17.7028,-7.7082,
-29.1029,-62.1758,1.9226,7.0907,12.2001,-60.5354,-1.8089,-22.3593,16.0919,1.9903,13.6655,-35.1377,14.7123,-4.8354,
-31.9362,-60.6145,-4.7004,5.4602,-1.3061,-55.216,-3.3873,-21.7409,10.5469,0.66583,8.7484,-40.1393,5.8756,1.9624,
-30.261,-55.7725,-6.5878,8.7477,-5.3253,-48.2876,-2.461,-21.6415,10.6372,-0.097248,6.536,-34.1158,-1.9485,4.014,
-25.0711,-45.6775,-3.7822,3.8843,-1.6316,-39.6058,0.57898,-18.4148,18.1939,7.6214,13.3745,-26.2842,3.9528,1.3628,
-21.8796,-38.8393,-3.3143,1.0002,-0.81035,-35.5422,-0.66105,-11.2844,18.7895,16.0821,13.7773,-23.02,15.5262,1.0401,
-16.7102,-29.7602,-5.5258,0.458,6.9508,-26.661,-2.0674,-9.1613,14.2874,15.117,10.0584,-20.6747,14.1125,3.3881,
-11.8512,-23.6363,-2.3017,-2.462,12.3183,-16.3845,1.4311,-9.0935,15.3584,12.7642,13.3113,-19.4342,7.4811,0.29225,
-10.6582,-23.6641,-1.6817,3.9527,2.9026,-17.8115,0.38089,-7.1017,15.4012,11.034,15.4051,-25.4987,10.4067,-4.5455,
-11.9469,-23.6906,-5.4372,9.982,-6.913,-23.4918,-2.534,-8.1218,10.1383,10.372,10.624,-20.5946,13.1563,3.9219,
-19.9068,-28.0535,-8.9673,2.1523,-17.585,-25.9384,-8.1666,-15.8292,-1.0748,5.8932,-0.61831,-13.5741,2.244,7.543,
-19.6769,-27.3346,-5.537,-2.3154,-25.6891,-20.0438,-6.7125,-16.3257,0.43573,3.1293,0.86482,-14.6881,1.1453,4.1981,
-11.9888,-17.2588,-3.5175,4.331,-21.0143,-13.2978,-1.7304,-11.2491,7.399,7.5208,5.8741,-14.048,4.6915,2.259,
-10.0642,-12.6077,-4.9937,10.0971,-21.4407,-10.3305,-3.7958,-7.4406,4.7859,11.1674,3.3525,-11.0357,0.31269,3.8107,
-15.4859,-18.3591,-3.0069,5.3935,-31.0005,-10.4338,-6.7015,-8.6814,2.8115,6.8819,3.3924,-13.5071,1.4992,1.8948,
-15.762,-15.5704,-0.6573,0.97254,-33.2378,-8.6027,-8.951,-10.8119,7.7045,10.0844,4.3941,-11.0094,3.0965,-2.3162,
-16.0211,-14.8771,-8.0897,-0.77304,-38.2334,-11.2198,-17.8139,-12.3323,12.7859,16.9512,-1.4132,-7.6975,-8.4175,-5.7927,
-16.9881,-20.2512,-10.9787,-1.2086,-44.1341,-12.4748,-21.0834,-10.1463,11.0548,15.9341,-1.8103,-8.1998,-10.805,-3.035,
-21.5126,-16.8668,-11.0431,-9.09,-37.8709,-10.5213,-17.1671,-14.1171,3.8834,10.3985,-2.4248,-11.8054,-10.8798,1.7266,
-18.7756,-9.1059,-10.3801,-17.2213,-24.5109,-6.9975,-12.2802,-12.3055,4.1328,11.7028,-4.6894,-12.0609,-14.5649,-0.30516,
-9.9363,-4.7033,-7.3472,-5.5827,-16.7738,-2.2393,-5.7593,-2.8905,9.6694,14.857,-0.5517,-4.5886,-5.0143,-4.1432,
-11.2681,-6.8313,-9.3167,1.9829,-21.0702,-1.623,-2.5214,-5.6094,8.1251,12.5196,0.4455,-0.93905,3.4815,-2.4486,
-13.0021,-9.7956,-10.204,-4.4026,-22.2161,-1.0435,-5.2622,-12.5034,4.2632,9.8402,-0.54509,-3.7748,1.8263,-0.3735,
-6.4379,-1.0134,-6.6997,-2.2107,-11.2422,4.3216,-7.839,-6.4508,1.1148,8.2855,0.45148,2.2361,2.6806,0.61323,
-9.4256,-3.8447,-6.2972,0.3325,-16.3522,3.5803,-7.3686,-4.6175,-2.326,5.8602,-1.5038,-0.79038,1.074,2.5046,
-10.3063,-11.3268,-3.9912,-2.58,-24.5301,2.4014,-4.5159,-9.1612,0.70559,5.5085,-3.3418,-13.2762,-1.883,2.3544,
-2.9393,-3.4163,-1.8238,-0.014818,-11.9709,9.0062,-0.87076,-4.2729,3.0736,9.0346,0.23296,-8.623,2.5685,-1.6435,
-7.3424,0.40386,-1.4731,3.6017,-20.1709,8.7068,-1.5416,-1.8474,-1.6903,8.2514,4.3166,-0.15191,3.6195,-1.7857,
-11.4814,-1.7895,-5.0004,2.1801,-29.3248,3.1227,-3.6185,-8.7262,-7.1323,1.2486,-1.4863,-3.7582,-4.5516,5.3111,
-2.3568,8.6819,-10.244,-5.9045,-13.4653,7.0327,0.69593,-9.4079,-6.4634,1.4146,-4.5301,-3.7739,-3.0733,11.018,
-0.5282,14.6687,-13.7267,-12.0577,1.4426,3.4775,4.2696,-11.0126,-7.7628,3.017,-3.5354,-6.1986,-2.1655,2.4032,
6.9755,18.3681,-4.9491,-0.0057814,15.4561,0.61776,11.4855,-6.2543,-2.7175,5.4873,3.6668,-4.6214,3.5078,-5.695,
11.6187,20.3993,-1.0368,-1.2107,21.88,2.7499,5.2527,-4.1918,-1.3492,0.096369,0.31332,-5.0672,5.9489,-10.4145,
11.8857,22.0676,-2.4206,-0.17399,17.193,4.0311,1.0814,-2.0121,-0.30413,-0.87351,-2.5978,-5.7273,2.2173,-6.4154,
7.0749,19.0563,-1.0703,7.79,2.0614,-0.79049,6.078,-2.1326,1.4011,-0.5799,3.1015,-3.2145,-1.5309,2.8874,
2.794,17.913,-0.0422,6.8406,-4.4497,-2.1893,1.3745,-4.415,-3.0213,-4.4015,0.50526,-1.0936,-0.47522,6.5705,
5.2777,22.864,-2.2086,4.7432,-4.9054,4.9319,-6.1795,-1.0166,-5.4913,-4.3786,-5.5508,-3.1972,5.0971,6.8994,
4.4789,21.01,-0.63005,6.8685,-10.3959,5.1182,0.45797,4.3471,-3.2339,-7.0082,2.0128,-1.5591,5.273,3.5932,
3.2461,19.2674,5.6745,12.7231,-11.7001,4.8111,3.8047,8.9067,-3.5215,-10.4441,9.1231,7.6935,-2.274,0.96721,
2.087,18.1112,1.4776,10.5135,-14.373,7.8966,-6.0645,7.408,-6.2028,-9.8174,-0.58329,10.1239,-6.9583,4.7656,
2.2032,10.517,-2.2264,7.2316,-16.6436,5.2537,-6.906,1.4201,-5.5896,-10.9154,-2.7175,6.3835,-0.032821,7.6131,
1.83,8.6809,0.076306,10.4131,-12.9939,0.35894,-4.3224,5.9144,-5.0133,-14.358,5.8813,4.7952,3.5846,4.5048,
0.27397,9.1242,-2.3384,9.3064,-12.6962,0.33763,-6.9552,10.3803,-1.82,-11.0862,4.5645,3.5436,-1.4508,5.6807,
-2.8758,7.3718,-2.4392,7.5428,-19.8881,0.07629,-7.2606,1.3215,7.6893,-2.4672,4.0498,4.5362,-1.605,7.5092,
-3.6675,6.9291,4.9379,11.4287,-19.1771,-7.6412,-0.076428,1.7242,15.4228,5.3935,13.4474,7.6381,8.6143,-0.1721,
2.0962,9.6469,7.7749,12.4302,-16.8212,-12.7263,3.0612,10.0567,11.3639,4.347,13.3639,8.3849,9.7847,-7.6336,
3.4166,17.7447,3.9342,6.8637,-22.5608,-4.7321,-2.4251,5.5966,2.005,-4.5909,0.51056,9.81,-2.3716,0.53721,
1.5242,22.2238,3.4569,1.3904,-21.4479,-1.3147,-6.3767,-3.1751,-6.5512,-15.6437,-8.9198,3.6778,-12.5934,1.2281,
11.0742,33.4237,7.5883,8.0559,-8.1099,4.0668,-2.6197,6.1745,-9.5321,-17.1152,-9.349,3.9393,-10.3915,-2.22,
10.4097,35.7568,4.2405,8.5364,-15.3361,9.6074,-2.9449,8.6965,-11.3703,-13.6779,-8.788,9.0055,-12.6605,0.80569,
3.2772,27.5856,3.7451,5.3731,-24.2979,10.7179,-4.9374,2.6309,-9.4833,-11.1702,-4.6453,7.7421,-15.0344,4.3728,
3.8037,30.0281,2.7972,7.7021,-10.5477,11.7621,-5.3643,5.1244,-8.6731,-13.1511,-6.5355,4.1443,-9.5528,2.9053,
7.4316,34.9751,0.70098,3.8653,-0.2741,13.9487,1.2243,7.2273,-6.7067,-10.4341,-7.5899,6.3058,-4.1592,0.32066,
6.0219,27.092,1.6232,1.7056,-8.9343,11.1838,4.0434,0.52688,-6.3043,-4.0232,-5.6883,8.3378,-2.4634,-4.5193,
3.2502,21.1279,2.008,9.3158,-12.7368,13.887,-3.4303,1.4594,-3.998,2.0025,-4.8648,6.8732,-0.38713,-1.8378,
-3.4525,22.9935,-0.76379,2.7311,-15.5882,18.5971,-13.1066,6.4333,-0.6249,3.0874,-2.8859,5.2557,-2.5333,7.1903,
-4.9321,21.8551,-2.4052,-3.4583,-20.678,14.8302,-9.6687,4.8424,3.0285,4.5899,-1.0255,4.6994,-4.0685,6.5179,
0.18381,18.6153,0.63141,4.4622,-24.2583,15.3864,-1.8579,1.6594,10.0774,6.7244,0.48203,5.3816,-5.7528,1.3064,
0.41421,19.1859,4.2089,8.2918,-26.9001,20.0071,-4.3976,3.7292,12.1243,4.6339,3.5866,10.6023,-9.987,2.4333,
-0.57497,24.301,4.4383,4.9018,-25.7681,21.2166,-4.6161,8.8079,11.8783,8.694,8.674,18.1608,-3.1212,5.6613,
-0.78121,21.1562,1.5207,2.4387,-28.3196,16.8105,-5.0618,5.1461,12.3711,11.3061,4.056,14.9023,1.1636,-0.22177,
3.845,22.056,4.081,9.2818,-21.5587,21.3455,-2.107,7.0065,18.1363,9.4224,4.536,11.8387,1.8172,-3.8239,
2.6502,22.1789,2.8721,7.2789,-18.8192,22.9571,-2.9447,8.5146,19.9409,4.0366,11.4945,13.5388,6.0467,-2.148,
-0.40137,19.4019,4.6279,5.8783,-22.9927,18.2052,-6.1424,3.183,16.8158,6.2045,9.3585,11.2802,6.1658,7.1395,
-3.9923,19.4428,4.5912,-0.49996,-19.9259,11.5695,-10.3532,-2.0695,7.3712,3.6631,-2.5312,4.0959,-3.6041,10.3265,
-3.9941,18.517,1.1823,-6.9779,-15.5968,9.1879,-10.4554,1.6699,1.8672,-1.6184,-4.5485,3.1268,-5.0756,-0.17499,
4.6816,22.9498,4.2448,1.8769,-15.8663,13.2164,-6.2122,10.0058,7.7807,2.5765,1.2681,5.1086,-0.19128,-8.1182,
5.847,28.3217,2.0619,-0.6463,-14.9143,11.9412,-6.3218,3.6209,3.4575,2.4219,-2.6644,-3.8748,-7.8926,-6.1849,
6.701,33.6118,-0.23094,-7.115,0.080523,11.9479,0.56543,0.75233,-5.6675,-3.7489,-7.5662,-8.2218,-9.5882,-1.2345,
10.6375,35.9337,-1.6636,-5.2421,7.427,9.7845,1.4951,5.0453,-10.6304,-12.2013,-8.5583,-8.6929,-7.5669,-3.0888,
10.9631,34.7415,-2.0457,-9.7483,2.1607,5.341,-2.9329,6.189,-11.4388,-15.3256,-7.5628,-14.438,-11.4512,-9.17,
14.4029,40.1291,0.72837,-6.512,15.7696,10.5644,5.679,10.3972,-10.0293,-13.2006,-6.3859,-13.3306,-11.9692,-13.6813,
21.4925,44.7112,0.92564,-0.5777,28.9234,13.5458,17.6308,13.3888,-12.0787,-14.5782,-10.1001,-8.4334,-9.0819,-14.5476,
26.2287,44.1979,2.5576,-6.5684,24.6574,11.5279,18.7423,11.8624,-13.0414,-14.4264,-10.2173,-9.6144,-6.3676,-15.8442,
25.3779,48.0535,3.127,-0.14871,26.7934,19.7543,15.4482,16.2118,-12.9818,-9.4634,-9.3633,-10.2428,-5.2626,-17.0627,
21.4451,52.4012,2.4575,8.5369,39.2858,29.6561,15.0032,22.47,-15.5774,-6.9674,-11.2116,-5.2897,-3.0187,-8.3261,
18.4716,47.5699,-0.82348,2.4815,36.085,26.1897,14.8264,14.6143,-20.1859,-11.6108,-14.6363,-4.7311,-3.5604,4.9479,
20.0144,41.1002,-1.015,-1.7648,29.3406,23.8952,18.9985,9.6401,-20.18,-12.6014,-15.9272,-11.919,-3.1058,4.892,
19.7776,50.2036,5.7945,2.1973,40.5954,32.5846,23.6429,16.2923,-17.5232,-7.9889,-10.1511,-7.8297,-0.027198,-2.6322,
17.6269,58.7603,4.4828,2.5476,42.0158,39.3064,18.3682,17.7251,-17.9178,-7.9918,-8.5784,-1.0932,-5.8104,-1.9925,
22.8358,55.2347,2.7675,0.9485,37.5667,40.3222,18.23,16.6616,-13.9507,-10.4046,-9.0276,-2.956,-4.4974,-0.42671,
23.8762,52.403,2.6015,-0.55467,38.6876,35.4928,18.5824,15.6619,-14.0775,-12.6723,-12.3423,-6.1528,6.3777,-2.8112,
16.6586,53.5972,0.51721,-2.932,37.8121,32.8811,16.0212,12.3116,-14.6791,-10.9481,-11.1198,-5.3017,6.9589,2.6601,
13.4897,47.73,-0.71889,-3.4787,27.1075,34.0417,14.8187,12.7784,-14.0396,-12.4604,-9.2476,-6.1887,-4.787,3.7055,
17.9834,44.3843,-1.1577,-2.3057,24.0348,34.4095,12.4838,16.832,-16.5712,-11.7128,-11.5848,-4.8531,-6.9099,-3.7476,
17.3861,45.0954,-0.12413,-7.9521,25.0031,28.9705,9.3244,14.858,-16.541,-2.3329,-12.3357,-1.6696,-0.71054,-4.4869,
15.1381,43.595,5.9089,-9.1622,16.513,23.6169,7.0777,12.2793,-17.7182,-2.4339,-14.7291,-4.2207,-6.2115,-0.1203,
18.0862,47.7278,7.0006,-1.8636,11.6658,28.4666,6.6531,16.3632,-16.6551,-6.6267,-13.3634,-1.5574,-10.6595,0.36931,
17.9649,49.6848,-0.16835,-2.7161,16.2685,29.6507,2.8794,15.3814,-18.0659,-7.6753,-14.4898,-1.4639,-8.5737,-6.4018,
15.9229,52.0061,-1.1223,-5.9274,23.4874,25.9434,2.2245,11.5662,-20.8386,-8.6608,-20.3691,-7.6428,-4.2031,-11.8025,
11.8341,52.0193,0.15029,-8.7052,14.6063,24.628,2.8144,9.667,-15.4905,-9.8284,-19.8698,-7.9072,-1.7813,-12.2991,
8.4729,46.7289,-2.5103,-6.4957,1.9198,25.8017,-0.96989,11.7385,-8.5355,-4.177,-11.6882,-3.8173,-1.9154,-5.0537,
7.7236,41.756,-4.5288,-2.9724,7.3482,27.869,-1.6346,13.2034,-12.6026,-0.79291,-7.8534,-2.3832,-3.0058,-1.1351,
6.537,35.635,0.32242,-6.8917,14.3794,28.8482,4.0069,7.8316,-14.4978,-5.3249,-7.623,-6.8195,-3.5486,-8.0566,
4.94,33.7379,1.9903,-4.309,5.5624,25.43,4.4898,6.1564,-6.6381,-3.8001,-6.4427,-6.1694,-3.5766,-7.3322,
3.1971,35.0878,-4.3959,-1.1582,-7.7865,23.9042,-1.5644,10.6075,-2.8656,4.1405,-6.5383,1.9133,-3.3622,4.6771,
2.5233,33.9469,-6.0603,-4.4627,-5.8731,31.1469,-1.4705,10.4535,-5.5861,2.4458,-7.5918,0.83467,-4.1244,5.3603,
3.0948,36.9718,-2.5632,-6.3646,4.3612,36.7499,7.0538,10.0672,-7.9021,-4.6904,-7.3777,-2.8308,-3.154,-0.50491,
3.3913,35.7171,-0.96337,-10.3212,0.24295,31.1704,9.0405,9.9449,-9.8383,-6.8198,-6.9353,1.1952,-4.4108,-4.3312,
4.3931,28.9948,-3.0747,-8.4967,-6.7615,31.9515,4.4007,8.6253,-7.0788,-1.3489,-5.7958,2.3288,-0.53074,-4.3119,
4.8527,22.1936,-3.6134,-6.2994,2.5625,37.9884,5.3417,8.8309,-1.5927,3.7939,-0.86854,1.9481,8.9009,2.9365,
2.8741,15.8006,-2.1915,-10.501,3.1314,34.986,7.6726,7.096,-0.77397,3.807,0.87057,6.4107,10.5362,4.4473,
0.77341,10.5142,-2.542,-8.907,-4.2869,34.815,6.7303,7.1522,-1.2095,0.20417,-2.5557,4.0979,4.6014,-4.9786,
-2.8884,6.7499,-2.1485,-7.1673,-4.2706,38.7519,7.0494,6.4821,0.068397,-1.4948,-2.1614,0.71851,6.0125,-5.8847,
-1.992,10.442,-3.2246,-6.0146,1.0466,41.9701,7.3495,5.852,0.30503,4.6202,0.13726,7.665,13.1234,4.8325,
-3.3185,8.8514,-8.334,-9.028,1.466,44.7543,2.57,3.5729,2.2147,6.7533,-3.2452,6.241,7.9979,6.4705,
-4.8066,4.223,-6.1468,-9.6911,-2.7193,45.2026,-0.71722,3.5995,8.5898,1.2864,-4.7377,3.6974,1.9744,5.8413,
-6.6874,3.7286,-6.0189,-8.3867,-10.5099,40.3213,-7.6641,4.1064,0.12062,-5.7802,-6.1407,3.2346,0.65063,4.7679,
-1.7071,6.1562,-3.4884,-10.0529,-5.7822,40.0709,-8.8917,6.5113,-9.2868,-2.7825,-5.0491,1.3531,1.3347,1.8305,
2.2517,9.1613,-1.3509,-9.9317,-3.0247,39.5949,-7.8762,5.6387,-3.9089,2.2052,-7.6387,3.6825,-3.0841,-4.0643,
3.0812,13.4321,-2.7159,-4.9972,-16.9432,37.2194,-7.8854,6.7464,6.4487,7.3753,-2.3594,12.6203,0.47559,0.51806,
0.48596,4.9132,-1.1069,-3.2514,-27.3755,33.0578,-8.8587,4.8956,2.2052,2.5942,4.0484,8.0065,6.2314,1.933,
-3.6408,-5.2638,-0.31735,-3.2975,-11.633,32.2794,-6.1578,3.8788,-8.2912,-3.1048,-1.2559,2.4647,1.7604,-7.5827,
-5.8325,-8.3219,-2.2265,-0.68905,-0.69116,31.307,-0.96764,5.5742,-1.5268,6.2405,2.6758,10.03,3.583,-0.37887,
-14.1596,-21.9226,-6.9136,-1.1296,-14.147,17.3774,-5.2479,-3.4373,0.010648,2.974,3.4796,9.4282,4.3319,10.2492,
-13.551,-30.3689,-2.4015,0.14297,-10.1652,14.1654,-3.7282,-4.4359,4.5898,3.0361,5.44,14.8881,9.6156,10.839,
-12.7377,-25.6545,-1.2928,-2.2755,-4.2524,21.0283,-2.058,0.65071,10.5811,16.3515,9.4521,17.8509,10.4851,5.3682,
-18.24,-27.9716,-7.9641,0.27115,-8.336,20.7309,-11.5755,-1.7985,8.0181,20.1911,6.4749,11.4777,4.0714,5.0461,
-21.0022,-31.1138,-5.5583,3.1472,-11.692,19.4868,-12.8094,-0.72691,11.3931,14.6411,8.0143,15.6091,7.2014,10.5282,
-25.5264,-31.6569,-8.5986,-4.7547,-22.5599,20.728,-13.9688,1.2451,11.1917,8.9421,7.0518,11.7807,8.6977,3.6297,
-17.4873,-25.6601,-8.806,-2.3002,-19.5191,27.438,-12.8897,4.3039,9.3149,14.9136,7.3516,7.4584,8.4168,2.689,
-14.5099,-28.9412,-3.9394,-0.71595,-16.4197,20.9715,-11.1524,-0.77504,6.8278,14.0183,3.536,10.3849,3.573,8.3123,
-16.5316,-27.2045,0.15362,0.29111,-25.5577,16.339,-9.5192,1.6818,6.9003,13.1774,4.288,17.4748,6.2509,14.0803,
-16.9857,-23.6443,-1.784,-1.1724,-36.5575,16.3227,-12.3223,3.9913,7.4504,15.2791,8.3692,14.4984,15.0351,5.5225,
-15.0027,-28.0102,-1.195,2.7543,-39.1847,8.5945,-12.5473,-0.1046,14.2342,14.8443,12.6873,9.7721,13.1687,-0.11153,
-15.3076,-30.9091,1.046,6.6862,-43.3414,1.5711,-12.0352,-0.33952,16.0315,10.8203,12.1673,12.319,2.9788,2.5465,
-17.0405,-24.957,5.0809,5.08,-50.1407,9.4306,-11.0723,3.7784,9.0438,12.3405,9.2679,18.5695,1.595,0.22431,
-16.5002,-22.4959,2.3657,4.7754,-46.6501,13.6852,-13.7822,-0.30489,2.7164,14.01,8.712,18.9014,3.9092,4.0675,
-14.7868,-26.2074,-1.3917,3.2836,-33.4872,11.659,-17.0526,-2.9377,5.2049,10.5183,9.8765,14.1519,7.2901,17.0798,
-15.3459,-27.5275,-0.82627,2.6046,-32.9242,12.4055,-17.9577,-1.3152,12.1235,6.5127,8.8015,10.8926,12.6373,16.537,
-12.7379,-21.2961,2.3568,6.5457,-33.5999,16.2407,-13.7472,0.9329,12.119,6.8453,6.1043,15.3003,9.7099,9.5192,
-11.9736,-21.4646,4.1436,3.7428,-29.1737,13.3381,-9.066,1.3589,5.6073,7.3985,1.8816,16.3105,-2.9238,9.9119,
-15.1118,-22.1051,4.8591,3.518,-26.9412,11.5737,-10.9324,1.759,1.8961,9.3649,1.7685,13.4039,-5.6411,11.2456,
-15.169,-17.8863,3.1213,3.7893,-24.3604,14.2537,-17.9887,-3.6487,5.6392,10.2493,3.5911,14.5278,0.00043045,13.4634,
-11.1261,-16.09,2.6928,3.8027,-20.7298,17.4956,-16.1867,-2.2247,10.8443,9.3931,4.5807,14.3793,1.205,12.4144,
-13.5913,-15.3658,-2.5298,1.8876,-23.1012,17.1695,-13.0461,1.042,8.9885,7.1426,0.69063,6.045,-5.8565,-1.5871,
-13.9811,-11.3104,-1.6551,-1.8411,-24.8486,19.2723,-15.3969,-0.70772,7.7263,9.847,-1.038,8.8153,-11.5311,-2.6967,
-6.1526,-7.0165,3.5057,1.4026,-22.6346,21.7316,-18.5702,1.5041,6.0572,12.3895,0.22931,15.7584,-7.706,11.2032,
-9.6398,-11.4158,-2.4892,-0.1278,-29.9536,17.5352,-18.4203,2.8601,7.622,10.6822,2.6257,11.4385,-0.49471,8.6028,
-15.328,-17.4798,-7.6425,-4.9404,-37.3152,13.1087,-13.9406,-1.6502,9.5752,10.5232,4.3963,9.3059,-2.8752,-1.5543,
-11.2748,-14.2618,-4.5324,0.89965,-30.0148,13.0455,-8.0425,-3.238,5.8672,8.2046,-1.893,14.2911,-9.2106,0.70856,
-9.393,-9.7902,-2.0913,1.569,-23.1523,9.1293,-4.4265,-2.3208,5.7566,6.9894,-2.9842,14.157,-4.5601,4.2815,
-14.6145,-13.5416,0.92667,-2.8639,-31.4041,7.1357,-8.9816,-4.1098,6.8575,8.0163,2.497,9.9332,-5.7328,-1.76,
-13.7378,-16.1033,7.1374,0.20023,-35.7866,14.9021,-12.2993,-3.381,9.3379,10.9096,4.2751,10.7832,-9.7274,0.27356,
-11.4671,-14.173,4.2988,1.6342,-29.783,16.4183,-13.9717,-6.5528,9.2598,6.3984,6.9109,13.9924,-2.395,7.4878,
-11.5022,-11.6356,-4.3951,-0.1508,-24.3806,14.2281,-13.3741,-8.3286,9.9092,6.2557,9.63,12.9121,0.88191,6.3154,
-9.366,-14.3117,0.20718,-1.5878,-23.8819,12.8923,-9.1975,-3.9723,10.2788,7.3268,10.0163,9.2451,-3.5091,4.0085,
-5.9118,-11.5251,3.569,1.3993,-22.9311,9.7084,-10.0917,-4.2165,9.6618,1.5843,9.897,9.1721,-3.2992,3.2858,
-6.2802,-2.8796,-2.1885,0.59222,-20.8321,8.8847,-8.763,-9.025,12.6978,0.76614,6.6519,5.9709,-1.4138,-0.044602,
-7.5901,-3.9116,-0.37001,-3.5402,-21.2692,8.1111,-5.5861,-11.6165,14.5875,1.9255,1.6735,-0.89531,-7.8365,-5.1036,
-4.9656,-1.9897,4.2315,-3.0868,-16.8598,5.9372,-5.01,-12.1248,12.5069,1.569,3.7422,5.1844,-11.946,-3.5921,
-10.4522,-3.799,-4.6991,-12.0606,-14.4019,3.6528,-7.6015,-14.2899,7.9001,0.51051,5.9283,6.3192,-8.8187,-2.8946,
-16.8152,-11.0426,-9.9609,-12.5421,-15.2253,7.5307,-6.9042,-10.2988,6.703,3.1312,3.4032,-1.0496,-3.2281,-5.3723,
-12.4321,-9.416,-7.4353,-6.9695,-15.2759,7.0787,-6.0082,-4.3784,7.2644,2.4612,3.1988,3.8338,0.33979,-6.014,
-7.1064,-4.2717,-6.2658,-6.3099,-13.6359,4.4852,-4.4424,-0.018355,9.9621,0.14434,6.1403,10.1113,0.56037,-4.4479,
-11.2595,-4.2562,-10.4694,-4.2443,-16.4334,6.3851,-6.8272,-3.6324,6.713,2.787,1.1924,2.515,-6.4629,-3.4579,
-15.4042,-0.14441,-10.8051,-2.061,-19.7857,9.3764,-7.8638,-8.7171,6.3107,10.333,2.5671,5.2566,-7.5209,-2.2861,
-13.5159,2.7565,-9.6746,-1.9376,-18.5986,6.8859,-6.9099,-3.8556,11.7169,12.1229,5.3054,10.2436,-4.1774,-3.5954,
-10.0538,3.3141,-7.4074,-1.5804,-11.9393,8.1595,-11.075,-0.4912,11.7367,5.37,4.7461,6.0136,-4.1682,3.6102,
-8.4867,5.0434,-0.21405,-2.9318,-8.8128,12.4906,-10.8924,-5.282,13.4427,5.0478,6.8714,4.6884,-3.9181,12.5521,
-5.5672,8.5974,-2.6116,-3.2381,-11.1759,11.741,-9.2748,-4.001,19.3848,11.4936,5.4951,6.8175,-5.6109,5.5327,
-5.7148,4.7069,-9.2035,-8.3462,-14.8441,8.6266,-11.1287,-1.3506,18.2215,13.6963,0.8268,8.3368,-7.2027,-1.066,
-8.9876,-1.1189,-4.0718,-13.8712,-17.5689,4.4934,-13.1123,-8.2596,9.6566,9.7408,1.5003,6.6316,-5.5655,5.5052,
-6.5199,7.1432,1.4749,-3.8797,-11.2119,7.5984,-11.8434,-3.9074,8.595,10.6028,4.785,5.7515,-4.7494,4.2113,
-2.5133,10.8119,-0.30081,1.4143,-5.9599,12.6857,-10.4094,6.6909,16.9974,15.9922,4.2565,9.5038,-5.1873,-7.3696,
-4.0497,4.6196,-1.0057,-3.2498,-9.6996,9.2734,-11.4721,0.26388,12.3621,13.8278,-1.5425,7.7287,-4.1532,-2.8301,
-1.6376,6.0296,4.1164,-0.88566,-5.0203,7.5117,-8.1327,-3.3674,3.1847,11.3109,0.71963,5.0954,-1.2529,11.4397,
-1.7803,3.0168,3.146,-0.59156,-11.7087,4.4099,-9.3319,-0.51378,-2.068,4.6067,1.8813,3.5848,-3.3469,3.8842,
-5.0477,-1.9847,0.54736,1.3724,-23.0573,5.1094,-12.1462,1.9274,0.94835,1.438,0.32238,4.8158,-4.5921,-1.6513,
-2.0937,1.2674,1.2374,4.423,-14.2023,9.8646,-8.284,1.5703,4.0245,5.4491,2.9541,3.8039,-3.5937,11.2218,
-0.76328,1.4323,5.2605,5.363,-11.6631,3.7291,-8.5103,-3.5851,2.5782,5.3631,3.5002,1.8885,-2.1728,13.682,
-6.743,-4.6792,5.1859,2.3896,-25.0634,-3.9665,-11.6151,-5.5396,3.1464,5.2823,1.603,1.0518,-0.35518,1.0505,
-3.4462,5.2428,1.0186,-0.16365,-20.7875,10.3715,-11.3999,-0.3863,2.9578,6.4114,-2.8317,-0.93928,-4.6724,2.4339,
10.2582,19.0282,-2.4172,3.7023,-5.4403,23.8492,-8.7879,3.975,1.3343,7.9551,-2.1797,0.5631,-4.8742,13.3749,
11.8119,28.1299,-4.4414,0.34716,-0.17266,32.0592,-10.4298,1.0854,-2.8435,2.4162,-1.8079,-2.6037,-4.8227,4.6187,
14.2366,34.8782,-1.0414,2.0136,-1.8495,25.074,-8.5987,8.974,-3.3958,-1.3442,-2.9047,-3.1708,-5.2563,-2.6483,
15.5514,37.3646,-7.4866,-5.0974,-5.8361,26.2209,-13.6267,6.7486,-10.1822,-7.7713,-11.1664,-5.6319,-12.4129,2.0901,
20.4031,35.6054,-4.1451,-2.8631,-3.5575,29.9505,-14.737,3.4514,-7.6428,-4.4127,-6.6398,-0.95546,-8.7754,8.7138,
22.5534,39.7355,-1.9682,1.1651,7.2607,29.1173,-10.4783,3.7262,-10.0763,-4.6299,-7.2052,2.9583,-11.1414,0.96015,
25.2975,43.8594,-2.573,-3.966,12.8511,29.5399,0.032289,5.1899,-11.6409,-6.0393,-9.9064,3.9861,-14.5703,0.17964,
16.0667,30.1403,-5.3114,-5.1746,-0.93561,25.3567,-4.7906,1.9862,-9.9788,-2.7847,-11.2404,-1.0736,-14.6606,1.6144,
8.354,22.5471,-3.0643,3.3308,-8.1101,23.3536,-12.6976,5.7236,-4.5591,5.0954,-4.7812,5.7395,-6.5499,2.4817,
8.0939,19.5073,-1.6754,1.9259,-8.3466,16.8905,-12.177,6.1029,-6.455,-2.6824,-5.2175,5.1539,-5.9157,-9.4771,
17.9722,24.8443,3.9688,4.4615,1.5537,23.8308,-1.0825,8.3883,-1.9703,-2.2804,-3.2172,-0.21698,-2.4277,-11.5601,
8.4582,15.3999,0.11521,-3.76,-3.6007,20.7137,-7.525,-3.9256,-3.5393,-4.3128,-5.1938,-6.2295,-2.5231,0.94367,
4.3353,7.968,1.3136,0.56299,-7.4823,11.5172,-9.2427,-6.3412,-1.6397,-6.2232,-1.2667,2.098,2.2076,14.987,
6.4853,6.526,3.6449,5.3495,-3.1772,12.7543,-6.7599,0.30581,-2.0238,-7.778,-2.1551,1.0078,1.1113,9.8698,
6.3373,6.3757,5.5956,-3.8893,0.14718,20.9074,-5.6312,-0.43567,-2.625,-1.7679,-2.7484,-4.1137,-1.6067,-2.5323,
8.1263,6.716,4.537,-3.897,-1.5489,18.4476,-5.5343,-6.917,-3.6728,3.3998,-2.3426,2.1587,-4.6433,-4.5495,
9.8079,3.1796,3.0595,0.43422,-4.5894,15.6535,-4.9613,-4.3328,-4.1753,3.4368,-4.3712,4.1983,-5.0881,-7.892,
4.6401,-1.1085,0.70672,-3.2068,-9.8574,19.2941,-8.279,0.024951,-7.0583,1.0615,-5.7961,1.7773,-0.68545,-5.7312,
-3.5925,-4.6574,-2.9516,-3.2558,-12.8817,25.1258,-11.3977,-2.1462,-6.8758,-0.68946,-4.2431,7.2143,-0.88529,4.4946,
-5.064,-6.5474,0.84118,2.001,-13.3138,27.7159,-6.6162,-5.1507,-1.4018,-1.3712,-0.85522,9.9147,-3.9654,2.0555,
1.2657,3.2457,5.3702,8.3886,-14.202,31.5963,-2.6041,0.21984,0.85173,-2.9759,1.8474,5.2222,0.37008,-6.9857,
1.9126,5.2201,3.3608,11.0188,-15.519,32.3521,-4.617,4.7864,0.077725,-6.4128,3.9057,2.2578,6.8554,-5.3612,
-1.3356,-2.5649,3.4001,12.0449,-11.9368,28.2418,-3.6171,-0.080537,-0.6503,-6.7509,3.9124,3.8095,1.8647,5.8062,
0.43174,8.9172,6.8115,13.0094,-0.85649,30.1622,1.1797,1.1296,-4.2267,-1.2847,0.062197,5.2682,-1.863,9.0733,
-1.2814,12.4795,5.6799,6.6853,-5.3846,28.1115,0.38555,3.231,-9.9986,-0.96662,-2.5926,-0.59152,5.2386,-0.87111,
0.96488,4.7411,5.0979,8.9355,-10.6049,29.0766,-0.36025,3.2783,-9.1575,-2.1137,1.1781,-1.2792,9.9862,-0.095715,
2.5942,3.2518,-1.7154,3.3377,-3.4609,26.1267,-2.9902,-1.4981,-10.2953,-3.6736,-5.882,-1.9253,0.95092,4.4898,
5.0899,10.5283,1.0384,-2.4064,7.5925,23.3536,1.2863,0.27875,-2.206,1.6078,-3.8425,-0.12325,-2.2394,2.051,
3.8204,9.8963,4.3508,0.63069,1.8346,23.3989,0.72746,4.6006,0.81864,1.9935,-0.71922,0.8487,0.30533,-10.1234,
-0.26567,3.518,1.6791,1.0748,-12.3755,22.4769,-4.1369,2.8783,-8.8714,-3.4288,-5.9787,2.726,0.76894,-6.1415,
0.71459,1.8611,3.0246,3.4204,-13.4407,18.2362,2.8602,-0.18648,-9.303,-1.7768,-3.2099,3.0443,4.0973,8.327,
-4.3895,-5.2404,1.1564,1.5284,-12.875,4.3676,0.51945,-9.5748,-4.6475,-2.3931,2.0444,-6.0559,3.1285,15.1789,
-7.7418,-12.88,3.7379,3.6057,-25.3591,0.0079513,-10.8401,-14.0622,-2.1997,-6.829,6.5013,-10.7545,2.6996,0.16816,
-2.4568,-13.0713,6.8883,10.6199,-28.1761,5.3099,-7.2974,-5.5055,-1.5856,-6.9014,3.7008,-2.8781,7.8401,-7.6754,
-1.3451,-8.9126,2.1367,7.5726,-12.3855,6.9199,2.2999,-0.83686,-2.9362,-3.1129,-2.7877,3.5611,5.4415,-0.46598,
-0.54145,1.9865,-0.64309,3.9848,2.4576,13.4942,1.9205,0.41819,-5.8935,1.1712,-2.3795,1.6602,1.9815,5.1051,
1.6604,2.5905,-0.36331,3.5049,-2.7511,12.9257,1.0826,-0.32958,-6.2631,-1.5499,-0.54928,-2.5366,6.4426,2.148,
0.83767,-3.5907,2.3094,3.0534,-2.8272,6.6063,9.935,-0.551,-3.7179,-3.1444,3.5808,0.2665,11.117,-2.0785,
-8.8536,-5.7854,-3.1314,1.4244,-4.1036,5.728,-1.7479,-3.41,-5.423,-1.0275,0.95583,2.1787,0.80948,-1.4719,
-13.6252,-2.0645,-6.3182,-1.5538,-17.9574,5.8665,-15.743,-1.2774,-5.0979,2.8903,-4.4044,5.9046,-4.542,1.5087,
-8.9509,1.4342,-5.9386,-9.1729,-16.2775,0.21186,-9.8577,-3.6109,-8.6484,0.30675,-10.8886,5.5503,4.4077,-2.9201,
3.6373,4.7222,-0.28014,-8.141,-1.2009,2.6093,4.8338,-7.733,-6.2013,0.28834,-3.4868,3.2891,14.2661,3.5216,
1.9728,-2.3096,-0.26333,-7.1702,12.9712,-1.4037,4.9054,-7.751,-2.9367,-0.69283,-2.7952,0.19924,6.1793,3.3103,
-2.2429,-5.3045,-7.2374,-5.0527,16.5312,-7.8269,-1.8968,-2.7066,-7.8222,-0.41029,-9.6174,5.249,-1.6633,-4.842,
0.302,-6.4323,-7.2849,-6.678,23.2524,-6.3932,6.4124,-4.4722,-10.2451,2.9886,-6.148,9.2726,0.84688,-4.0694,
-0.92119,-13.0364,0.62381,-3.1441,19.6878,-8.6609,10.1248,-6.3733,-6.4972,-0.80641,-3.1278,4.1367,0.072935,3.1645,
-2.3122,-9.8437,5.4071,5.2398,7.4196,-9.5871,9.0353,-3.0984,-4.1791,-4.132,-2.4578,3.8885,-0.41337,1.0464,
3.1292,-7.3248,5.0827,0.58705,11.7949,-8.048,12.3496,-3.3944,-3.9284,-3.8841,0.099816,3.6552,7.8066,-6.2472,
5.1106,-10.9827,4.5367,-0.65346,13.2563,-9.7343,8.9575,-2.4678,-1.0411,-3.4101,-2.0753,1.7487,6.6148,0.15315,
-5.3192,-11.7702,1.8542,-1.0964,2.3378,-11.0786,0.22515,-0.39133,-0.014565,-4.1696,-4.3612,2.6078,-2.4589,2.5543,
-8.1335,-13.2332,-0.90863,-1.7535,1.4744,-8.7267,1.4165,-2.5375,0.22728,0.65988,-1.9303,0.2822,-3.5167,-4.1069,
-4.753,-12.9211,0.59215,1.7257,10.5452,-13.0238,5.1879,-4.3134,0.21364,3.9947,-1.3326,-2.6272,0.068774,-0.48602,
-6.8779,-14.074,1.039,-1.7519,10.3944,-16.5807,1.0202,-6.9467,1.1647,1.8269,-1.2526,-1.5053,-1.3816,1.4713,
-8.1527,-15.8809,2.1817,-4.2981,4.2272,-11.4883,0.23587,-6.2891,8.0845,2.4404,4.3659,0.27203,-2.9857,-4.1603,
-9.3505,-21.9177,-1.0824,-8.6197,3.7326,-16.3428,1.9092,-10.0089,8.3225,-1.8032,5.7914,-0.94936,-3.0478,-7.5259,
-4.4509,-22.0487,2.3567,-7.6208,7.3648,-24.0391,2.7587,-13.265,6.3771,-1.6952,5.4437,-3.7847,-1.9008,-7.5565,
-0.086538,-13.254,4.3845,0.79063,8.1282,-20.9095,3.3161,-7.4074,10.0919,2.5039,8.2506,-5.7268,-1.5453,-10.7185,
-8.2761,-13.905,-3.1094,-4.5595,3.3022,-21.5832,4.5634,-8.4092,9.0044,-3.4309,5.8273,-5.3832,-3.8632,-6.219,
-9.7081,-9.2143,-0.030783,-4.7678,2.6216,-22.2164,11.5204,-11.2791,7.4998,-3.2251,5.4777,1.6883,0.22498,5.2409,
-6.956,-7.4561,0.21249,-3.7589,-0.18675,-21.6063,11.0702,-8.9152,1.5067,-2.7906,3.4618,-2.028,-1.4757,-3.5093,
-2.4413,-3.8757,2.3689,-1.3637,5.3681,-13.8024,12.5751,0.53782,2.6211,-4.7923,7.8338,-2.1473,1.2644,-9.8062,
0.11529,-1.715,2.2268,0.16392,2.6356,-12.9743,12.3025,-2.8689,-1.8745,-11.2537,4.4713,-4.429,0.22417,-6.8077,
3.7238,-1.8531,4.2623,-0.086881,-0.65577,-11.9549,11.8054,-5.3479,-2.9673,-5.9987,2.0339,-7.7787,-1.9584,-0.37367,
2.0541,-4.152,-0.3322,0.8822,6.132,-6.4173,8.205,-2.1349,2.031,1.5916,1.9114,-5.8657,-3.2872,-0.83319,
2.6542,-7.0364,-1.999,2.0346,11.3082,-2.8983,9.8818,-1.2835,4.0788,2.2194,2.0381,-7.201,-0.43841,-8.255,
3.4588,-11.9168,-0.43329,-1.9439,0.50633,-11.4015,12.181,-3.1351,1.4234,-0.32386,2.3978,-13.0355,1.0337,-11.1342,
-1.3282,-13.3712,-8.3608,-5.4429,-4.5857,-14.815,5.4248,-5.5983,-0.8309,-0.54563,1.5308,-7.1919,-1.6797,1.8262,
-3.4175,-11.8454,-9.5462,-5.839,0.75109,-8.8647,4.3762,-5.5032,0.90595,0.21024,1.6801,-3.1452,-0.85574,9.6706,
-0.07938,-8.0016,-1.0196,-1.8733,3.3576,-7.6094,8.6929,-1.0756,-0.35324,-3.4178,-0.10792,-6.0895,-1.5273,0.65422,
4.023,0.43245,3.1387,-0.55579,7.7356,-5.9478,9.8588,6.4609,3.7651,3.295,3.0318,1.2655,-2.6407,-6.3747,
0.8893,-1.5219,-0.42388,-3.4147,4.3788,-5.1092,5.8926,7.5193,8.3597,7.4358,3.3321,3.1176,-2.9644,-7.4382,
1.7998,-1.4301,-0.88038,2.0928,-2.1505,-3.3564,13.2523,7.5501,1.1096,2.6514,-0.24231,0.038442,-4.7148,-3.1355,
4.3434,5.1631,1.8235,2.2082,-1.2983,-3.8779,22.3391,6.8561,-6.4288,0.80506,0.49513,1.7234,-4.1909,4.0425,
2.3955,6.0582,0.99122,-2.0221,0.46657,-8.7069,18.8296,3.3113,-3.8739,-0.44854,0.70685,2.3429,-4.1804,7.8973,
-0.15878,0.39251,-1.9608,-0.45452,-5.346,-8.6665,14.3253,0.22053,0.21495,-3.7961,-0.29989,3.1666,-0.55515,6.941,
-3.0413,-7.8262,-3.2894,-0.90919,-12.2561,-10.5571,11.0552,-6.5416,-3.6543,-11.2811,-0.76383,-1.8441,1.8883,4.1144,
5.3359,-2.5359,3.1749,5.4119,2.459,-6.5487,11.8382,-3.2566,-4.3989,-11.0862,0.24587,-4.1436,3.7032,1.9394,
5.98,1.4726,4.4307,5.5696,10.0243,0.11072,16.9125,5.1335,-1.7249,-9.4571,2.6417,-3.895,3.481,-5.8898,
-1.8508,-5.1234,-0.41465,-0.30846,-4.6772,-3.9935,14.2107,0.24599,-2.3445,-10.5767,3.6883,-9.2051,1.1027,-6.7414,
0.91181,-6.9852,3.2257,0.91534,-5.7221,-8.3332,5.4043,-2.4199,0.92964,-6.8086,-0.14845,-14.196,0.31368,-2.7215,
6.4005,-4.3972,10.5037,0.61923,5.9494,-3.2537,6.7671,4.233,6.4172,1.0715,-4.2371,-12.6215,-2.8384,-7.6197,
3.6063,-1.7227,6.9814,-1.8281,-4.0488,1.7618,9.7355,3.4971,3.1397,3.4173,-2.5366,-10.8999,-4.1144,-6.1986,
1.9437,-1.1374,2.2237,-3.1646,-14.8931,-4.1285,7.2232,-4.9079,-2.8333,0.32023,-0.93864,-11.2102,-1.9393,3.8142,
6.6478,1.8229,5.4648,-1.0466,0.10053,-1.9526,9.6818,-1.7209,-5.5553,-1.6276,-1.3643,-3.7887,-4.7155,2.6215,
5.5258,1.9547,2.9675,3.5958,12.2663,11.4212,9.8241,8.7465,-3.0531,-0.80685,1.8509,0.053794,1.5932,-4.0435,
-2.0366,-4.4291,-0.58455,2.8981,-2.5697,9.2897,2.9681,8.7036,-0.94124,-0.27605,2.7041,-5.2516,11.621,-4.2828,
-3.8426,-3.6814,1.8607,2.2418,-6.6336,0.53711,6.6464,3.3607,-2.8134,1.6687,-0.83257,-3.9727,10.4414,-5.4721,
-4.0942,-3.9427,2.7131,-2.7132,6.2982,1.9514,11.55,-0.69711,-5.5369,0.60449,0.18148,-2.2883,1.6199,-4.1797,
-2.1613,-8.7674,4.7195,-5.6834,3.2692,3.0396,8.2059,-0.89625,-4.4813,0.32725,2.8221,-1.9095,-3.5385,3.5429,
-5.1649,-11.375,2.7493,-2.6911,-5.3633,-4.6148,5.0623,-1.5656,-4.9356,1.5127,-0.48044,-1.5542,-4.0493,6.4636,
-9.6755,-11.6566,1.1379,-0.60167,-4.5594,-8.1946,5.7226,-3.4001,-4.1573,-2.4347,1.4763,-6.2815,0.049814,1.7372,
-4.7566,-9.511,2.5159,2.8089,-3.8036,-4.8104,5.3793,2.5889,-3.9078,-5.1807,4.2803,-10.7253,1.0112,-6.0798,
3.2418,-6.53,2.3647,2.6401,-2.1294,0.78068,9.877,10.1462,-1.7454,-1.4956,1.6131,-4.297,-1.9418,-3.3046,
2.0832,-8.0661,3.6693,-0.89251,-3.9298,-0.7122,8.3203,5.6812,-0.1942,-2.8519,-0.89403,-3.075,-1.8255,-4.0704,
-2.6213,-11.6797,4.1723,2.2948,-6.8271,-6.6948,2.2777,-0.20303,-0.42374,-4.3678,1.8109,-6.9877,1.4177,-9.8515,
-5.8381,-17.7274,0.065535,0.22888,-8.8278,-10.1495,5.5155,-1.6371,-1.3622,-1.6956,5.5587,-2.712,3.2608,0.38052,
-6.4523,-21.0023,-2.3488,-0.74895,-8.7803,-9.0588,8.5588,-2.021,-2.7269,0.33411,3.2972,0.34299,3.5474,9.5165,
-4.3777,-15.1627,0.92543,4.3574,-3.1918,-4.4177,6.8402,0.75154,0.57039,2.9654,0.44803,1.5275,3.5753,2.4378,
-1.9459,-11.6018,2.0752,3.3726,-1.7952,-2.4654,6.6707,0.46548,2.2229,5.9209,3.0722,4.5689,2.1559,-8.5547,
0.34023,-9.7006,2.1919,3.4115,-2.4106,-0.63049,7.9575,0.67829,-2.0076,3.8787,1.6828,6.4641,0.3391,-4.4258,
0.56078,-9.8415,3.2652,2.0015,-2.025,-4.69,7.721,2.8068,-4.0567,0.99442,-4.9256,0.050718,-0.88608,-3.4374,
-0.43696,-8.7693,3.0695,4.7737,-0.93943,-7.7828,6.776,5.0487,-3.3312,3.827,-3.666,-1.8807,0.61311,-6.1234,
-0.89291,-6.3147,-2.8995,4.9694,2.9733,-5.3879,2.0309,2.3354,-5.5417,1.6695,-2,4.0169,-1.834,1.4746,
0.12476,-0.15148,-2.2433,-0.14922,5.6874,-0.24414,1.4269,2.6775,-4.2451,2.051,-1.3983,10.5246,-3.17,11.0273,
0.59898,3.7142,0.78356,-3.9969,1.0074,1.6989,1.8235,2.5166,-4.9544,3.3744,-2.2785,3.1444,-2.0157,3.617,
1.7686,4.2145,1.9416,-3.9978,5.0446,2.3201,5.3292,3.0887,-2.4878,4.377,1.4739,-4.0339,2.6847,-5.0359,
2.3856,4.2028,-0.34382,-3.5167,10.2855,0.49392,7.6608,3.627,1.2771,5.3195,2.5905,2.7159,-3.5021,-5.4569,
4.6523,0.094039,-1.2877,-4.7522,4.3657,-0.018338,7.6833,1.4809,4.0923,4.5181,3.3992,5.4447,-7.6305,-4.1654,
3.8913,-11.9627,1.682,-4.949,-3.1268,-1.945,6.7404,-2.9462,2.8829,0.39066,4.1595,-3.0767,0.058127,-5.3617,
2.2118,-10.2813,3.0271,0.1684,0.435,-6.6492,7.3001,-3.2516,-0.18234,-1.0788,1.9816,-2.8918,5.839,-9.3786,
-0.090332,-4.1206,-0.76967,-5.8675,-2.7244,-11.7936,2.2825,-0.88713,-1.8584,0.19098,2.5858,2.8251,1.3915,-11.4667,
-2.9774,-7.2478,-2.1698,-6.9617,-8.8276,-8.6759,-1.7113,0.12996,-3.1932,-0.30241,2.4306,3.1375,-0.62016,-1.6201,
-5.2087,-9.7052,-1.0755,2.6153,-5.8879,-3.8168,1.2837,0.12193,-2.0375,1.6437,-0.12555,1.9851,0.38115,6.672,
-7.5473,-12.7379,1.6406,2.2174,-9.6317,-8.649,0.48425,0.35604,4.1103,2.7504,1.0873,0.17927,-0.84701,-1.2001,
-4.6845,-14.8663,4.9164,2.566,-11.9463,-11.0228,-4.3658,5.6371,6.2741,2.1032,7.7707,1.6145,4.0243,-12.2151,
-4.1623,-12.2869,2.452,1.207,-4.2397,-8.1921,-4.3445,6.5039,2.7644,2.2182,8.9915,4.6509,4.024,-10.7591,
-4.8764,-7.6933,1.823,-4.1676,-0.61084,-6.2543,2.1826,1.7754,1.1522,0.1569,0.73921,5.8181,-7.7866,3.9865,
-1.6917,-0.96519,4.6057,-2.4717,1.8359,-3.4689,6.39,5.5252,-4.2195,-1.2988,-5.5717,1.6127,-11.1758,12.7856,
0.57915,1.2621,5.5344,-0.15404,-1.4075,-1.0914,2.8733,9.7732,-12.4023,-0.49771,-3.5504,-1.1354,3.2329,-1.7201,
1.5085,-0.26011,4.2382,2.7475,-15.423,-2.4724,-3.0834,8.7047,-9.7297,-0.46808,0.037341,2.7889,11.2338,-4.9911,
-0.028271,-4.1004,4.4663,2.5826,-28.3567,-3.2879,-4.3447,7.2185,-2.3975,-1.4039,-0.44683,6.9603,4.7752,7.8419,
3.8296,-6.7472,7.0906,1.9455,-24.2452,-1.1627,1.2184,7.2671,-3.6997,-0.83747,0.061681,8.9526,0.63256,11.7094,
5.0463,-6.824,2.3266,2.311,-16.0418,-6.3953,-1.747,6.8313,-8.7801,-0.30552,-0.90612,8.4157,-3.262,2.33,
3.0558,-3.7635,2.9099,4.3415,-14.3561,-7.6988,-5.7395,11.0007,-1.7458,0.43617,1.7993,8.1517,-3.3073,-7.2098,
0.70355,-5.2251,2.9765,5.768,-18.5562,-1.2111,-8.5284,9.6176,-2.3642,-1.2775,1.4506,3.0831,-2.8676,-9.4285,
1.3845,-8.5268,0.14663,6.6274,-15.7556,1.0309,-7.7755,6.8716,-12.104,-0.95961,1.1229,5.5494,-1.4905,3.4299,
0.33708,-11.3897,1.1017,6.2293,-10.4722,-5.7798,-4.8993,3.0844,-11.3783,-0.90203,2.9832,6.1803,1.0091,13.8285,
1.04,-9.9832,4.6512,9.4712,-10.0846,-8.0844,-3.8822,4.1048,0.15092,-1.0891,2.5635,0.74804,2.1536,6.0096,
2.1826,-6.7328,4.131,7.2159,-12.1308,-2.5378,-7.2645,5.5455,4.239,-0.30063,-0.24163,1.9082,2.2656,-4.7151,
-0.84037,-5.8469,0.026728,5.3367,-9.4748,-0.45738,-10.685,5.2128,-1.7999,-1.2465,0.73673,5.6506,2.6116,0.87049,
-0.30802,-9.8344,2.9176,7.4266,-6.496,-4.2863,-7.6333,3.9362,-0.72761,-2.6179,5.9952,4.8291,3.4192,7.5667,
4.0488,-7.3162,9.0091,8.4273,-2.2498,-4.0291,-4.2832,4.1819,6.0645,-2.9428,6.5998,2.1293,2.7316,-3.0102,
6.6981,3.7279,3.6481,7.4395,3.6698,3.4432,-5.9547,4.8951,2.8083,-5.659,0.41899,-1.8551,-7.0735,-13.4351,
7.9837,2.7811,0.77786,-0.47845,3.6905,2.0316,-3.9099,3.8783,-0.97535,-7.9703,1.5989,-5.359,-9.2999,-1.3006,
4.13,-4.1345,2.6596,-2.3782,-3.2796,-7.2491,-3.1936,0.27136,1.9755,-6.528,5.3596,-2.6271,2.827,5.5261,
2.6774,0.69333,2.741,1.8623,-2.8416,-4.645,-4.2068,2.4242,5.4723,1.3355,6.2433,5.4843,7.2371,-7.5794,
4.6859,-3.4461,5.2276,-1.3833,-0.020007,-2.6791,-4.1959,1.5554,2.9744,1.4963,4.663,4.4319,-4.0433,-13.1507,
9.4666,-6.8541,9.9759,4.244,5.0431,-3.7234,-2.2562,3.6319,2.5556,-3.173,4.6248,5.3715,-3.0776,-3.4433,
5.7647,-5.7204,4.3157,7.6043,5.9454,-4.7053,-4.2904,4.6189,-0.2497,-6.1161,3.624,5.7721,6.0251,-6.3702,
3.2499,-6.0998,2.8517,6.9068,6.3118,-2.2536,-4.7561,3.6186,-0.47546,-5.026,5.5759,1.8106,4.9405,-12.9777,
5.2241,-4.0471,7.2598,7.2153,11.9584,1.0146,-4.7117,2.6781,-0.6879,-2.5553,5,-2.8778,1.9925,-4.7276,
3.2234,-1.6346,4.6551,2.6855,10.036,-1.6969,-3.7057,5.169,-2.3339,-3.1248,2.0489,-3.428,0.66811,0.13576,
3.2712,0.15046,0.2782,4.6933,5.3363,-0.39045,-2.2787,11.3666,-1.4707,2.1241,1.2028,2.803,-5.8797,0.85074,
1.1469,-3.2328,3.1543,3.93,4.5344,4.4539,-9.3726,7.3103,-4.7567,4.407,-2.2436,1.6711,-9.3831,5.1383,
5.6572,-0.8699,10.4366,5.8631,10.2877,6.3556,-8.0871,2.7741,-5.6768,0.52694,1.5062,-3.491,-4.723,4.1068,
7.9693,4.244,3.7848,5.2704,13.768,-1.0151,-1.094,2.3667,-3.1666,-2.6377,0.69295,-2.0763,-3.2343,-4.0933,
4.1167,3.9893,-1.7449,1.0978,6.6754,-2.4005,-4.8847,4.1529,-4.4228,2.8232,-6.0971,3.3509,-5.9328,-1.4376,
4.8338,2.7859,2.216,3.4423,-0.47404,3.046,-10.3764,7.278,-10.4242,6.028,-7.6597,1.7034,-10.3973,2.0229,
7.9182,0.69054,2.5654,4.682,-0.44537,2.8632,-7.3437,5.8774,-6.9062,1.81,0.030745,2.5655,-4.9527,-1.4725,
4.0684,-3.6894,0.48304,0.54445,-1.383,-0.68282,-6.4209,1.6682,-1.6714,0.25534,5.8133,3.8576,6.4314,-1.8663,
-3.1653,-6.6013,3.1054,1.2349,-1.059,-0.88304,-7.2407,3.2555,-1.8123,-0.0011767,1.8493,0.01097,6.2868,1.8609,
-1.5291,-7.1694,5.8116,5.0172,-1.9596,-2.7583,-3.4318,5.4703,-0.25729,-3.8575,1.2564,0.010312,-0.83936,-0.17898,
2.4192,-5.7751,4.0164,7.6085,-5.6984,-3.0749,-4.6724,5.6243,-0.72402,-3.1439,0.2169,4.3482,-0.78877,-4.5068,
1.5507,-5.1874,-0.80388,3.0546,-3.1873,1.6893,-5.115,6.9736,-2.8497,-1.7504,-2.4477,0.95386,-0.018542,1.3072,
0.73432,-3.6713,0.44919,1.1841,3.5116,3.2747,-2.6389,4.8679,-2.4378,-0.4401,1.3146,0.65566,-4.5972,11.1107,
-1.9606,-3.6918,1.6273,4.7282,2.0959,0.42692,-7.542,1.4426,-1.5684,0.30944,1.9589,5.6778,-4.5621,6.8289,
-0.63791,-5.1575,1.7709,5.1677,-0.68121,0.6425,-5.4025,7.3818,1.177,1.9779,2.5645,3.1682,1.255,-3.463,
2.7746,-4.3661,-0.74575,4.8578,-2.0866,-3.2522,-1.7041,5.0105,0.14232,-1.997,0.48217,-1.8429,1.18,-4.7012,
0.43896,-2.4169,-3.834,4.3254,-0.75611,-2.3342,-3.7711,-0.83329,-0.58958,-3.0824,1.6585,1.4012,-0.096137,4.9808,
-2.7209,-3.4772,-1.9172,-4.8522,0.97625,2.3852,-3.7858,3.796,-0.31324,-3.6204,-1.5745,1.0762,-0.81327,7.3331,
3.2272,-3.7505,2.5364,-2.1507,-1.4925,0.31409,0.77994,4.5323,-3.6687,-4.8497,-3.8904,-0.91683,-1.2466,1.5907,
4.9615,-8.346,0.93815,4.2446,-8.1516,-6.9354,0.73291,-3.9345,-4.8948,0.7442,2.6098,3.4767,-0.68967,1.9774,
-3.5306,-14.5939,1.364,5.9184,-12.001,-7.0014,-2.6853,-1.7701,-0.74473,0.69932,2.9354,7.6067,1.7616,6.1968,
-3.0776,-10.1028,3.9335,3.8763,-4.773,-3.93,-0.83671,4.3619,0.98741,-4.4041,-1.8203,4.9813,4.3077,-4.0567,
3.6143,-4.4352,8.7589,2.9206,6.3591,-2.9711,4.7569,2.4128,-0.75929,-1.4888,0.45835,2.0307,5.2538,-6.9468,
0.50492,-11.3999,6.3048,4.1911,-0.28914,-2.7933,1.5789,-0.62453,-6.0164,-2.3635,-2.9436,2.8732,1.5642,4.557,
-2.6584,-16.2595,3.7575,3.217,-7.7434,-3.3483,-0.68473,-0.82779,-7.3424,-6.3191,-3.4901,4.8702,4.1221,7.4173,
1.5982,-9.7404,4.255,8.0852,-0.77129,-2.9065,2.4894,-0.53716,-4.7327,-3.2888,1.2986,1.4445,4.5977,2.8745,
1.9847,-3.8531,5.4464,13.3851,4.0959,-0.80389,1.8585,1.4233,-1.5562,0.76535,2.185,1.3578,-3.8729,7.5227,
-4.1601,-7.7195,3.9143,7.5203,-6.0322,-2.4429,-0.42259,-1.7956,0.22416,-4.3423,-0.11527,3.4455,-1.9533,3.9379,
-1.7413,-6.5333,3.4384,7.7919,-6.8752,-1.0911,1.2899,1.9277,2.8621,-3.3587,3.9889,1.0695,9.9739,-6.1802,
0.77358,-9.0336,4.6781,6.8427,2.2144,-2.9539,-0.23354,4.2226,4.6186,1.1814,8.0881,-1.4048,9.3757,-2.9171,
-0.71898,-14.7582,6.3255,7.8783,-0.32895,-4.2228,-1.1837,-2.7798,3.8594,1.1104,9.5309,1.0897,6.8848,1.5963,
-4.7733,-16.042,3.7769,6.6823,-7.299,-4.2105,-1.8357,-4.3001,0.97667,0.32074,5.8261,3.6755,10.5692,2.706,
-7.3791,-13.6333,1.6222,-0.4674,-6.8609,-9.2604,-4.1358,-0.66778,-0.52807,-1.1447,0.17403,3.9371,1.2581,3.0257,
1.4996,-1.969,3.6943,5.5864,2.4688,-5.0893,4.5485,4.9159,3.601,0.12932,2.8149,6.8346,-7.2533,-2.6997,
-1.0009,-2.8151,0.57977,7.1791,-1.0539,-3.82,6.6853,1.2466,-0.4716,-5.6634,1.6813,4.014,0.89478,-10.7328,
-7.9305,-11.0821,-0.65985,5.0616,-6.5343,-5.76,-2.1515,-0.51541,-4.0585,-10.3848,-1.0706,4.0141,11.205,-2.1348,
-5.0444,-8.0069,-1.5842,5.7216,-2.2859,-3.9682,-6.3608,1.4436,-2.851,-6.8695,-1.9704,5.2194,8.1224,2.8136,
-3.7776,-6.5624,1.4029,2.9682,-3.1127,0.12626,-2.6047,3.2852,-2.6799,-3.5651,-0.88806,2.9781,2.8148,-6.9959,
-3.3099,-9.784,3.488,5.4418,2.1357,0.35977,-1.2432,3.8115,-6.1344,-6.9665,-3.004,0.63012,-0.48744,-2.4787,
-3.8343,-9.438,-2.2646,5.3561,12.8537,-1.3489,-1.8919,3.3418,-8.8998,-9.1997,-5.475,4.2078,-0.69927,10.9265,
-10.112,-12.4869,-3.8159,2.8656,4.1287,-3.9193,-3.9475,0.4897,-5.7144,-4.5503,-2.9774,3.7144,-0.41635,7.6194,
-5.1668,-7.3995,1.2334,7.0321,4.845,0.65427,-2.2645,3.8349,-1.0331,2.4712,2.5041,3.9736,2.0189,-1.9967,
-0.51826,-4.063,-3.6609,-0.62067,10.3389,1.5791,-3.0928,2.1585,-3.3813,-4.4255,-1.5028,2.7708,0.45194,-8.6256,
-3.6205,-10.809,-3.6823,-0.82451,4.657,-2.1309,-3.1483,-1.1043,-5.3477,-7.7755,-3.0998,0.91749,1.6295,1.774,
-4.1263,-12.3297,-0.32798,3.8046,0.76223,-5.1365,-2.7183,-2.2433,-6.7139,-5.1397,-0.74449,-0.34274,2.737,5.2829,
2.3879,-0.50284,2.5836,1.1661,6.5012,-0.48983,0.81913,2.2298,-5.3471,-2.4211,-1.664,1.6061,1.1268,-7.0853,
-0.64768,0.0094904,0.50066,0.13201,-0.63778,2.4318,-0.19412,8.363,-3.58,-3.2399,-4.4565,4.8842,-4.7256,-5.6961,
-6.3936,-12.0424,-1.4578,3.9802,-7.3482,-1.5704,-2.1107,6.4147,-2.4011,-4.9737,-0.33271,7.4835,-5.4062,8.7457,
-6.7329,-9.1507,-4.5036,3.5007,1.5286,-3.6454,1.6314,-3.8521,-8.765,-6.8447,-2.4819,2.9369,-4.8408,4.4852,
1.8658,3.9316,1.069,3.2904,15.5369,1.8758,10.2106,-2.175,-8.721,0.79685,-3.2971,3.2428,-1.6581,-4.461,
2.477,0.56245,5.1025,1.406,11.3507,-1.8522,3.0903,2.0529,-6.5105,2.4363,-3.8224,5.2172,-3.7278,-0.095955,
-0.56384,-6.2199,4.3143,4.214,-1.3815,-3.6692,-5.2902,2.8939,-1.2993,-1.0842,1.2276,2.9761,-0.61169,1.3559,
-0.77132,-10.9085,6.2247,8.5401,-5.3961,-2.2438,-0.39339,1.0332,6.2503,-0.29617,9.1075,-1.3,5.9326,-2.8229,
1.2032,-11.2181,7.7792,12.8482,-5.0724,-2.5914,3.4866,0.97118,5.3932,2.1317,9.5252,-0.7398,7.9868,-6.9921,
6.9157,-4.2783,6.8304,14.0059,-0.42958,0.93846,1.8313,1.8769,3.6234,2.968,7.5075,-2.1416,9.9178,-10.911,
6.5007,-5.9498,6.9027,7.3807,3.9347,1.8462,0.27536,0.31825,1.4778,-1.5486,3.6828,-2.0131,5.9485,-9.7741,
0.32621,-8.485,6.4884,4.0457,3.2166,-0.1926,-0.70538,-0.18289,-2.4673,-3.3838,-0.39463,5.8204,0.28908,-6.7775,
-1.6217,-7.0119,4.1713,3.3209,2.5416,-1.6272,2.2294,-0.17204,-0.87316,-0.7705,2.5215,4.025,3.6461,-5.8888,
4.7423,-2.7347,2.9566,7.9422,7.6916,-1.5297,5.4699,2.2485,1.5897,0.72188,3.8163,-1.0369,6.3195,-2.643,
4.4578,-5.463,-0.11277,4.0914,4.3379,-2.4019,0.32113,2.5957,-3.8084,-3.1779,-3.1615,-0.97476,1.6019,-14.0537,
1.5392,-9.7147,2.5452,-1.2157,0.94429,-0.57065,0.54295,3.1632,-4.303,-7.0845,-0.8025,0.2889,8.9779,-21.1644,
2.6519,-5.9985,1.6694,1.9905,9.3235,0.18672,-1.1769,-0.64204,-6.2139,-8.8288,1.897,2.9229,13.5007,-5.7945,
-2.8098,-1.2999,-2.7695,-1.9852,12.1385,0.1754,-3.5165,-3.9779,-8.7335,-5.8886,-4.0015,9.9782,2.0855,8.6532,
-7.2207,-6.7656,-3.326,-3.0711,5.3846,0.888,-2.5824,-3.0161,-7.9683,-2.884,-4.9665,8.1745,-0.69098,6.4469,
-3.4133,-7.806,-0.23446,6.754,6.9896,3.245,-3.8736,1.9853,-5.0802,-2.2291,-0.33008,3.3453,11.4015,-2.135,
-0.55711,-7.5785,1.9489,7.5537,6.8113,2.8092,-3.4001,1.6251,-5.9803,-6.1928,0.8949,2.4216,9.0303,-3.694,
0.19945,-8.811,4.0011,6.8595,0.37686,0.47147,-1.0269,0.80467,-7.7907,-11.8468,0.60024,0.58932,-1.3935,-4.6774,
0.18725,-4.9081,5.2071,8.3764,-0.60985,2.3714,-2.8935,4.6126,-2.503,-9.2078,3.4563,1.0359,2.5465,-1.5047,
1.6223,-2.2033,7.305,6.9097,-0.091097,4.1573,-4.6481,3.8539,3.432,-3.8349,4.2132,0.49181,7.2142,-6.2347,
1.284,-3.7583,7.1077,7.6999,0.63727,2.7028,-3.1641,0.48938,5.3953,-3.8457,3.2373,-2.189,0.7558,-10.9223,
0.0018703,-2.8097,7.4043,6.5148,2.2863,2.7816,-3.2152,3.1113,7.2407,0.00042678,5.6944,3.4859,2.3977,1.5434,
2.4119,2.6613,4.55,3.7138,3.1132,2.6147,-3.9864,6.2989,4.8781,3.8566,4.8706,8.5792,6.5921,3.379,
6.1237,3.4661,-1.0253,1.5631,1.9624,1.0117,-2.783,2.0647,0.24717,-0.71304,2.1681,2.7619,3.3044,-10.9237,
4.7922,2.2938,2.4102,4.8433,3.7729,1.9151,-5.0264,0.012601,4.0887,-1.6344,5.4125,1.6321,3.1062,-10.1477,
3.5405,2.6381,5.64,8.4091,9.813,0.83606,-1.8325,3.3861,7.2176,0.39167,7.4978,9.2469,3.8837,4.5611,
3.0871,-1.6175,2.6503,5.2532,10.9114,-4.7577,1.4107,2.4598,2.6872,0.60937,6.807,7.969,1.4817,1.9976,
2.9019,1.3718,2.0093,5.9024,9.2927,0.34823,-0.11999,3.2763,2.526,3.4651,8.3268,1.7063,4.7673,-2.4608,
-1.3696,-0.87967,-1.7266,4.3429,4.6377,1.0505,-0.83592,-1.0176,3.0976,-6.6247,6.6223,-5.3857,7.1323,-5.4464,
1.6047,-4.2013,1.7512,5.5284,8.2159,-4.3152,4.9988,-4.331,7.25,-10.0839,7.671,-6.0267,6.7042,-7.53,
-0.41969,-2.021,-0.2822,1.3406,12.0614,-6.4665,0.36045,-3.5891,9.2253,-1.284,5.7644,-7.1112,-1.4105,-7.5602,
-3.2868,1.4748,-1.7113,-4.5246,8.9275,-3.186,0.33882,-0.48126,11.564,3.1318,8.7932,-6.6846,0.60207,-3.25,
-2.3665,1.1453,-4.7416,-2.5659,8.1507,-6.1283,2.0057,-4.0678,6.7728,-3.0819,6.5784,-6.0425,1.2893,-9.5627,
1.8729,6.138,-6.6265,0.72131,17.0617,-3.1093,-0.28401,-5.511,5.6433,5.5389,4.4962,3.2381,3.3809,-3.9275,
2.2426,4.8055,-3.3368,-3.1782,9.2892,-0.03059,-0.26686,-5.6624,9.161,11.4732,7.1186,5.936,5.5883,5.4671,
1.385,1.3838,0.9609,-4.1927,-2.5963,-3.6441,2.4004,-6.0456,5.9601,6.6874,7.415,2.9286,2.602,-2.8148,
2.507,1.542,2.1085,-3.2183,4.0672,-6.5587,3.9436,-4.9598,3.4334,11.8297,7.693,3.958,4.615,-9.6356,
2.5976,3.1366,-2.1157,0.10844,11.777,-4.96,1.5377,-3.4572,1.0581,10.3969,1.6879,1.5512,2.651,-3.9959,
2.9237,8.733,-2.4707,0.10193,9.1422,-1.2882,1.4454,-1.8035,-2.3796,0.13215,-3.716,3.3866,-2.8107,5.4029,
2.9894,8.9322,2.257,-5.4477,5.4603,-1.4517,1.5998,-1.9364,-2.9598,-3.9732,0.60442,6.7989,-3.8472,6.2839,
2.81,4.5399,2.604,1.6276,4.6508,0.081418,1.0219,-1.8202,-1.8182,-0.84256,3.9426,4.9447,3.1325,-2.7702,
-0.97391,4.0264,0.76015,7.5556,5.0947,0.31761,4.0937,-0.023894,0.45997,2.3411,2.9828,1.0325,7.524,-5.7374,
-6.7003,4.749,-3.1418,0.83578,8.1633,-5.0041,3.3661,-1.4685,2.3606,-1.1736,3.2858,-1.4398,3.2161,0.39168,
-4.8519,4.4639,-3.9171,-4.9993,10.084,-4.2218,-1.1743,-2.8265,3.6651,-4.9596,2.1249,-3.7637,3.0228,1.8143,
0.50078,5.8834,3.3077,-3.0118,5.8634,0.61114,1.0655,-2.898,4.1684,-1.5287,-0.65383,-6.1891,0.19025,-4.8024,
2.8809,10.8328,5.0372,3.9176,11.2962,2.0205,5.3399,-2.7241,3.9181,1.4553,-2.5433,-5.8177,-4.6416,-0.65783,
-0.42536,7.5316,-3.7011,-0.41491,17.6081,-0.75193,1.4042,-4.73,3.9241,-1.7654,-0.70332,-6.1917,-4.6042,9.2637,
-0.15864,3.4643,-3.72,-4.9695,9.562,-0.46585,-1.3314,-2.7589,3.4477,0.028005,2.4721,-3.651,-7.4612,6.0568,
2.7431,3.7385,-2.5325,-1.779,1.7576,1.9723,0.67678,-0.18316,0.83057,8.7031,2.3242,4.2809,-7.4956,-2.5015,
0.40931,-0.10122,-6.4782,-2.8775,-0.035112,-1.2793,0.39497,-0.41314,-2.3525,8.4219,-0.94878,5.7113,-2.9485,-3.0747,
0.8668,2.3151,-2.233,-3.1869,0.44904,-0.23852,0.85332,0.57563,-0.28329,6.9526,-3.3023,4.4044,-2.2896,3.8585,
3.466,3.3814,-0.89383,-5.165,-0.30091,-0.46506,1.5254,-1.146,1.903,7.7406,-4.3091,6.7914,-6.7316,0.49389,
3.258,1.2503,-3.2506,-4.3729,5.5017,-2.3656,-0.012414,-1.0773,-3.5138,4.3836,-2.1224,6.866,-4.3995,-7.7309,
1.6165,7.924,-1.609,3.1201,16.2588,2.1149,-0.97577,8.6283,-5.231,1.2286,2.3435,4.0437,0.68495,-4.8567,
-0.64974,11.0641,-4.1639,-2.1287,9.7396,3.6751,-2.6043,4.9773,-4.6763,-1.9785,-0.44855,-2.7065,-2.0071,-2.396,
2.0403,13.0513,-6.5656,-4.1701,6.022,3.2136,-1.7252,-2.311,-3.6726,0.30935,-1.6269,-2.3029,1.2463,-2.0113,
1.677,12.9914,-3.5204,-1.2686,11.6862,0.85167,0.065566,-0.48512,-0.80089,0.53175,2.5683,-2.8881,6.233,-6.9521,
3.2636,9.0786,-2.586,-2.3975,10.744,1.0415,0.30283,1.2312,-0.029703,-3.1156,2.1734,-5.8481,5.6183,-7.2581,
10.2987,11.4261,-4.8409,-5.628,10.0993,0.97893,-2.6077,-2.6992,-5.3307,-2.4466,-2.2956,-5.9792,0.46059,5.2286,
12.814,14.8381,0.99295,-6.0135,13.5909,-1.7309,-1.2462,-3.7423,-2.3595,2.2797,0.49343,-4.4154,-0.77211,3.7098,
6.9839,9.8503,1.6566,-4.4475,8.678,-4.7604,-0.93036,-0.86653,2.8436,2.8662,-0.74113,-7.2836,-2.8951,-6.8767,
6.5644,8.2952,-3.2635,-5.6269,4.7829,-2.5466,-0.87454,3.524,2.1908,1.7299,-3.5892,-6.3647,-3.6857,5.105,
5.9295,6.5924,-3.3084,-8.4225,3.773,-4.081,-2.5093,-1.7491,-3.9662,-5.3636,-4.5789,-4.7777,1.115,9.3782,
4.3687,8.3661,0.50551,-3.3379,7.162,-6.0053,-0.18935,-3.8133,-4.4511,-3.3545,-2.6169,-2.8038,1.7714,-4.9228,
2.4195,6.177,2.644,-5.7886,8.4194,-11.6707,1.9911,-3.8256,-4.9073,-0.98397,-4.147,-0.46634,-9.181,-10.6533,
1.0691,5.0833,-0.64756,-3.754,2.8527,-8.8012,-2.7078,-0.9444,-7.746,-6.4684,-6.5496,-2.6074,-10.3172,-13.1472,
1.005,9.5988,-4.9475,2.2559,-0.6927,5.8269,-5.9196,4.4145,-8.2453,-5.1162,-4.7104,-4.3794,-2.9498,-12.8406,
-0.50147,9.9869,-4.1686,-4.1463,-3.5435,9.2133,-6.0464,0.77525,-9.6789,-0.47082,-6.3559,-2.6705,-6.629,2.0299,
-1.1945,8.1824,-1.2674,-3.1747,-3.5721,7.4552,-4.4788,-2.8867,-9.3394,-3.5761,-6.6979,-2.7512,-5.9903,16.0081,
0.32342,10.1018,1.219,3.2826,-0.46528,14.7209,-0.83563,4.0352,-4.9226,-7.2179,-0.99358,-4.5143,-1.2924,6.8528,
0.062934,12.6291,-1.9873,-3.9039,2.2138,16.4886,-0.54442,4.9983,-7.7604,-7.5078,-3.5852,-6.4127,-8.6867,-2.9583,
1.2643,12.5943,-3.5554,-7.2852,2.804,11.4019,0.21127,0.11896,-11.3922,-3.924,-9.8777,-5.7869,-7.4423,1.7986,
0.22438,11.3565,-2.8599,-5.884,-1.2208,8.7893,0.68075,-0.85227,-9.2627,-2.2427,-7.839,-6.8862,1.1987,-3.13,
-2.9226,15.2549,-7.268,-9.1464,-5.7269,7.0571,-1.5293,-2.0064,-8.466,-3.3132,-5.6814,-6.714,-5.8626,-7.0396,
0.38627,18.4369,-8.0368,-11.7311,-5.1423,5.4284,1.2136,-2.127,-9.1631,-2.3913,-5.5815,-2.6957,-10.0906,7.4828,
1.086,12.751,-5.3854,-6.4475,-2.1824,4.8617,0.41788,2.098,-9.3364,-2.4888,-7.4158,-3.7388,-10.2081,8.8413,
2.2261,13.6731,-1.9288,-1.4813,3.9741,7.2216,-5.151,5.5875,-7.5709,-3.0626,-3.8378,-2.7916,-9.3546,-4.4634,
1.3694,13.5759,-1.5723,-6.9358,0.12043,3.1726,-5.0829,-1.2555,-7.3576,-5.5299,-4.3302,-2.3829,-8.0702,-4.9185,
-1.3641,9.1461,-3.165,-2.4226,-2.0562,1.2953,1.2478,-1.4209,-10.5316,-7.3675,-7.686,-1.9992,-4.9347,3.8125,
-4.4152,4.5,-8.5187,-4.4459,-2.1735,0.9766,-0.51428,-1.0946,-12.0689,-7.1662,-5.5376,0.2904,-4.3976,0.45052,
-1.7402,6.6401,-6.5613,-9.9637,-1.5612,1.3999,-1.9292,-2.4752,-4.5961,0.49436,-3.7591,1.2368,-4.6157,-5.8433,
-0.67146,8.1699,-5.6857,-5.5095,2.871,1.7983,-0.36767,-1.8443,-0.94584,4.8033,-3.5336,-1.7294,-5.785,-4.0464,
-1.1138,4.3053,-1.9703,-0.35894,3.1805,0.72588,-0.82778,-0.28809,2.003,5.4789,4.8729,-0.17964,0.34643,5.8371,
3.5328,4.2882,4.6556,2.7963,0.33854,-2.9329,-2.9473,-0.99371,6.9445,9.7297,7.7143,1.0362,7.3157,7.1741,
1.3924,7.4051,-2.8546,-1.7102,0.80016,-3.7212,-5.1808,-0.93385,3.1534,11.0743,2.4307,-1.4361,3.5023,1.9232,
-2.3066,10.5762,-9.6727,-3.7768,3.4035,4.4558,-6.5572,2.7371,-2.0975,7.2762,0.59762,1.7831,-0.32321,3.4948,
-2.168,13.7978,-9.5745,-5.9605,2.7171,9.0089,-10.0201,2.0907,-5.3461,0.57286,-2.8125,2.6402,-1.7503,-3.9457,
-0.83281,15.1393,-9.7232,-10.1824,6.6517,10.6378,-8.2139,3.1708,-4.7842,3.672,-3.8488,3.2049,-2.368,-3.95,
-1.7469,7.4823,-10.1039,-7.1611,4.8065,4.2152,-8.6849,1.5345,-4.4971,5.862,-4.1,4.4587,-7.0464,10.387,
-1.16,2.6948,-5.1591,-1.429,0.66152,-2.3045,-7.1997,0.96031,2.0395,7.4387,-1.4437,9.0116,-5.1776,19.2843,
-1.5723,1.5692,-4.8496,-2.7891,0.1399,0.72584,-4.8395,2.8309,3.8453,7.9563,0.089226,9.4353,-1.0105,8.0043,
-1.9601,-1.8996,-6.9689,-3.5863,0.61344,6.4671,-5.5135,2.1789,-1.2062,8.443,-2.3265,9.8332,-3.8422,8.0062,
-1.6018,-8.2931,-1.9713,-3.1299,0.33566,1.4996,-3.9774,-4.9415,1.9997,6.7313,-1.4638,11.8946,0.0035457,18.3719,
0.66372,-3.216,3.2084,2.6017,6.3413,-1.7237,0.84078,-3.44,7.9055,4.1583,6.0956,10.4578,8.9216,12.6901,
-0.3402,-0.61269,-2.2865,2.4454,6.9249,-0.65615,-1.1379,1.5869,2.6107,-1.8758,1.3918,-0.29283,-2.7007,-2.1713,
2.8136,1.1112,0.50214,4.4682,4.3401,2.0347,0.61775,4.1431,2.6951,-2.0043,-2.3072,-0.033954,-8.5645,-0.23323,
-2.8987,1.2858,-2.1794,2.0306,0.46444,-1.2208,-4.963,-3.0952,-3.0103,-4.5353,-4.8202,1.655,-2.9891,9.663,
-5.3761,3.8598,-4.6998,-3.6349,2.1238,-1.3885,-6.8344,-2.6685,-7.8911,-6.4325,-4.772,-2.5417,1.2876,10.77,
-3.1254,5.0744,-2.9715,-0.042337,1.0323,0.14105,-2.568,2.7942,-5.0073,-2.6721,-4.4857,-6.7275,-4.5742,5.7855,
-5.5892,1.1543,-1.1065,4.0576,-2.1632,1.3374,0.23744,2.3856,2.2828,2.5496,2.2914,-1.7446,-3.5766,1.823,
-5.9767,-2.0482,1.6115,0.68108,-3.2384,-0.43005,2.3923,1.5196,6.2432,4.0839,7.2151,-0.4346,2.6637,-4.7939,
1.1306,3.3771,-0.41362,0.15805,0.81227,2.0061,4.6592,2.392,5.8686,2.8748,1.4798,-5.229,-4.7272,-4.0243,
1.7856,1.9697,-3.0399,-2.9849,-1.4059,1.6448,6.5488,-2.8127,5.2753,1.497,-0.2962,-3.7104,-11.9153,3.2068,
-0.49079,-2.2462,3.1679,2.2557,-6.865,-3.9976,6.8791,-1.439,10.0203,6.4687,7.1933,3.9843,1.092,-0.60094,
-0.46134,1.263,1.5316,4.5305,-3.0787,-4.2399,3.5738,3.9498,7.4909,3.1883,3.3872,5.1911,8.7392,-4.4213,
1.2535,12.5151,-5.5498,-5.1414,6.506,10.1145,2.6364,3.9536,1.0158,-3.5108,-0.43155,3.6747,-3.5954,3.7979,
-1.9552,16.8258,-6.9041,-2.1814,-1.8384,22.4024,-1.1372,3.4754,3.1242,0.79742,2.2459,-0.16123,-9.4052,8.6312,
-7.6223,7.1397,-5.0436,3.2521,-15.8281,16.7199,-8.7818,3.2674,9.6857,5.0884,5.0037,-4.4899,-0.16377,3.775,
-8.8522,1.6496,-7.3925,-4.4148,-24.1577,10.6551,-12.3524,-0.06215,9.3455,3.0958,5.9083,-3.0156,-1.8412,1.8613,
-3.2596,9.0224,-4.7798,-6.8015,-8.6082,16.0413,-7.9961,2.1107,8.5433,7.4894,7.241,0.78071,-3.4184,2.9549,
-3.5462,5.5888,-0.63639,-6.3931,-2.6688,14.1147,-8.9624,0.055673,5.1385,2.2195,2.9499,-4.5686,-1.7668,-11.3224,
-3.8151,5.7356,-1.5623,-6.9736,-7.3292,12.7861,-6.9784,1.4988,4.8304,-2.7344,3.7375,-3.3303,-0.21475,-10.0406,
-9.1298,4.6684,-8.4582,-11.6167,-15.3251,7.9214,-4.8724,2.614,6.7099,3.4557,4.2364,-2.4074,-0.925,3.3363,
-13.6437,0.29068,-8.6738,-7.7869,-22.8417,2.3847,-9.1598,-4.0506,3.6556,3.971,1.3304,-2.9861,-2.0746,7.7156,
-9.2097,6.2988,-3.0917,-3.7038,-16.8917,3.4469,-9.3331,-4.5305,-1.1431,-1.8104,2.9383,1.2904,-1.7091,7.4936,
-5.5238,8.5722,-0.7373,-9.5073,-14.6731,2.5169,-3.7117,2.731,1.5769,3.8416,4.449,0.0079514,-5.7037,3.4288,
-6.1565,4.6836,-2.1391,-5.5627,-20.0595,2.3657,-4.4531,4.0132,5.3384,8.4316,-2.5671,-0.95662,-8.7362,0.33035,
-7.7153,4.8848,-1.5286,-1.3723,-20.302,5.598,-7.0782,-1.0481,6.9465,2.1409,-3.3767,2.475,-6.2836,3.2033,
-7.9753,2.4223,-1.6781,-6.8333,-12.5761,3.5751,-2.5557,-3.1546,6.289,2.2536,0.92347,-1.2887,-5.1834,4.6981,
-4.3635,-1.3382,-3.2644,-5.7007,-2.9035,0.70927,0.7309,-0.314,5.1885,8.1442,4.9652,-3.3808,-1.7392,2.7292,
-4.8248,-7.7656,-4.2736,-4.1531,-2.0062,1.8718,-5.3387,-1.5002,8.0105,5.0042,6.3547,-2.4548,2.4628,0.87799,
-6.7045,-7.0585,-5.7046,-0.77067,2.2116,4.8932,-6.7056,-0.20514,12.5913,1.5707,3.3221,-1.5844,0.62755,1.0665,
-7.0254,-0.60969,-6.5674,-0.0012965,8.5866,5.8047,-1.7235,1.9766,13.0409,3.1635,3.3635,-2.6944,-2.5434,2.2076,
-7.0858,2.3194,-4.7271,-4.34,4.215,4.0101,-0.17434,0.4117,6.9558,1.5274,4.126,-3.497,-1.4264,2.5571,
-2.0811,11.5803,-4.6844,-4.3206,4.685,6.4206,0.55948,2.0742,2.4411,2.6411,2.1913,2.2564,-2.5461,3.127,
-4.1256,16.4288,-8.019,-12.9792,9.9477,4.8303,-1.1615,-0.70155,-1.3206,2.2414,-3.966,4.2904,-9.383,3.6625,
