"AF3","AF4","F3","F4","F7","F8","FC5","FC6","O1","O2","P7","P8","T7","T8",
-9.8822,-4.0976,-1.2051,21.4513,-40.2513,-0.72313,-23.8617,-3.1333,7.9535,18.0769,13.2562,13.7381,0.72313,15.6667,
-13.3866,-5.539,-0.89179,17.0308,-48.6823,-4.2952,-23.635,-3.1862,5.7895,15.7874,9.8097,9.2988,0.92071,12.0752,
-0.2911,2.7474,-0.11516,15.2858,-31.6613,-7.6526,-13.2991,-0.82612,-0.58362,1.5836,5.6059,8.0178,-8.0524,0.98658,
11.7777,10.7774,-1.5543,17.2609,-15.6617,-7.6756,-2.86,0.66993,-2.4766,-3.3319,-0.51524,2.2343,-8.5333,-1.9649,
13.4814,11.5768,-1.9432,17.1894,-0.62196,-11.5537,3.5784,-3.2269,1.0463,-3.1322,-1.9304,-1.7564,-0.30878,7.3123,
16.7696,12.0873,-4.9598,16.3992,13.5154,-19.2963,2.6405,-7.6128,-4.078,-9.934,-0.60947,0.5184,-5.3517,7.1143,
24.9229,17.629,-1.2878,12.0413,26.8044,-17.1742,9.231,-7.156,-3.8333,-9.3379,-2.5011,-0.95897,-6.4764,-0.54298,
24.8734,19.4638,1.6815,11.8007,39.2962,-13.2513,15.4256,-7.2086,-1.1932,-9.7415,-10.0638,-10.5424,-1.7495,-1.4747,
18.8014,17.0904,1.3394,18.0823,51.0384,-12.2154,11.8487,-5.0891,-0.88038,-8.9163,-5.8448,-10.633,-0.43947,8.9779,
11.4071,6.4243,1.2593,13.1408,53.1583,-16.7852,7.2817,-3.8196,-0.82779,-4.5247,-1.1556,-6.1384,-3.3054,9.8852,
9.7583,0.25379,1.6657,7.0497,46.1119,-23.4908,8.2906,-7.4468,-1.2601,-8.592,-4.4607,-9.6269,-3.589,-0.8308,
9.655,0.23879,0.60164,5.663,48.1661,-24.4915,7.3114,-10.8562,0.26158,-12.8965,-2.7465,-12.9055,1.9288,-6.0834,
2.0858,-5.3192,0.32457,5.0818,40.2145,-20.8531,4.2212,-10.4462,0.48685,-9.4716,-1.8588,-11.8902,2.5359,-3.5492,
1.2375,-7.1694,1.9921,8.8745,31.2939,-16.9506,4.2091,-8.132,-0.74742,-7.2163,-2.4704,-9.9717,2.625,0.27893,
5.0199,-6.739,2.3547,7.8599,28.4522,-19.3078,3.4744,-9.5721,-2.6305,-10.1576,-1.8401,-11.3014,4.3959,-0.7019,
3.7544,-3.9245,1.2496,5.4601,33.494,-21.0416,6.6404,-11.4083,-5.8472,-11.9582,-5.586,-13.9977,4.6141,-3.0699,
4.7344,1.3726,-1.4769,6.3378,36.5455,-14.2355,10.8213,-8.5547,-3.3272,-6.1795,-2.1174,-10.0244,6.0245,-1.1985,
-0.61133,-5.2177,-7.8958,7.6447,24.4709,-14.1045,2.2182,-9.2462,-0.95838,-5.0854,2.5889,-9.182,2.0476,0.078252,
-3.2257,-9.9658,-5.2529,9.3552,23.7255,-13.0172,2.3261,-2.6659,3.6789,-0.68291,2.6746,-5.498,-1.2088,0.79692,
-0.14014,-10.8141,0.36492,6.8657,25.1945,-10.7902,7.9711,2.3143,5.3859,2.7321,1.0678,-1.7937,-0.17237,-0.21523,
0.59117,-15.7089,-1.3442,9.5868,17.6568,-13.7582,2.4312,-6.2602,0.96536,-2.4931,2.2091,-4.8195,1.0433,-2.8534,
-3.0593,-14.5254,-3.9151,12.627,19.249,-10.2811,-2.294,-7.5718,2.1127,-2.1025,1.8355,-1.8788,1.704,-2.9232,
-5.0451,-5.6999,-2.9571,5.8441,20.2634,-3.1566,-1.4332,-2.538,0.29897,-0.28939,1.0023,4.7416,0.39626,0.86741,
1.2829,-0.29647,-3.0208,-0.050418,16.8782,1.6119,-0.14215,-0.69873,-1.8884,0.45111,2.1472,5.6622,0.13129,10.6975,
2.8932,-8.2324,1.2582,1.1579,15.1426,-1.6179,0.10734,-3.3079,0.39411,4.0395,1.2955,3.1533,-0.1171,11.7429,
-0.17247,-8.2209,7.4492,2.5347,14.2341,-0.074525,-4.2374,-3.5914,-1.0758,5.7253,0.73536,4.4104,-0.11007,1.3974,
0.07907,3.1189,10.1355,-1.715,15.067,4.9914,-5.1882,-0.24262,-2.6982,4.1767,0.4505,2.4583,-0.34466,-2.3021,
-0.40784,0.52138,13.866,-1.6119,14.1632,-0.12857,-1.5027,-0.22829,-1.0903,0.55188,-0.058694,-3.4736,-1.2881,-0.23558,
-3.5169,-7.4636,10.8648,4.9923,5.8416,-4.2182,-0.6892,-0.45556,-1.2659,-0.68653,0.18579,-0.13212,0.47643,-3.3549,
-8.608,-13.7647,3.4645,1.3183,-5.1142,-5.8933,-2.0941,-2.8384,1.2207,-2.0911,2.1028,1.8045,1.4122,-3.1536,
-9.779,-17.0364,3.4974,2.9262,-11.315,-10.6016,-2.6916,-4.8374,8.1366,-3.6531,8.002,-7.7045,1.5682,-1.2774,
-2.4436,-12.6396,8.5899,7.5716,-10.1539,-9.9653,-1.566,-5.0289,5.2385,-5.8443,8.4864,-8.6878,0.50999,-3.1287,
6.8621,-0.79396,6.1464,3.2605,2.5064,1.2379,0.45616,-1.8351,-0.37844,-4.0474,1.7103,1.4744,-0.96687,-2.941,
4.5219,3.1098,-1.935,4.5113,12.9611,6.948,0.91095,2.6135,-1.8018,0.052083,-0.32031,-0.54246,-1.873,1.0921,
-1.293,-5.9948,-1.096,5.4455,6.6398,2.9157,-0.83093,0.28712,-3.3809,-0.19247,0.90374,-4.1253,-0.073349,2.2314,
-0.4923,-8.7684,0.17485,1.5036,-1.7121,2.9819,-1.9861,-2.381,-2.9368,-5.2424,-0.35509,3.1123,2.1004,-2.482,
-1.4266,-5.8322,-4.174,0.44902,1.7646,8.1057,-1.867,0.65395,1.5777,-3.4816,-0.81618,5.3357,1.492,0.077024,
-2.5463,-6.6871,-2.7182,2.5917,5.2742,8.3422,-1.0321,2.7839,2.2059,2.7529,1.402,5.2565,0.19767,5.1341,
-2.1526,-9.4193,-4.2424,0.74897,0.86035,5.6725,-1.2111,0.92961,-1.5418,2.3467,0.113,6.6283,0.42677,2.1749,
-5.1567,-12.9513,-11.9418,-3.8755,-4.7347,7.9835,-0.4153,-1.777,-0.24427,0.036999,-0.61691,1.6511,0.64236,2.7676,
-3.1601,-13.8614,-9.0561,0.4544,-9.0299,7.2635,-0.14942,-0.94751,1.94,2.6859,2.0717,2.2754,-0.60147,5.2526,
-4.1755,-10.8604,-2.005,3.5604,-12.1037,-2.0901,-3.7556,0.31441,0.13615,2.7659,0.74184,6.236,0.15775,4.6967,
-5.3712,-2.4964,-0.43848,2.8648,-8.9674,7.1939,-2.5664,3.67,1.5742,0.18938,0.69733,0.076818,1.5941,4.4145,
0.73584,4.4025,-3.7864,3.1751,-8.9115,20.8622,-1.9303,6.824,0.99762,0.66018,0.65572,0.072438,-3.804,2.7036,
3.1016,3.1742,-3.0775,1.0562,-18.0175,25.7568,-2.2966,7.8611,-1.9545,3.0309,-0.83012,9.2274,-5.0218,2.0592,
-3.1098,0.33247,-4.0979,0.26968,-24.4085,23.0063,-4.3282,9.0764,-1.1141,4.0541,-2.9492,7.4682,-2.0691,3.6231,
-4.3693,4.1687,-10.1183,-1.6745,-24.39,30.3028,-10.8167,7.5677,-2.4933,4.775,-6.1465,3.6459,-4.8373,1.9597,
1.6775,5.8468,-4.209,-3.0203,-23.4086,31.8591,-8.7219,7.1137,-3.79,6.4167,-5.2958,2.9452,-9.3673,-1.0504,
-3.9668,1.881,-0.82301,2.2226,-22.245,22.4757,-4.5832,7.4102,0.052852,4.3444,-5.7009,-4.7033,-13.8669,-3.6385,
-10.7187,3.9373,-2.9428,2.8122,-21.1513,21.8505,-4.5492,6.2422,6.0752,3.8428,-0.29766,1.6044,-13.7583,-2.2153,
-6.7013,4.6651,-3.2484,-5.0691,-27.5952,25.36,-6.2042,4.9036,0.89023,6.9865,5.505,9.2212,-12.9326,3.2204,
-1.2378,0.76959,-4.2585,-5.4885,-19.4318,26.0073,-2.2168,2.44,-1.3326,10.6649,6.3793,2.6421,-12.3978,8.5706,
-6.4659,-7.9535,-6.8953,-7.5691,-14.8917,17.6982,-3.0478,-2.045,5.978,5.2045,6.9611,-4.747,-14.0643,-0.6205,
-4.1498,-0.7278,1.2312,1.5617,-25.0854,17.6002,-3.8293,4.8266,15.2607,3.446,16.6663,3.2506,-10.8103,-2.5115,
-3.4186,6.065,0.1932,4.3603,-31.2928,16.5444,-6.9738,5.0192,13.8629,6.1315,15.6666,2.5734,-12.0897,1.9778,
-3.2135,3.291,-6.0849,2.1709,-23.6307,13.1416,-8.9655,2.7899,11.5849,12.9944,10.8702,2.419,-9.918,5.2336,
-7.8412,-0.28117,-8.1302,-0.8521,-27.0333,9.9428,-10.8379,2.1403,5.1055,11.2507,8.7715,4.6842,-10.287,-2.3115,
-10.9861,0.4586,-1.6168,-3.934,-30.473,11.0334,-9.9467,3.2172,5.522,7.4422,10.8968,4.1622,-12.3214,-3.8601,
-8.3988,-0.53278,0.89078,-0.80544,-26.7164,9.8895,-12.2419,3.5061,5.6731,6.0318,9.761,2.4662,-13.0279,2.6385,
-7.8948,-1.9471,-1.5732,2.6169,-24.6315,5.9217,-8.1334,3.7777,1.4759,-0.11473,8.211,2.8001,-11.7643,4.8903,
-9.3496,2.0264,3.3416,1.4958,-20.7432,7.9767,-0.41433,4.0332,6.6902,-3.4821,11.575,3.5962,-6.7199,1.2227,
-12.1626,3.351,0.731,-0.52217,-17.0885,12.3184,-4.2459,4.2731,5.8068,-0.86302,7.988,2.4166,-5.8347,-2.2251,
-13.1203,0.49866,-11.1232,-1.214,-21.1247,13.7487,-10.0169,5.7042,0.87846,0.87576,1.4829,-0.37973,-9.0998,2.4879,
-9.1996,6.9762,-11.6607,1.5104,-13.8312,15.5753,-8.6925,4.1566,1.5491,-1.3459,2.1173,-4.4543,-8.7948,6.436,
-1.8987,18.1268,-5.6588,0.45547,1.0987,26.2099,-7.689,2.461,-4.3284,-3.1934,1.5083,-8.0434,-7.7852,1.2296,
9.5434,29.3317,-5.0783,-3.6692,15.1328,36.9294,-5.0585,4.0005,-14.433,-1.3146,-9.4284,-10.6943,-9.9696,-3.9059,
23.0708,41.6718,-2.6042,-4.6541,28.3248,42.6676,5.6091,9.3043,-16.7003,-0.51255,-14.8885,-9.8115,-12.5047,-5.359,
32.8938,53.2715,0.92601,-7.2674,40.7253,51.6762,7.6827,14.0483,-10.878,-0.48226,-13.0313,-5.3668,-14.647,-5.5194,
31.1614,64.1752,-2.2628,-8.0364,52.3818,58.4583,0.71399,11.5184,-9.9842,0.7522,-13.4545,-3.3574,-16.419,-5.9114,
34.5941,74.4247,-2.1268,-6.5901,63.3389,59.7713,2.5991,8.4169,-7.4567,1.6712,-8.3087,-2.6738,-13.5059,-6.5208,
37.098,79.8412,4.0266,-7.8817,66.528,50.6412,6.5408,8.1531,-3.3941,0.36583,-5.6408,-5.6466,-14.3825,-9.7447,
31.98,75.0507,4.7488,-4.9987,58.198,44.7102,4.7021,7.6639,-5.6006,0.34388,-9.1592,-5.7902,-14.9658,-10.1244,
28.8559,70.7886,4.2229,-4.4578,50.1263,49.4994,4.6609,8.4089,-6.9518,0.56422,-8.8506,-0.3811,-9.0067,-6.8658,
25.4376,57.6235,5.1746,-4.4315,37.719,45.8067,5.5868,9.1094,-7.2578,-2.121,-7.5964,1.8112,-12.0815,-6.6946,
18.3677,48.14,6.0694,-2.4784,36.6607,35.1041,4.0463,8.3219,-8.9915,-2.7171,-6.8997,-2.3953,-14.4901,-9.4264,
9.5527,38.021,4.7412,-8.596,33.015,27.2135,1.8755,3.4845,-10.8624,-0.62561,-6.0031,-5.1434,-4.9433,-8.8606,
2.231,24.1706,1.5647,-8.5626,16.9341,25.5807,2.2449,1.3472,-5.3899,1.3401,-2.7508,3.3599,3.548,-4.4726,
-7.0621,8.6204,-4.796,-9.4949,1.8181,9.9459,0.18227,-2.5902,-2.1742,-0.18632,-0.17542,2.6761,1.4071,-6.6146,
-10.7357,-5.9968,-5.2316,-9.6481,-2.1472,-4.2687,0.4123,-2.6758,-3.2491,0.065824,0.55801,-6.4021,3.9738,-5.0124,
-13.2248,-15.519,-3.7126,-7.3822,-7.5622,-6.6639,0.6283,-3.7203,0.56154,1.7493,0.28379,-8.6693,6.8686,-1.0965,
-14.6007,-19.6497,-4.6949,-6.6986,-16.9906,-10.8436,0.3494,-6.1484,3.6611,1.4032,1.9538,-1.1599,3.8052,-2.2357,
-11.7965,-21.3628,-12.126,-5.3323,-17.4174,-16.9419,-4.0099,-2.405,-0.89734,-2.0555,0.87221,5.6586,2.1306,-5.4761,
-14.4632,-28.2758,-15.2548,-5.9762,-23.1208,-24.1201,-7.6257,-1.2969,1.5671,3.8524,2.7481,3.3909,5.8596,-1.2911,
-19.3799,-35.2563,-7.5906,-4.6538,-26.0719,-24.1191,-7.1681,-7.9675,5.8114,9.4059,6.4396,3.6694,7.4362,1.197,
-16.5299,-29.0436,-2.074,-1.2411,-24.7486,-14.7178,-6.4971,-3.874,0.40102,8.1186,11.5968,17.5492,10.1231,1.3661,
-16.2613,-30.4342,-2.1903,-3.8179,-26.8793,-14.0759,-3.4559,1.4199,-2.7563,4.4982,11.6241,21.1965,11.6851,2.9711,
-20.829,-42.3467,-3.7463,-0.45561,-22.6152,-26.006,-0.11532,-2.281,1.5067,3.9872,5.3833,7.6324,12.671,2.5517,
-19.0973,-46.5544,-5.4497,4.8744,-27.5248,-32.6404,0.85593,-2.6261,4.7907,9.5325,6.9885,4.7643,18.6596,3.3629,
-18.9153,-43.2792,-8.9791,-0.72073,-39.9733,-29.2357,-3.5342,-5.8429,2.5751,7.0324,11.3894,3.0322,18.5039,-0.21333,
-18.7445,-34.8976,-6.512,2.6967,-30.7055,-19.2866,1.9807,-1.1538,7.2411,5.1644,16.9728,-1.0063,18.3582,0.28163,
-22.6817,-42.6859,-8.7726,-0.11639,-19.4634,-26.0834,0.65681,-0.36146,4.1553,1.2389,9.9287,-2.151,17.0156,0.023536,
-23.249,-47.8378,-6.8004,0.37252,-29.3829,-29.821,-5.1676,-4.1962,4.8698,2.6108,9.8149,5.2089,19.3686,3.8785,
-27.8796,-48.1008,-5.669,0.10966,-34.6098,-23.452,-7.0263,-7.0779,7.7111,7.0339,8.9855,1.7629,15.5554,1.4766,
-24.7606,-43.7684,-4.8469,2.0313,-24.338,-18.6709,-0.82012,-0.86862,6.7665,12.8784,10.3745,-1.235,13.6582,0.42417,
-17.2494,-41.8655,-7.6892,0.22217,-22.1548,-16.8273,-0.048013,-1.0575,2.2632,10.9004,9.0287,-4.2944,12.1158,0.63969,
-14.286,-38.8714,-1.4435,-3.6478,-27.5742,-12.4434,-1.9731,-4.3682,4.5377,8.3184,8.0053,-1.1444,11.8706,1.5654,
-16.8033,-32.2005,6.3559,-1.9826,-28.3299,-15.0713,-3.7834,-1.2141,3.3011,7.8193,8.4888,5.6732,10.1945,-2.8673,
-12.4209,-24.0022,6.4567,-2.8278,-19.8814,-13.6848,2.2284,2.2334,-2.6817,5.4217,5.5692,5.8149,9.1006,-5.5875,
-11.1932,-22.5621,7.0332,-5.5506,-19.1705,-6.1148,6.4331,0.17124,-4.449,2.2044,3.7887,1.6097,10.4828,0.05035,
-19.6809,-27.9566,4.2013,-1.361,-25.7332,-5.7482,0.26273,-2.2494,-1.7717,0.14367,3.5616,1.5128,9.3717,3.422,
-21.3921,-32.0642,-3.2816,-0.31546,-25.6355,-9.7416,-5.5376,-4.5246,1.2271,-4.2033,2.866,-1.4704,9.2913,2.7343,
-12.637,-22.1864,-4.2902,-0.055333,-24.8205,-7.9521,-2.0726,-2.5661,0.91228,-4.1923,4.863,-1.141,8.4926,1.3652,
-12.8431,-17.9632,0.30595,1.3942,-24.2951,-6.0287,0.46238,0.96233,-0.58872,1.3619,6.0175,1.82,8.9474,-1.6093,
-15.6875,-22.4288,1.011,3.9617,-8.7374,-3.9797,-1.2526,1.6275,3.5444,2.4855,7.3436,0.023532,13.4722,-1.2713,
-8.7209,-17.4676,-4.5935,4.4471,-0.6209,0.35618,5.3303,-1.1215,4.0544,3.5414,8.59,-5.0393,15.7972,1.4563,
-7.2336,-13.5273,-2.8719,-1.6045,-13.5993,-0.14735,8.8671,-2.0183,1.8832,6.7032,8.5568,-3.7733,14.3672,-2.0057,
-11.62,-15.126,-1.7355,-3.4362,-17.1219,0.34365,-3.2343,1.4775,-0.15822,4.8549,1.2947,0.79162,10.1309,-3.3314,
-12.1279,-14.4592,-7.6567,-1.0607,-5.2481,5.3849,-8.5837,-0.78055,-3.7639,1.9123,1.4582,7.2518,11.6924,1.448,
-11.1593,-12.8687,-5.5105,-3.1666,-3.246,8.6768,3.7415,0.47158,-3.7795,3.0024,10.7707,8.9859,16.534,0.15581,
-12.6589,-16.1939,-2.5283,-8.5202,-10.0411,8.3972,7.1324,1.6481,-4.2756,2.0994,6.5091,0.49299,11.4447,-6.361,
-7.802,-10.643,1.7207,-6.3213,-9.6796,12.4731,3.571,0.82633,-0.40368,2.6968,0.092968,-4.5978,10.0351,1.9744,
-4.6825,-3.0148,7.1609,2.4934,-11.7501,11.0016,4.5618,0.053621,0.34367,-1.5626,-1.1181,-9.8658,12.5662,4.0253,
-5.6069,-5.0031,7.9365,3.0671,-7.4297,7.208,11.7599,2.7015,-2.328,-6.0486,2.5644,-15.2994,12.5352,-7.0625,
-12.0191,-11.9335,3.1218,-8.2043,-7.948,3.4013,10.0902,0.12951,0.22154,-5.6855,6.2671,-19.6838,5.5168,-12.9055,
-9.8515,-6.397,1.9704,-1.9273,-6.989,5.6076,4.6643,1.5678,7.9212,-1.4882,11.1935,-10.7903,8.078,-2.008,
-8.7785,-0.71053,5.2266,-0.36538,-2.2313,6.7174,6.3126,-0.45449,2.6253,-3.809,5.7017,-3.3939,8.5572,-1.8875,
-7.5284,1.0193,14.7954,-4.4408,2.4823,10.8936,18.7083,-2.1144,-4.5217,-3.8214,-0.66599,-6.8057,2.0182,-5.8716,
-8.2825,-2.1753,17.5226,-5.3797,0.16375,13.8554,14.9343,1.6278,-7.8658,-7.2076,-5.2058,-12.9053,-4.1284,-5.2784,
-9.7135,-5.9014,18.3997,-4.0928,-0.32824,12.5419,10.664,2.0123,-5.4659,-7.2573,-4.8937,-3.9361,2.3861,-3.5156,
-9.1304,-5.0652,14.4034,-2.4012,-3.2008,9.3795,14.8446,-1.965,-4.6558,-2.9652,-4.1179,2.0849,5.1352,-7.1609,
-12.1983,-2.5919,8.9597,-6.8366,-17.1088,5.6835,11.3031,0.32227,-7.9916,-3.0285,-9.4142,-4.5479,-1.1987,-8.4182,
-14.3584,-2.4364,14.2067,-7.3903,-17.6485,7.7526,9.1787,1.7492,-6.5482,-4.775,-8.3674,-0.41864,1.7657,-1.6466,
-13.9791,-3.7362,10.462,-1.1625,-4.5383,10.1797,11.0378,1.1621,-0.85247,-5.4526,-2.5629,3.4631,7.9261,0.86256,
-12.8994,-4.7173,-0.047647,-3.7439,-4.9894,8.8456,11.0989,2.7796,-0.078425,-3.4382,-0.24001,-1.8064,7.2095,-1.8407,
-11.1613,-5.3984,2.3651,-4.9653,-8.0642,8.3151,9.9508,4.5408,-1.5197,2.0705,0.73895,3.6044,2.4384,-2.6944,
-14.348,-9.4128,3.1875,-6.1136,-10.4724,3.9598,4.5335,1.8582,-2.8748,-3.3559,-4.1261,5.3164,-5.9026,-4.9429,
-7.2206,0.31054,2.5143,-2.8547,-9.3626,7.0962,8.5998,7.5313,2.1179,-5.0828,-1.9503,3.0692,-4.1022,-0.30797,
-5.8231,7.5227,2.8454,-1.7191,-7.3546,7.6348,10.494,7.0794,1.5089,-4.2959,-2.3153,3.367,-4.338,-0.28949,
-9.8122,-4.0156,6.5308,-4.0263,-12.6981,-1.5002,10.346,-0.094035,0.45428,-5.0022,-1.2127,7.9854,-7.4524,-0.27235,
-11.8748,-13.1744,3.9701,-3.5436,-26.0362,-7.9179,9.4845,1.1167,-0.29611,-5.4252,-4.2727,5.8193,-8.6922,0.46758,
-6.8236,-5.1536,-2.5351,-0.43888,-14.9531,0.26995,10.8437,8.2805,1.6499,-3.6534,-9.319,-1.7607,-11.5452,4.7778,
3.95,0.69946,0.26832,4.6494,0.044061,3.387,17.1831,9.9531,5.1665,-6.0855,-9.483,-8.6447,-18.324,5.2143,
1.3026,-6.0912,3.145,2.442,14.1414,-10.9162,20.4907,4.5354,0.9999,-12.951,-7.9499,-10.054,-22.527,-5.2217,
-3.837,-6.4488,1.7507,-1.8017,18.3544,-14.7198,25.2866,2.5758,1.1811,-10.487,-3.3754,-0.050965,-15.632,-4.1853,
1.4547,1.4097,-3.4157,-0.0065719,30.0273,-2.9906,19.1899,2.6625,0.38711,-9.617,-4.3784,1.1572,-12.5251,3.5374,
7.8749,3.0123,-1.5236,-1.2115,33.2874,-3.0521,12.0129,2.2618,-1.8053,-7.8347,-1.946,-8.7942,-14.4247,5.4944,
5.7152,-0.78385,5.0753,-4.7542,28.6386,-12.7514,14.4252,3.3309,0.4722,-2.7853,3.2319,-13.8102,-12.3544,-1.3432,
3.685,1.4323,1.6378,-3.746,32.4639,-12.2273,11.8724,0.47994,1.1668,-3.3411,3.279,-9.8485,-11.3717,-7.7701,
6.1155,3.998,1.7805,-1.8341,32.2033,-2.0936,6.0989,-2.6823,4.2302,-0.97148,6.2157,-3.714,-9.9665,-1.7603,
3.338,1.3475,1.6736,-3.1698,19.1839,-1.968,0.91223,-2.5214,1.5663,-4.7696,4.8785,-6.8652,-12.2606,1.2378,
6.7536,6.3288,1.8142,-1.7743,15.3817,-4.0191,2.5447,0.76336,0.26704,-5.2063,3.3809,-4.2841,-11.284,2.3688,
5.384,1.6103,1.7053,-3.5961,15.4232,-7.6343,1.9101,-2.6569,2.6616,-3.4477,3.66,0.79367,-9.6426,-2.594,
1.6868,-2.8244,2.5671,3.3684,18.8363,-9.1042,4.6878,-3.4616,5.8761,-2.2767,6.3332,1.2282,-7.1361,-1.4743,
1.3443,-0.0041025,1.69,6.2991,17.4649,-6.871,3.2015,-3.4951,5.2824,-3.8276,6.1939,-4.8717,-5.5029,3.1937,
0.78175,1.4424,1.5886,3.511,13.0426,-2.1204,-6.6316,-2.321,3.0372,-5.5261,4.8579,-10.364,-4.2084,2.5202,
1.217,-0.57256,1.9754,1.3724,14.1885,2.3454,-8.1621,1.1924,-1.4836,-5.1943,2.1566,-2.5111,-5.8843,0.92246,
2.8308,-0.29724,1.6159,0.084738,11.1675,0.51742,-1.6469,-1.5302,-1.1536,-3.1959,-2.0706,1.7369,-7.7004,-1.302,
6.9997,4.0594,5.3754,4.4184,11.9442,-3.8519,-0.10132,-2.8846,0.3619,0.37078,-2.9103,-10.4184,-0.9714,-2.6697,
6.8207,4.0568,5.7757,6.3225,16.7707,-7.2363,-3.2287,1.3858,-3.7572,-4.2312,-3.4585,-20.1576,2.7018,-0.34038,
4.4832,1.8852,2.5371,5.4607,9.4979,-7.7664,-3.035,2.7489,-2.5679,-8.7976,-6.1436,-14.6098,-1.3167,1.1258,
0.11667,2.0128,0.21551,2.4818,-1.9184,-12.3619,-6.9505,-1.9956,1.2014,-5.1369,-8.4263,-13.0101,-5.3352,-4.4851,
3.002,5.7487,6.4693,-2.4876,3.0176,-14.5124,-9.4257,-2.358,0.16567,-1.936,-9.3667,-16.568,-4.533,-0.35983,
6.4375,9.5013,4.3942,-1.6152,5.4879,-13.8824,-10.0653,-1.4934,-3.4599,-8.3275,-11.456,-13.4046,-6.4299,5.2056,
5.8098,12.0643,-1.8955,2.0971,1.0608,-15.2191,-8.2565,1.7297,0.3631,-7.5869,-8.1176,-3.6822,-0.9829,2.7241,
6.4256,10.3765,0.14643,-0.43885,2.9253,-16.7161,-5.8329,3.0722,1.7876,3.9555,-5.7023,1.359,-0.44199,1.1144,
5.3169,9.0308,2.307,-0.65371,1.5448,-14.0261,-9.0981,-1.2097,-1.4529,4.4413,-5.6009,-1.3739,-5.9589,0.32441,
5.962,12.3456,-0.72368,4.6884,-2.4041,-14.1487,-8.0701,0.30889,3.9367,4.1746,1.4838,-0.80931,2.1117,2.7153,
4.1585,11.6048,-7.9111,3.4428,-3.7061,-19.5663,-7.5859,2.7009,2.2547,4.4065,0.91284,-2.2066,2.9488,3.0343,
4.6318,9.2213,-2.8567,3.4772,-0.83217,-16.2231,-6.4078,2.7799,-0.53218,3.4188,-5.1675,-2.3151,-2.2893,2.6113,
5.3178,8.1857,1.1706,3.7505,2.1094,-16.2141,-4.0952,1.1663,-0.50025,-0.64319,-8.2323,-3.141,0.25772,2.4546,
5.2397,10.3461,-6.3714,1.8382,4.6343,-22.2306,-4.0904,2.784,-0.22927,2.047,-5.0868,-5.1212,8.6784,2.0664,
2.0333,5.8689,-8.3992,-1.1641,-3.8384,-22.343,-3.845,4.0633,1.2307,6.2629,-2.8534,-5.2964,8.1577,0.97806,
6.7317,5.0346,2.2278,4.6905,-6.5004,-21.4846,-2.6502,4.7836,3.5673,3.4768,-1.7181,-2.5682,2.8477,1.4015,
8.2558,1.3579,4.0221,2.4807,-2.7362,-27.9081,-7.3117,-0.32439,0.94287,-1.5523,-4.5073,-7.2346,-2.1436,2.7635,
8.2428,3.205,1.3711,2.8142,-2.572,-21.4129,-8.8012,4.0339,4.7427,2.3972,0.10188,-7.2825,3.7696,5.4902,
12.3276,12.4127,-2.8089,12.0449,-10.3714,-8.318,-6.1039,12.7099,4.2172,4.9045,5.6389,0.62628,7.1588,2.9916,
12.0701,13.5959,-1.6763,12.7687,-20.8361,-12.6394,-3.3273,14.8396,3.482,3.6461,6.7471,9.2656,5.2833,7.6326,
2.1868,3.1392,1.3168,8.1457,-30.1915,-25.981,-5.0559,11.0567,3.755,1.4992,2.9673,10.1559,4.9663,16.3337,
-2.042,-2.1106,-0.44967,4.5237,-34.8875,-34.1839,-6.9219,4.8499,-0.56744,3.0967,-0.34396,5.449,9.7298,12.2204,
7.2396,6.6927,1.0236,5.6986,-32.3123,-28.7586,-5.0604,6.0047,-2.4621,5.8029,2.5692,2.2295,16.8587,7.1484,
6.3233,13.04,-2.4123,10.6593,-29.8916,-27.0331,-4.2748,9.9827,-1.8319,5.4547,2.897,6.9165,12.9547,11.5402,
-0.56382,9.1244,-2.5083,9.7785,-33.6415,-29.9906,-4.7414,8.1787,-0.99889,4.8863,-2.8202,8.1885,4.2239,12.0529,
-1.0122,0.38198,1.0164,8.2277,-41.7464,-33.9758,-11.688,3.3494,-1.4211,5.0753,-6.9896,-1.4617,3.9702,5.5449,
-2.1567,-0.3643,-1.2137,11.3495,-39.9645,-32.6603,-12.1916,4.8357,0.83331,5.4936,-5.8473,2.2415,6.3831,6.4175,
-2.2683,-0.58341,-0.89993,8.9813,-29.1307,-29.9776,-3.9883,4.3046,1.5062,5.8874,-5.7374,8.1325,4.3134,6.7553,
3.1702,-1.5125,3.9745,8.9246,-26.4188,-27.2148,-5.6774,2.6003,0.93368,5.5339,-6.8392,0.8959,1.6442,2.0115,
2.7393,-1.6625,1.0847,5.7378,-28.931,-29.1971,-13.7722,1.7211,-0.80934,-0.34151,-7.152,-1.3272,2.2687,0.20378,
3.7802,2.5346,5.117,4.1882,-22.1337,-29.6147,-5.9565,-0.06935,-1.4837,-0.56199,-4.5537,8.1524,5.2656,8.6277,
4.2763,3.5878,8.9074,0.32197,-19.1184,-30.007,-1.5013,-3.1982,-3.5638,2.6052,-5.9677,3.084,2.7805,11.243,
3.5376,4.8186,3.5524,-0.66145,-23.7559,-28.2066,-7.6779,-1.5603,-0.93964,5.8231,-1.753,-4.3317,1.6496,2.8559,
7.1822,9.3502,-2.9272,7.091,-24.2588,-26.9961,-8.1816,0.94345,2.0088,5.4737,0.28035,4.1229,4.4431,-1.1718,
8.679,4.4504,-1.3053,6.6651,-23.7676,-32.6074,-7.2087,-1.5233,-0.039919,0.3246,-5.0391,10.1421,5.1404,1.3086,
5.0254,-1.36,3.8344,4.5786,-24.9924,-31.8558,-9.909,-2.6369,-1.2426,-1.3819,-4.9775,1.0981,4.1093,-1.4212,
2.5543,0.40882,3.8453,8.8832,-23.2519,-25.8471,-9.5559,1.1367,1.0011,-3.4681,-0.5815,-8.3678,3.1394,-2.5408,
7.4625,3.9995,4.8197,12.4473,-17.2775,-23.0912,-4.403,5.648,6.4849,-4.4651,-2.2341,-6.179,6.5667,7.4934,
14.4865,12.1956,10.0741,14.834,-5.8767,-15.198,-1.4873,9.4065,1.9985,-3.4743,-10.0538,-2.6745,6.4136,13.5517,
14.0995,17.2483,9.9518,10.5697,2.6708,-8.0196,1.9762,7.878,-10.6552,-9.5326,-16.1992,-10.7092,2.1722,9.3639,
12.0485,18.3827,5.2571,8.7305,5.6438,-7.2973,7.8834,6.2002,-7.8465,-11.6119,-13.5403,-11.2717,0.83681,6.6332,
10.6024,17.0386,0.36265,7.4835,3.6182,-7.1004,4.759,4.1408,-6.6526,-9.2278,-12.4867,-7.4622,1.5097,4.5477,
10.6894,13.8473,1.546,0.5268,3.1599,-3.5411,2.3041,-0.20479,-12.7611,-9.3972,-15.835,-10.6298,2.1423,0.65966,
12.2172,14.2213,6.5144,2.182,6.1036,-1.1595,2.8888,0.048002,-10.7906,-11.003,-16.0902,-14.0896,-1.6017,-0.10328,
14.6174,20.3577,9.7387,8.0768,11.7629,4.4537,2.9566,7.0352,-1.7073,-5.2809,-9.581,-7.7006,-2.2287,0.62604,
13.4997,17.9312,6.5036,4.459,8.8882,4.9096,0.60985,6.3719,-6.6663,-5.2053,-10.6931,-2.6589,0.0744,-2.5448,
10.0381,14.2042,0.56973,5.8786,5.2214,-0.44641,0.33229,2.3742,-12.7738,-8.9903,-14.6313,-5.6328,0.3109,-6.0075,
9.4361,13.8341,-0.42855,6.972,9.7289,-2.3478,3.2046,1.75,-7.1869,-6.5225,-10.3787,-11.5614,-0.67185,-6.6112,
8.3875,9.6296,-1.8491,0.76906,11.0733,-6.0636,2.0485,-1.7294,-8.2019,-9.5056,-8.3102,-15.2062,-0.1496,-6.6964,
8.1255,5.4367,-4.8714,1.9284,8.2395,-9.7971,2.1668,-4.7589,-8.9149,-13.0328,-8.0523,-11.6425,3.957,-3.1614,
7.8791,8.2437,-4.8203,5.9099,7.9864,-6.558,4.6876,-5.1965,-4.7648,-10.0815,-6.846,-11.6671,2.9964,-0.80231,
9.8163,14.9797,-4.5309,8.4476,20.0404,-0.86206,4.8885,-2.4748,-7.3712,-4.6561,-6.4355,-13.8594,1.3701,-4.6108,
9.7095,10.7062,-7.1513,3.6022,28.4787,-0.81034,1.7029,-1.3622,-12.7133,-8.7153,-10.3879,-15.9201,1.2882,-7.7084,
10.332,8.3769,-7.9278,0.7347,27.9751,3.3356,1.8415,-0.55738,-11.7097,-17.1104,-16.7543,-15.688,-1.4405,-4.5945,
15.2559,15.3463,-4.8008,2.86,29.4303,9.6432,6.3105,0.68113,-9.8021,-12.9503,-19.8466,-10.1672,-2.5591,-3.1138,
16.7509,16.8359,-2.1024,4.6168,32.003,7.6186,6.8965,2.5687,-8.2494,-6.8709,-18.1737,-9.075,-2.4053,-4.373,
16.7095,17.7537,-1.4941,7.2317,33.939,11.4998,6.4824,5.7888,-5.8265,-6.9408,-14.191,-8.5308,-0.81497,-4.5928,
11.8505,16.6885,0.041844,-1.397,26.6,12.738,2.2371,0.62121,-8.3694,-8.9345,-17.678,-10.429,-1.7304,-8.6555,
7.5243,14.964,1.2444,-5.4103,19.4606,7.3947,1.8617,-2.5493,-9.0723,-6.7109,-18.3044,-14.8647,-2.8316,-8.3774,
8.7603,15.7536,-1.4816,-0.98852,20.4624,9.6023,2.4731,0.25496,-7.3224,-7.5133,-14.0728,-16.6242,-3.8668,-3.2952,
12.8137,15.5311,0.77669,-0.20608,23.3318,9.7488,2.5659,0.4804,-8.5706,-10.6782,-14.9157,-12.4935,-3.3941,-5.2669,
11.322,8.0917,3.3812,0.047249,20.2446,-0.71803,2.6529,-3.6458,-11.1898,-12.6888,-18.6003,-14.8774,-4.3952,-9.5302,
6.5453,-0.3475,-0.4371,-2.6067,13.9687,-4.2901,2.7347,-4.1499,-10.277,-16.5068,-15.7968,-20.4922,-7.747,-3.4148,
7.5989,0.15528,-1.3747,-2.4503,10.72,-0.17657,0.64245,-2.9371,-10.1428,-17.9267,-14.8492,-15.4063,-12.1028,-2.246,
10.7584,7.6178,0.8769,4.6866,17.0667,1.5215,2.7735,-3.9657,-6.4007,-13.2357,-13.7171,-5.5638,-1.9762,-4.2804,
3.1232,2.0993,-8.5759,1.7541,17.7301,-5.0775,1.884,-8.3073,-10.5962,-16.057,-18.4377,-12.7018,3.2038,-2.8185,
1.4891,0.52704,-12.8821,3.0946,14.7377,-2.363,0.80661,-2.9886,-15.7452,-16.0579,-18.7777,-19.6527,-1.8091,3.6171,
5.0156,5.0747,-4.155,4.1143,16.9869,1.3945,4.3736,2.7344,-10.7029,-10.5147,-10.1792,-12.9299,-2.4235,2.1952,
3.2684,4.2883,1.397,1.4573,17.8959,-2.0637,3.1469,0.64211,-8.1326,-9.4019,-10.0506,-4.9235,0.61398,-3.7211,
1.3849,7.6462,-3.7488,4.0212,17.5453,-1.6989,4.1631,0.84478,-10.2959,-9.5609,-14.0269,-5.8332,0.81834,-0.36453,
4.9172,12.731,-5.693,6.431,19.1436,2.9826,13.7953,5.3734,-7.0269,-9.7104,-8.606,-8.1345,1.0102,-0.58363,
7.5149,15.3418,-1.9767,5.5634,17.9953,7.6243,16.3423,8.9076,-0.33827,-9.1273,-5.1969,-2.8255,1.9137,-1.5127,
6.3404,15.6264,-2.0993,1.1316,9.4435,8.3717,9.3359,9.0958,1.3688,-3.5184,-7.5368,-0.48703,-1.8168,1.2294,
8.8525,15.6531,-1.9734,4.4386,0.20025,6.9055,8.7762,7.5862,0.3228,3.9235,-4.674,-2.3858,-1.7073,1.1556,
4.706,11.0985,-5.4704,5.3771,1.3935,6.25,5.5981,4.4799,-1.866,2.4828,-3.1885,3.7829,-0.88198,1.3272,
-1.6019,3.4423,-4.4193,-2.4173,6.3711,2.2596,2.6107,-0.36862,2.3434,4.0208,-1.3102,12.4735,-2.5163,6.3088,
-1.5058,-1.1026,-1.7435,-0.34409,0.20429,-7.035,4.3822,-4.2029,3.649,4.7439,3.1069,9.7972,-4.7754,1.11,
6.7792,11.0151,-2.1208,11.2457,0.19203,6.4027,10.8682,6.1726,7.7689,9.2798,13.0439,17.4043,-0.63252,2.9716,
2.2753,15.4157,-9.4656,8.402,-5.8453,20.1186,6.6009,11.8276,13.328,15.7126,17.3227,30.46,3.0206,14.6037,
-6.0563,1.4753,-13.236,4.0415,-19.5945,17.5859,-2.4722,6.2977,12.5284,17.1805,15.319,33.5736,0.91119,13.7275,
-4.4874,-4.1566,-9.7905,6.4504,-32.5189,12.9153,-5.4572,5.1967,12.0179,15.9084,17.0512,29.3898,1.0977,8.3243,
-4.4596,5.0109,-10.8903,7.2682,-31.2906,23.9508,-8.7451,7.536,11.5377,14.713,15.7872,29.3136,3.201,7.102,
-8.7716,3.5052,-15.7805,0.80677,-21.9414,25.647,-12.8,3.4686,11.5686,15.0352,7.8503,29.2418,-0.60624,1.6144,
-11.8607,-6.5875,-12.1824,-4.3033,-25.2044,20.0103,-13.2373,-0.35489,14.9718,16.7847,7.1383,26.2825,-6.1135,4.1686,
-9.9437,-4.5051,-7.3541,1.4985,-21.523,20.015,-12.2021,0.3893,17.207,16.9824,13.2175,23.5002,-0.68545,7.5339,
-6.4546,2.5141,-4.9846,0.92665,-11.5543,15.4401,-7.1311,-0.11599,13.7645,13.5534,10.0143,18.7158,4.6588,-1.1128,
-3.6572,2.8452,2.5453,-4.9135,-13.7536,10.6569,-4.2932,-0.59097,9.5642,12.2582,5.0751,11.3263,-1.4058,-5.3848,
-4.1609,2.9153,16.4926,-6.3062,-25.703,12.6688,-7.1688,0.16716,8.7491,12.2454,5.0114,7.513,-4.4552,-2.4104,
-3.4291,4.6688,27.1929,-6.8919,-24.6425,13.3547,-7.7028,-1.2889,8.7063,10.0647,3.2646,9.955,0.6331,-3.7118,
2.5612,5.8349,23.6331,-4.0683,-13.523,13.5177,-1.938,-3.1398,5.2914,8.9788,0.17625,14.1779,2.5233,-5.4173,
2.6483,-0.05904,12.8149,-4.5473,-12.9528,13.4298,-0.61663,-4.1564,5.2151,7.717,-1.0394,13.5685,1.6488,-3.8872,
-6.1872,-1.9837,7.7077,-6.2026,-16.9962,10.2139,-7.8105,-6.3172,6.8304,7.7359,0.95117,16.1288,2.5142,-6.5465,
-12.5647,0.063755,5.3168,-4.8664,-16.9405,6.7083,-10.7161,-9.7948,4.9746,7.7539,3.7864,19.0172,1.8812,-3.2614,
-6.9903,-2.8324,2.5879,-2.646,-17.3701,6.788,-4.2883,-7.7606,4.1939,7.7708,3.0775,15.9482,1.2861,5.6116,
-2.4735,-2.4215,-1.1833,1.6101,-14.1587,9.0318,1.0302,-6.0901,4.6652,9.4737,-0.24064,10.8935,2.4143,3.1053,
-4.9767,-3.4815,-5.2096,-1.62,-7.7658,9.6952,0.24505,-9.8221,4.1443,6.7362,1.4606,9.999,3.9562,-3.5885,
-0.098562,-3.0314,-3.692,-0.79964,-4.6485,13.211,-1.9386,-7.5457,4.6188,-2.1039,2.5785,9.1578,5.8882,-1.2043,
0.63094,-4.0546,-4.1931,1.8997,-4.6104,13.6234,-4.9555,-2.9954,3.6185,-6.0753,-2.6377,5.9575,2.884,-3.3009,
-1.0944,-7.9089,-4.6651,-1.8295,-5.539,12.0829,-1.5249,-3.0569,4.6065,-0.6493,-2.7206,4.3945,1.5055,-5.7542,
2.3455,-2.6138,-7.2775,-5.0944,-10.9913,11.3582,0.97692,-6.7296,3.366,-3.0207,-3.5215,1.7209,-1.4771,-2.5167,
3.4098,2.1225,-1.297,-7.922,-11.5369,10.4355,-0.76915,-8.0128,3.4052,-5.9727,-1.6232,3.3047,0.78087,0.76759,
-0.8921,-3.0665,6.2526,-6.2414,-8.6755,10.5327,-1.9278,-7.773,2.96,-3.9271,1.1257,4.7936,0.011117,-2.8939,
8.0793,2.1794,0.81601,1.1227,4.1373,19.7824,2.7673,-1.2813,3.5055,3.7805,2.2633,9.0855,-3.6052,-3.4434,
10.0049,8.7973,-7.9098,-2.3189,8.2276,20.042,1.6372,1.2059,2.813,6.9279,-0.28289,7.0944,-1.9424,-4.2004,
0.96913,6.5824,-6.7121,-4.831,7.9752,12.8137,-0.14802,-1.0354,-0.48904,5.3072,-0.024724,1.1253,2.2713,-5.6359,
4.0438,4.0181,-7.0325,-4.3,19.789,16.1425,4.9219,-3.6251,-2.1472,4.2656,0.2175,2.2629,-0.034396,-5.0565,
9.345,2.0896,-6.8518,-6.6933,25.5913,19.271,4.3858,-6.5408,1.5973,1.3584,0.92758,4.296,-1.2374,-4.9943,
0.58959,-1.8922,-4.9944,-7.256,16.343,12.3302,-1.6619,-4.7021,1.0195,-1.6152,-0.091944,-1.2644,0.76504,-5.1766,
-3.3024,-1.7789,-4.695,-4.8927,13.9159,9.18,2.2939,-1.5277,-2.4163,-0.072709,-0.086658,-2.1526,1.2013,-1.4918,
0.26996,-4.564,-7.3055,-2.1883,16.4557,9.5933,2.6385,-6.2565,-3.2354,-4.4064,-2.4914,-1.0594,0.16513,-4.7765,
0.012571,-7.9058,-2.2877,-1.8163,12.817,9.7408,-0.17116,-8.5324,3.4664,-4.3832,-1.6192,-4.1291,4.2523,-1.3566,
-4.0853,-11.5286,-1.4273,-0.98419,8.4323,6.9875,2.0085,-9.7075,6.8741,-1.9509,0.64734,-4.6044,5.6847,-0.070176,
-2.153,-10.5959,-7.8491,5.1004,11.0599,10.1832,2.6109,-8.8841,5.7383,2.2635,5.6702,-0.23082,5.1026,-5.1276,
-2.9879,-8.0322,-7.8604,3.3484,11.3604,11.9825,-0.43805,-7.3874,4.9118,5.9843,2.4372,-2.1449,5.7606,-3.8559,
-4.737,-8.5143,-5.4608,-0.70916,9.2327,6.925,1.9986,-7.4258,3.1711,0.32241,-5.9035,-7.3187,3.0046,1.6783,
-1.5605,-10.4138,-6.0972,-3.0765,4.3402,5.0635,4.289,-8.9087,1.0528,-3.0712,-3.1389,-2.0591,5.2346,1.0955,
4.5589,-4.7271,1.2587,-1.2049,11.0694,11.2674,5.7187,-5.2405,-0.69778,3.1389,6.4492,7.4643,9.5001,-3.0678,
4.7673,0.37678,2.629,0.31317,17.6361,10.109,1.5192,-6.3723,-5.9586,-0.4239,0.75958,4.1239,1.6992,-8.6683,
5.2044,1.0773,6.5688,1.0175,7.6601,9.7436,1.6688,-3.821,1.3886,2.2529,-0.0091223,7.0102,5.2125,-2.6049,
-3.0616,-6.9415,5.9337,-3.6228,-6.8995,6.0255,-4.9388,-4.3147,-1.8277,6.215,0.23239,9.7226,4.1768,-0.27941,
-3.842,-7.0067,1.7211,-1.4775,-8.0523,6.6281,-2.2322,-1.6454,-11.3593,2.9498,-1.2276,9.6214,2.4797,-0.74435,
-1.2014,-7.0683,-5.6126,-1.3884,4.4824,6.7128,3.2044,-1.5467,-8.2671,-2.5298,-3.0821,6.634,4.7415,-1.6636,
-4.0218,-7.6085,-7.2045,2.5508,-9.8865,7.2739,-4.2187,-1.4539,2.3518,2.4427,1.4411,9.128,5.4209,2.2922,
-3.7803,-7.1518,-2.9156,3.8443,-11.1015,9.2478,-9.7504,-1.8488,3.6567,4.7065,4.2469,4.7242,1.7214,3.1188,
5.1236,-3.8306,0.15189,2.1674,3.6646,6.2828,-2.8984,-4.148,-3.3111,2.4959,-2.7563,-3.754,0.65427,0.5215,
6.5035,-3.8417,-3.955,-1.0957,17.5447,0.36224,0.40855,-8.9608,-7.2103,2.1052,-6.6883,-2.3239,1.3379,-4.0891,
5.8718,-5.7804,-2.5124,0.65681,30.592,1.0634,-0.33886,-7.2184,-3.1622,2.7018,-2.672,-0.49726,1.4986,-3.1208,
11.7865,-0.61285,-0.4335,0.13547,36.59,2.9283,-0.31853,-2.9284,-6.8289,-0.35284,-6.3676,-5.2877,-0.5195,-2.4512,
13.9718,1.834,1.0388,-9.5136,23.7898,-0.62189,0.18252,-6.1272,-9.3112,-2.2594,-10.3239,-3.5246,-0.97026,-1.3403,
6.1436,-2.8557,6.0377,-7.2556,19.7108,-2.7542,-1.9976,-9.8569,-1.2807,0.52725,-1.2688,-1.6259,1.739,0.42739,
1.1953,-9.6738,6.8807,0.16962,22.6255,-7.1682,-1.1548,-9.9888,6.2679,1.7005,9.6531,-5.1438,6.2144,-3.2137,
2.5698,-14.878,0.68327,-1.2868,8.735,-12.5227,0.8431,-8.9071,8.7844,4.4909,15.3409,0.4675,7.7698,-3.0209,
-3.369,-15.4315,-7.5524,0.23665,0.4981,-13.6996,-4.5101,-8.8546,6.3286,6.1497,13.4566,7.6703,3.9291,1.0168,
-7.2642,-12.3365,-0.59181,5.2837,6.9757,-8.7802,-5.4448,-2.2982,5.708,12.7701,9.9977,12.2713,0.5599,3.1249,
-4.418,-13.5247,11.495,2.5568,2.2186,-5.8431,-3.6721,-0.71386,2.4732,14.8967,4.0954,13.4634,-2.8479,0.52709,
-4.6351,-13.6769,12.2518,-0.0070039,-1.2887,-4.5284,0.40485,-7.4197,0.39683,7.2542,-0.4889,8.7995,2.1434,0.97762,
-8.2138,-17.195,9.5881,0.95728,-1.2114,-6.6673,4.2369,-9.3851,2.7831,1.9982,-0.45956,5.379,8.2813,4.2934,
-5.3102,-17.6094,12.8694,3.7921,-14.6363,-8.6771,-2.766,-5.9293,4.0622,11.0371,3.4242,11.323,6.8204,5.4818,
-5.4737,-15.1068,13.0613,-1.7378,-20.9887,-9.1206,-13.2051,-10.394,7.1927,18.5698,8.0397,14.0178,5.4471,2.2606,
-4.4224,-15.8876,10.1085,-4.2846,-5.9911,-8.8143,-5.4233,-12.9038,9.4127,12.8764,8.7621,10.0437,8.2537,1.4021,
-5.1211,-18.3086,4.6815,-3.5459,-4.6675,-11.6601,-1.2413,-8.7554,4.5094,6.319,5.826,10.8871,3.4199,0.83582,
-6.7421,-9.0153,6.3288,-1.8868,-12.1003,-8.5499,-6.9514,-1.4811,5.6851,11.2425,8.369,13.6084,2.7328,2.7139,
-5.3734,-2.2077,5.9488,4.975,-11.3745,-6.109,-6.5346,-0.91057,7.7539,8.6395,5.9384,8.9352,5.4611,3.0332,
-1.9175,-10.029,1.4946,3.9536,-12.3788,-8.3935,-0.11695,-3.0251,7.0477,1.1317,4.3773,7.6762,-0.89208,-0.28229,
-2.2847,-11.3556,1.887,-2.0684,-15.9746,-6.9258,1.8185,0.53063,12.8915,7.8125,8.4527,12.5181,-4.6952,-2.1938,
-5.0399,-7.782,0.80972,0.46607,-11.6419,-4.5823,-0.70097,-1.4292,13.5645,14.0924,9.874,13.6954,-1.5212,4.2046,
-5.2196,-15.0276,0.76091,0.92027,-11.4255,-10.0917,-2.5869,-8.574,6.0015,5.5339,9.2818,8.0527,0.98045,9.7371,
-3.219,-15.813,1.4384,-2.7501,-14.8374,-12.6195,-2.6729,-9.2647,0.098055,-2.7517,8.0018,0.098005,1.1628,1.1989,
-0.61574,-0.7642,3.7627,2.2351,-7.198,-5.1134,4.7183,-4.3705,2.5028,0.30595,5.1115,-1.8361,2.0574,-2.247,
0.3853,1.0889,4.0186,3.5471,-6.2844,-5.7712,5.8813,-7.0005,-1.0221,-3.569,-3.8725,-4.1363,-2.4051,-1.6305,
3.9778,-3.5555,3.5368,2.1292,-6.6305,-2.2912,0.46695,-3.9292,-4.576,-1.6679,-5.3271,-1.2368,-5.3936,-1.2914,
2.2929,-0.93203,1.8783,-0.89065,-6.7146,0.25642,0.92087,-0.80135,-2.3732,8.5551,-2.1155,0.76564,-6.5162,-0.25009,
-3.8707,-1.1175,-0.40357,0.36763,-6.5527,-5.785,3.9991,-6.2969,0.90221,9.2471,2.5912,-0.0032012,-4.9204,0.9702,
-4.1206,-1.5322,0.58475,0.3458,-1.8214,-1.5813,-1.0613,-5.4369,6.6329,10.1383,7.7382,1.925,-0.28663,3.3223,
-4.3551,-1.9224,-2.3426,-4.4954,-6.5322,4.7804,-12.0846,-3.1823,8.1633,10.9765,7.756,-1.5648,-4.1256,1.677,
-0.47834,1.8083,-2.443,3.728,-10.2378,5.6988,-5.816,-0.34024,12.2528,10.0769,9.9418,-1.2299,-6.5296,5.1918,
-2.3778,-6.0129,-2.2965,5.4325,-12.5158,-0.42767,0.79952,-0.31983,11.5177,5.1335,8.3814,2.7003,-4.2096,4.8798,
-4.6453,-11.9187,0.25146,1.7321,-13.2109,-0.40201,-5.515,1.628,6.9702,4.826,8.3604,4.4669,-3.9571,1.695,
-4.8485,-9.2754,5.0571,0.66434,-14.8286,-2.3061,-4.7021,0.084074,6.0701,2.1258,11.7157,-1.5861,-4.2016,1.1113,
-7.6911,-10.8882,7.4048,-1.0627,-17.5543,-7.7113,1.1236,-4.9826,5.9468,-3.5453,7.3973,-7.5165,-0.81599,-1.6069,
-1.6862,-2.7631,9.1299,5.0268,-9.5112,1.6692,-0.14887,0.37776,4.385,1.2469,3.8197,0.4065,5.7407,-1.2693,
0.34313,-5.4894,4.7257,3.2789,-10.3868,-1.3235,-8.817,-1.0912,-0.69886,-1.72,2.6267,1.8279,0.093594,-1.1931,
-3.5338,-13.3552,1.0677,-0.77419,-13.138,-11.367,-10.6981,-6.8103,3.1995,-6.4375,4.8792,0.27198,-4.7327,0.32472,
-5.0088,-6.5281,-1.1658,-3.3791,-2.9497,-2.731,-9.3331,-8.5706,6.6231,-2.918,3.8633,1.4612,-3.2432,-1.3818,
-4.9497,-1.0752,-1.8192,-3.4177,-6.3884,9.243,-7.5683,-2.5132,3.0918,2.8007,3.3906,2.0964,-0.39802,-1.5403,
-10.9192,-6.7953,-8.4585,-4.1765,-20.1051,6.2783,-10.0063,-1.3981,-2.8778,-0.25985,2.7052,0.52437,-1.338,-0.96593,
-13.3971,-6.6285,-16.869,-5.1308,-27.214,6.1426,-10.1292,-5.4116,-0.53599,-2.8954,4.2301,-1.6763,-1.4987,-1.6309,
-5.3627,5.3386,-10.0721,2.4077,-11.4811,11.0764,-4.701,-3.1589,2.8704,0.17066,3.4941,-2.0578,1.4835,2.8055,
1.4666,9.5976,-1.0321,4.9143,-5.8511,10.6528,-2.7317,4.0205,0.047076,0.88378,0.63295,-1.211,2.5998,2.8782,
2.5839,3.96,-5.5494,-1.888,-16.8284,12.1828,-3.7731,6.9123,-2.1254,-2.7851,0.354,-0.41545,-1.1716,0.53631,
2.4288,5.1687,-7.6271,3.5274,-16.3009,15.3082,-1.1361,7.4619,-1.0335,-3.1,-0.63156,4.4297,-2.5476,5.8063,
-3.7427,3.6535,-5.9639,4.5213,-12.6715,6.9181,0.61902,4.8448,0.71549,-2.1908,-0.83441,6.3333,0.25661,7.1454,
-3.7588,-4.0373,-8.7393,-2.7401,-16.0086,0.47728,-3.9976,1.4208,1.3957,-4.2283,4.7595,-1.5182,2.4106,1.6552,
1.046,1.2666,-8.9383,0.075885,-16.2531,7.9204,-8.819,6.3973,2.0353,-4.698,7.125,-3.1144,2.5069,2.7612,
-3.5961,1.9135,-3.3404,1.7586,-16.9652,7.6862,-9.0132,6.2544,4.5643,0.16366,1.6358,-1.2403,1.1512,4.2823,
-1.9341,-1.5757,0.71645,6.9557,-12.5728,0.9585,-5.5799,1.0589,8.6292,8.3485,2.984,-2.6121,5.4209,3.5434,
-0.85414,-2.4451,-6.0754,5.574,-11.8184,0.41906,-10.0658,-2.3791,6.6652,8.3296,5.215,-1.9735,7.0234,1.8846,
-11.408,-6.155,-13.9054,-3.4373,-16.8939,0.39369,-17.1746,-4.1648,2.4087,2.0454,1.046,1.5196,0.81765,-1.6027,
-12.6519,-6.2678,-7.7687,2.0714,-13.9521,1.3342,-11.3237,-0.5402,5.6384,1.9225,0.019126,0.46389,2.6966,2.832,
0.15877,0.37498,5.7129,11.1061,-4.4381,7.0387,-1.9674,4.3125,4.8181,0.36088,0.98185,-5.8305,10.2475,10.3748,
5.9338,8.0655,10.6728,12.3679,-1.2795,9.5089,-0.88502,7.9101,-6.0758,-7.3736,-2.9335,-6.4445,9.1508,7.3422,
3.8906,10.2326,8.3452,8.4928,0.96665,6.2873,-2.037,10.087,-10.291,-10.5461,-6.3724,-5.8169,5.4687,4.7325,
3.175,6.7264,4.4698,4.1267,6.6932,4.4635,-2.8791,9.9635,-5.335,-6.5391,-6.4722,-4.5038,5.1403,9.2691,
2.5025,7.7691,-0.61867,3.3971,6.2916,6.1239,-6.0806,10.33,-6.4611,-5.1829,-4.1557,-1.3415,2.9037,7.7486,
-0.29894,8.9899,-5.643,1.9882,3.7447,5.0334,-5.4748,8.5052,-11.6169,-6.5589,-4.1476,2.3547,2.9707,1.7403,
0.68286,1.7021,-4.8225,4.2791,1.1099,2.8032,-1.7721,5.1023,-5.1353,-3.2733,-1.4886,5.1055,4.7206,5.0099,
0.64212,-7.0771,-3.569,4.9864,-2.3311,2.1533,-3.5937,4.7964,7.2242,-1.1485,1.493,-0.021359,3.4733,8.5659,
0.84456,0.33713,1.2244,4.9282,2.8704,5.1571,-0.72698,8.1241,9.4418,-4.2131,2.6087,-4.5994,3.0239,4.4365,
1.2758,7.5477,1.1509,5.1144,5.5905,2.9195,6.0653,4.7441,-0.76566,-4.4422,-0.92223,-5.7697,-0.53195,-2.5781,
5.0559,4.6845,-0.84609,4.8078,3.8088,1.2983,9.0761,3.4954,3.6188,-0.31954,-0.86667,-4.9413,1.4279,0.46885,
0.65495,0.78826,0.40974,4.7601,5.7494,2.4254,2.5057,4.4907,7.9812,-2.4693,2.3186,-6.8142,5.9218,5.5022,
-4.687,-1.1875,-0.57894,5.4386,7.8146,2.2797,1.873,2.7752,-0.69305,-2.8033,4.1074,-3.0312,3.638,6.1357,
-1.7544,-2.3213,-0.30324,3.4255,6.6228,-0.50819,5.8582,3.3316,-1.3744,-3.358,3.1381,-2.1259,3.1793,5.0446,
2.4486,-1.9408,1.8841,5.871,10.805,3.6197,-1.4829,6.2652,2.3235,-4.8437,3.6727,-5.1319,9.014,4.0191,
-1.7959,-3.9937,2.0123,3.8318,7.5053,2.6793,-7.9017,3.238,0.015172,-2.3842,1.7653,-5.5471,5.8219,2.0909,
-2.8932,0.34346,-0.27786,3.8426,1.9936,-2.0609,1.0083,2.3206,0.255,1.3745,2.3826,-2.081,4.2675,-2.6145,
-1.2738,3.6973,-1.2251,4.094,6.2123,-2.4192,3.3582,1.2175,-1.6885,-1.6005,4.6497,-2.92,8.3498,-6.314,
-0.95617,0.82415,7.7663,1.1975,4.1525,1.8235,-3.8329,2.3495,-4.7204,-3.1915,1.7194,0.38846,6.6437,1.5369,
-1.381,-0.67133,5.3719,-0.80278,-5.7376,-0.69624,-7.4596,0.76248,-8.7758,-0.58961,-7.5425,10.4883,-3.3961,7.2294,
0.14839,0.33304,0.71148,0.20948,1.3554,-0.65423,-2.1913,0.7165,-4.3926,7.1588,-1.7876,14.6795,0.18235,7.2778,
-4.9222,-9.0874,0.9093,-1.9727,1.9969,-3.2665,-4.2294,-0.53178,-2.4423,4.5596,1.9351,0.54231,2.8225,-1.113,
-3.904,-8.7829,4.4706,2.2435,-7.5229,-5.7216,-5.6627,2.1517,-1.5724,-0.29324,2.06,-2.1413,2.4122,-0.32288,
-2.2237,-6.8099,4.2022,1.6267,-8.9997,-7.7887,-4.841,1.0585,-3.4065,-0.75781,0.49033,6.1816,2.7492,4.0346,
-4.5004,-7.3654,2.9859,3.9395,-0.74694,-3.9471,-1.6582,1.9591,-2.7199,2.6619,-6.288,8.2211,4.9946,-1.5099,
-10.7379,-7.1642,1.12,5.3903,0.021233,-2.505,-0.83537,3.5288,-2.7972,1.2973,-9.5259,-0.22591,4.9363,-6.4805,
-5.9962,-4.5654,2.7396,5.3079,-2.1494,-2.1138,-0.06235,2.1117,-5.2809,-0.46773,-3.8929,-0.93526,3.4348,4.7541,
0.38886,-2.6045,2.3342,2.8202,-0.33347,-1.746,-2.228,2.226,-7.6156,-2.6093,-4.8644,-0.15624,1.5415,10.0125,
-0.35737,-1.7251,-0.93931,0.96379,4.2661,1.9742,-1.3712,5.7079,-4.0252,-0.7655,-5.7778,-0.38783,2.6539,5.7963,
-0.33547,-0.1751,-2.3288,4.7623,5.4566,2.3382,0.15757,4.8835,-4.2656,2.6549,-5.4309,0.11737,0.084971,3.0384,
4.2639,0.076369,-1.9481,3.2718,5.8521,0.028243,-1.0572,3.8675,-10.5172,0.32643,-8.7205,4.2077,1.2847,2.6151,
4.9722,-3.7846,1.0611,0.18272,4.5369,-0.93755,-4.368,3.1533,-9.8864,-1.1392,-7.7153,6.3656,2.1717,1.976,
3.4686,-4.2807,3.1666,6.1978,0.64923,-3.0505,-2.9008,3.2051,-4.2315,2.0627,-1.2266,3.8145,0.83613,6.9192,
5.1888,-3.5418,1.5305,7.2718,1.0923,-9.1341,0.64756,2.531,-1.0854,-1.4354,2.2213,-0.27089,8.0169,7.9499,
6.3235,-6.7035,-1.9358,5.3892,2.955,-11.9602,-0.83732,0.93262,2.8361,-7.6163,5.9444,-1.7007,13.8024,1.6884,
0.64131,-11.1221,-5.6762,5.5479,-2.5251,-11.7249,-3.1976,0.39462,6.5219,-1.857,10.4081,-1.1166,7.6717,-1.7873,
-4.2174,-11.4189,-6.7816,6.1794,-8.1579,-11.9855,-4.9339,0.85287,1.7923,2.1113,5.9272,-1.5315,1.9088,-1.1981,
0.37405,-3.5028,-4.4464,11.1112,-0.91966,-2.5894,-2.2274,5.1404,-1.6893,-1.8719,2.1973,5.7911,8.0611,8.997,
1.5567,-2.0876,-3.9389,8.2751,-0.14158,2.6277,1.0393,5.0727,1.0633,-4.8931,1.3423,10.0227,8.3006,9.6623,
0.25821,-2.6854,-4.9076,6.0916,0.10788,1.2649,2.1822,6.9377,-0.68791,-3.3944,0.53864,0.50349,1.7768,1.1286,
5.0632,-0.11395,-0.75656,8.1365,10.2248,6.0095,6.8718,11.3419,-2.5746,-4.6368,1.4706,-0.0086499,3.5986,6.8457,
5.9647,-2.2763,2.904,3.5507,5.0315,2.5157,3.8081,3.1898,-7.9637,-10.3841,-4.1612,3.6073,2.6595,11.4964,
6.3301,3.886,2.4889,7.4353,-1.2958,1.1593,-2.4458,1.7935,-7.2448,-3.2535,-6.5627,3.1498,1.2946,5.2629,
2.3346,5.3398,-3.204,6.2656,-4.3515,3.2589,-3.9865,5.3011,-2.7128,-0.40697,-5.4461,-0.17247,-3.8446,1.3319,
2.1945,-1.2471,1.3268,5.8902,-7.9468,-1.2749,2.0375,6.429,2.7526,-0.38255,-4.6371,7.5506,-2.1676,10.411,
0.61672,-10.3314,3.1752,5.5364,-10.8443,-13.7318,-0.49521,-0.70549,1.1411,-0.84165,-8.2154,2.7592,-2.0375,4.4838,
2.99,-7.3011,5.395,9.0609,-3.9271,-4.7128,0.016777,2.7114,3.0009,-0.3091,-1.9378,-3.673,-0.951,-0.60558,
3.0515,-0.35552,2.42,9.7224,-9.717,5.4519,0.25674,7.6102,4.0259,-5.8342,-1.0984,-1.7654,-3.0633,4.4922,
3.1096,0.38894,2.9979,7.9337,-21.9084,0.54524,0.00036569,6.9126,0.65113,-5.2429,-6.5761,-1.9004,-6.9771,5.4275,
4.1281,1.0887,6.4334,11.555,-20.8349,0.27156,1.2054,8.667,-6.3776,-3.7233,-10.2791,-2.0276,-5.3534,2.9327,
1.7112,9.4592,3.8782,12.0672,-12.1131,8.6913,-0.072096,13.2083,-8.1642,-5.6692,-6.529,7.012,2.4397,8.7824,
-0.31971,7.4456,4.6096,9.4149,-10.9041,10.5799,1.3785,12.4163,-3.818,-4.8468,-2.2809,8.0375,2.7753,15.9682,
3.7969,0.49106,9.8765,14.3933,-8.5628,7.2937,6.3571,9.9837,-2.3837,-2.8689,-2.867,-3.773,-1.0066,10.4305,
3.328,3.113,11.9353,13.7708,-2.5053,6.6152,6.6989,11.554,-1.5177,-2.4557,-2.4539,-4.2697,2.1874,0.88718,
-8.6819,-4.0635,1.8191,3.5447,-9.3447,0.67459,-4.5491,5.3172,-0.70359,-8.8162,-5.4401,-2.8083,-3.0054,-2.2994,
-5.5098,-3.0967,-1.9054,10.322,-5.1687,4.7316,-3.5532,5.2393,6.3284,-5.636,2.8402,0.011408,-1.6201,6.7563,
0.12347,1.4274,-1.3091,10.6663,1.8901,6.3759,0.034231,3.4787,5.9487,-6.7441,8.4544,-3.8457,2.3333,2.9767,
3.4904,5.1983,0.69776,5.2057,5.151,5.9932,1.9605,3.7522,6.0738,-8.2675,5.5368,-3.1329,-0.21675,-3.4688,
-0.57541,1.03,1.62,-5.7117,-3.353,-1.1151,-2.4957,2.563,3.7812,-6.8074,-2.9903,-2.9449,-9.3628,-6.153,
-2.9512,1.4504,4.4151,-5.3688,-7.4901,-3.4583,-2.8279,2.8909,0.66202,-1.0963,-3.2928,-0.84002,-7.355,-1.4452,
-2.533,1.6043,0.05282,0.014809,-6.7998,-2.0457,-2.8992,-1.8616,-0.10083,2.5849,-0.92608,2.8258,-9.0828,-2.5636,
-2.6221,-1.1432,-0.19143,-3.6014,-9.5249,-1.6819,-2.4841,-3.437,7.8591,7.9735,2.745,5.3077,-14.0814,-4.0969,
-2.9468,3.746,-1.1439,-5.3136,-10.3996,-2.063,-5.7094,1.5894,6.9055,6.5311,1.6161,3.5429,-11.7903,-4.3331,
-4.6982,3.0391,-3.9678,-2.1023,-8.8117,-1.9393,-4.8849,3.4222,-2.6679,1.8005,1.037,4.2946,-7.2265,-4.0731,
-5.1394,-2.6868,2.296,1.6393,-9.97,-4.4742,-0.012324,2.012,-0.33842,0.0052332,3.6261,8.1343,-3.6597,-1.6596,
-4.1079,0.60762,4.3274,3.7101,-7.2027,-5.8928,-1.6988,3.0961,1.851,-2.1642,-0.68884,6.9233,-4.163,2.0554,
-0.96905,6.3559,0.69345,3.4874,-0.50387,-0.71883,-3.043,6.7671,-3.5625,-1.0702,-6.9141,5.5435,-6.3235,5.7884,
1.2581,8.1438,6.1953,4.4835,-3.607,3.4218,0.27293,7.0841,-10.8205,-1.247,-8.1866,-0.33262,-6.6673,0.86143,
6.0031,9.5833,16.4289,8.5528,-0.98024,8.5189,5.559,8.5872,-9.6893,-2.1363,-3.839,-5.6153,-1.4468,-0.63606,
5.884,5.3928,12.3098,5.8702,6.0681,6.8026,2.0921,6.8668,-8.3849,-2.2492,-5.778,-5.0373,-3.5293,-1.3211,
1.1924,6.0333,2.8943,0.21554,6.1862,1.5739,-3.818,1.6339,-10.2922,-0.66824,-8.3236,0.56735,-6.2096,-2.6884,
-2.4943,8.8048,1.0337,-6.3051,5.574,-1.6538,-4.3119,-0.15116,-6.059,-1.8332,-7.1008,5.1128,-0.2936,-0.35767,
-2.1037,2.7329,1.2124,-4.7217,5.9627,-2.7596,-2.8481,1.5454,0.33006,-1.482,-3.5415,6.9754,1.4115,3.2794,
-0.77227,-2.4926,-1.5115,2.5513,4.3998,-2.8351,0.45617,3.1398,1.5154,1.2581,-0.67781,3.4235,-3.735,3.8055,
1.6842,4.8878,-1.903,2.3985,4.1358,-1.7009,2.357,3.4335,0.94235,2.1467,0.32695,-6.4228,-3.0287,-1.7253,
2.5472,9.8969,-0.34258,0.32615,6.7799,-1.5988,0.28738,1.781,-0.56022,-0.39244,-2.1028,-10.8579,-2.3651,-8.3704,
2.3945,5.9288,8.3547,6.091,2.5166,-1.5028,4.6086,5.0485,6.222,0.11316,2.3618,-3.4579,-0.29488,0.32683,
-4.4981,-0.6937,7.3715,8.1359,-11.7344,-8.1615,3.368,1.8533,4.8845,-2.3038,4.1483,1.5701,-2.6875,5.1277,
0.59242,3.2044,5.965,6.6838,-7.0533,-11.0462,7.0224,2.2244,1.6993,-0.23746,4.3814,5.3323,-0.11604,4.8199,
8.2698,3.4942,7.0533,3.8725,7.4699,-13.2756,12.8677,0.64455,-2.7411,-4.0797,-0.2201,-3.6646,4.2294,1.1562,
6.0864,-3.2232,6.8713,2.917,21.1217,-18.9868,9.4443,-6.3838,-7.6383,-11.3065,-3.8221,-13.3266,2.2886,-2.5284,
5.9623,-7.6092,9.5921,2.9831,33.9544,-23.3913,8.6365,-6.2418,-5.0107,-7.9769,-0.45962,-5.5373,0.9461,-0.20741,
4.6404,-10.5271,9.4988,3.7682,42.1607,-30.1825,6.6723,-7.7955,-7.6024,-10.8727,-6.2166,-3.759,-2.9671,-2.6053,
5.5671,-4.8338,12.5445,11.0142,47.5848,-26.2024,7.477,-7.5687,-4.013,-9.4972,-3.6742,-8.113,5.6469,-0.76178,
3.0638,-8.6412,7.6941,6.2556,33.8836,-24.8713,9.1977,-8.3198,-1.1208,-3.3839,1.6076,-10.2774,9.4053,-0.47522,
0.95174,-11.4972,1.4479,0.57763,30.8865,-25.7892,10.574,-7.3384,-4.9099,-0.28836,-0.89903,-5.3222,2.0925,-0.44671,
1.1357,-7.1921,4.0122,-1.6261,41.8076,-23.0369,10.6626,-8.1033,-8.2309,-4.8507,-3.9785,-6.6902,1.7257,-0.17882,
1.7907,-3.627,4.4946,-3.216,40.9866,-22.8597,8.8178,-8.3402,-7.0139,-10.5852,-5.427,-10.8683,3.3096,-7.1577,
2.1653,-1.9633,-1.0776,-1.0947,36.5989,-21.488,7.3245,-4.4655,-5.1469,-7.5398,-4.1371,-4.4315,4.075,-8.6566,
2.5173,-2.8096,-2.9411,-2.475,33.9213,-20.1988,3.0286,-7.5718,-7.2482,-6.1234,-3.407,0.65484,2.8664,-2.8345,
8.6329,-0.23076,3.0198,3.9399,29.9577,-15.6125,3.329,-6.6354,-2.957,-6.238,1.618,0.1335,1.7302,-1.7003,
5.2228,-6.0016,-1.4998,4.1855,21.4114,-18.5322,-0.2451,-2.863,-1.3335,-7.792,0.074807,-7.5874,-0.30169,-7.8651,
2.0171,-9.9798,-2.3737,5.863,21.573,-16.456,2.6619,1.1652,1.6388,-0.09367,4.8908,-4.7218,7.4292,4.1764,
1.414,-10.8274,-3.6776,7.4391,19.7963,-12.5765,5.8765,-2.7612,1.0584,1.84,8.4536,-0.10006,9.3939,9.7101,
0.60606,-6.0802,-3.216,3.3776,14.5112,-9.6527,2.3904,-3.8006,2.6822,-0.9217,7.7054,1.111,6.1789,-1.2366,
0.5697,-2.8231,-1.0949,3.1747,12.6764,-8.5916,-1.1272,0.28382,2.5212,-2.3124,4.3508,-1.3658,7.2542,-2.6087,
0.77648,-5.787,-0.78798,3.2254,17.4595,-9.7631,1.5918,0.02582,0.2008,-2.8968,0.47436,1.3675,8.0241,5.0196,
-0.71625,-6.8859,0.22328,-1.7885,14.0017,-9.6594,-1.3959,-5.2783,-3.1856,-2.2407,-2.9284,3.6957,-0.65221,1.3444,
0.29094,1.7221,6.4767,-1.1994,9.3051,-8.1156,-6.6147,-4.4795,-5.4047,-3.5524,-3.7167,1.5456,-5.4334,-2.5928,
0.27348,6.4392,10.9084,-2.0913,11.1571,-7.6289,-3.8077,-1.8006,-5.5626,-3.3395,-4.94,1.4529,-0.76912,-0.50905,
0.98009,3.4015,3.2641,-1.243,14.5852,-5.484,-0.92803,-2.4156,-4.0236,3.3687,-4.8847,0.64271,0.4822,-2.1658,
4.5367,-0.41782,-2.9573,0.51903,15.397,-4.4319,-1.1133,-2.0297,-0.1668,3.4075,-2.4222,-3.0113,-0.75202,-0.83037,
6.9158,-2.5619,0.35366,-1.1993,9.8939,-9.7093,0.15855,-1.1848,-0.87992,-5.2328,-3.9641,-4.5178,-1.4298,-0.53958,
5.0547,-1.4442,0.81449,-1.6097,3.9978,-10.5729,-1.779,-1.5957,-7.5759,-6.365,-6.6184,-2.3184,-4.2364,-7.256,
2.823,-3.2858,-1.1628,-4.8875,2.3116,-8.0106,-3.6007,-1.5,-5.6751,-1.6448,-3.8112,-1.2152,-3.0181,-2.9643,
1.9307,-7.6681,-1.334,-5.317,1.4498,-12.5914,-5.5538,-1.651,-5.5758,-6.1254,-5.2697,-0.4192,-0.18572,3.7213,
-1.0774,-7.69,-1.254,-1.1415,6.1833,-13.2819,-5.2206,-4.4442,-14.8822,-10.0964,-7.8458,2.0161,-2.1028,-2.2865,
-1.0128,-2.8903,-0.69656,0.85514,11.5971,-6.2185,-3.9433,-4.6597,-14.9534,-2.2598,-4.9647,3.3414,-2.4585,-4.0775,
-0.71102,-2.4759,0.55052,-1.8475,4.3933,-6.5685,-8.7681,-0.76471,-8.5126,-0.91913,-5.39,1.4537,-0.62403,-2.1459,
0.53682,-3.5323,1.2405,-5.3519,0.032509,-9.3076,-11.3754,2.8965,-5.8325,-3.9974,-4.3436,0.16127,0.61882,-3.2223,
-0.4596,-2.3564,-1.7263,-5.9953,0.99454,-5.8569,-10.2108,-1.6157,-6.9287,-1.8292,-1.6727,1.1158,1.0635,-0.13658,
-1.155,0.43647,-4.7561,-2.5022,-0.27008,-1.89,-8.8749,-3.2059,-3.8618,4.7884,-0.84911,1.7719,6.5432,4.9332,
0.11933,-1.2769,-0.3734,-1.1468,1.9153,-1.5356,-8.1015,0.60186,-0.97876,4.2599,-0.075259,0.46049,7.3559,4.3962,
-1.3339,-4.0926,-0.35099,-0.59602,-1.5741,0.96687,-8.0976,2.9759,0.044059,4.4864,2.3396,3.8071,-1.7626,3.6505,
-1.0129,-0.23164,-6.3555,1.127,-5.0948,3.5602,-1.104,6.4127,5.585,15.0633,4.8506,8.6403,-1.4156,8.9751,
0.012003,-1.1818,-9.8305,-0.86885,6.2979,-0.51004,2.8186,3.6179,-1.4987,8.3749,-2.6713,1.3732,3.9717,5.5441,
2.1806,1.0581,-3.215,-1.5397,20.02,1.6898,5.7829,3.1597,-4.0603,-1.0455,-5.6444,-2.3247,6.8668,-2.2605,
0.60358,-0.93345,2.2804,-1.9296,8.8161,-2.2681,3.0257,1.524,4.8603,1.4274,3.8532,-0.73906,7.4188,-1.1607,
-3.0481,-7.3852,-0.50776,2.284,-4.4871,-12.978,-2.2173,-2.1829,8.1841,-1.3095,13.9863,-3.346,8.6609,6.381,
-3.5882,-10.0754,0.24595,6.2442,-4.4589,-12.9223,-2.8073,-2.293,7.9342,-3.8822,16.2805,-4.8324,6.9363,10.5773,
0.0014428,-3.2043,6.4978,11.172,-3.7093,-3.4702,-0.71078,3.1473,11.3144,4.0636,10.0009,-2.1322,8.4482,9.943,
0.24232,6.3882,6.3489,13.153,-2.2815,2.2818,1.0191,6.5739,5.5741,7.9172,-0.48108,0.16512,5.7721,5.7308,
-0.013184,7.6919,9.5834,7.3024,-1.4215,4.3141,6.9835,6.9024,-1.75,5.7549,-2.6214,0.87811,1.3285,2.7356,
4.326,4.8202,8.0442,2.5258,2.0382,0.68088,6.0824,2.1498,-5.5015,0.58926,-2.9461,-8.8154,-0.1974,-1.7669,
7.4408,5.4952,4.6694,2.3744,11.5567,-1.2883,3.3073,-0.38942,-5.6535,1.5179,-4.2155,-10.2148,0.29649,-1.1789,
3.3791,0.58583,2.2199,4.8831,6.2839,-1.4521,4.7959,1.3211,-4.5912,3.1139,-5.6499,-5.9866,-0.92648,-0.86706,
2.2121,-0.4133,4.497,4.1079,0.12219,-1.3648,5.4724,2.206,0.50483,3.8913,-1.9366,-7.0736,2.0213,0.14895,
-0.81291,-1.8348,4.7093,-0.95885,-1.8133,-4.1752,1.2877,-1.3008,5.295,6.5501,3.9644,-6.6489,0.93614,1.5863,
-3.4153,-5.34,2.2575,6.5704,-7.7302,-5.1299,-0.95888,-1.4638,8.5926,8.8083,3.9674,-2.6347,-0.3252,1.25,
-2.4874,-7.6708,2.845,7.8633,-7.0253,-4.581,-1.1422,-2.099,9.7644,7.5568,3.0063,1.6209,3.7918,3.3443,
-6.4355,-8.4158,6.7717,-1.5264,-5.8807,-7.9216,-2.7609,-4.6244,7.4913,3.9701,3.0669,5.1388,4.7693,2.4205,
-6.0495,-5.9826,8.7756,5.3138,-7.4561,-8.4105,-1.6313,1.9199,8.488,3.2499,6.7394,5.3125,4.0011,2.7573,
-0.62496,-6.8288,9.9364,9.5744,-6.2855,-5.7366,2.5641,6.8663,12.5581,2.3319,9.9504,-1.0317,6.4123,6.6893,
0.13566,-5.214,11.5094,6.3486,-2.2932,-2.7411,7.9539,3.803,11.0815,0.98667,7.1842,-2.657,5.3044,7.9752,
-3.729,-0.56274,9.8546,6.9319,-1.1914,-1.1305,8.4406,4.0569,8.0064,0.44542,1.9325,1.8409,2.094,7.979,
-5.4333,-4.3852,8.7813,6.9982,-3.5301,-0.58058,3.1138,5.7415,9.4543,2.8289,2.2986,4.6226,4.3786,8.464,
-4.8664,-11.5942,8.9776,7.7834,-5.0056,-0.30478,0.27565,3.2279,9.6099,6.2746,6.7402,1.212,4.3568,6.2689,
-1.6822,-6.5599,6.9928,6.3522,-2.295,0.19555,5.5616,1.1059,7.5872,5.4161,6.3357,-2.2351,3.1312,3.4825,
1.3111,-2.3098,2.2348,1.1507,-1.6752,-2.7084,3.2999,-1.3705,2.7938,2.199,0.65325,-5.4753,1.4974,-2.0287,
1.4734,-8.1969,2.3416,-2.0516,-4.226,-2.3049,1.8966,-3.9396,1.903,3.2721,-0.59124,-5.3878,-2.2079,-3.1123,
-3.1944,-9.3922,5.8165,-0.2414,-6.1418,-3.8539,4.9162,-3.9443,3.4759,6.6911,-0.31468,-1.4492,-2.7986,0.20783,
-2.7617,-4.7314,0.88818,0.014047,-3.6039,-6.2738,2.452,-2.9845,0.61605,5.5667,0.42733,3.2173,-3.3536,-2.9379,
2.2246,-6.8577,-1.0934,-6.2534,-3.8699,-6.3794,-0.5875,-6.6619,2.9893,2.8222,3.2939,2.5422,-3.6347,-7.5822,
4.2604,-6.6873,7.408,-3.2272,-8.6991,-4.7917,3.0631,-6.5033,9.3178,1.4477,7.1937,0.22039,-2.2114,-4.4761,
3.2817,-3.6347,5.7585,-0.8641,-11.7924,-7.6373,3.1204,-5.872,6.1075,-1.2904,6.521,-1.4799,-2.8017,-6.8587,
6.459,-1.9705,3.9668,-1.7764,-3.3723,-8.1434,4.3792,-3.5915,1.4025,0.23309,3.7194,1.019,-1.6695,-5.4831,
4.8666,-1.6112,8.7903,0.01757,-1.4826,-6.4494,6.7679,-5.5453,-0.85091,-0.98584,1.3272,0.71699,-4.2206,-0.57449,
0.95891,-2.2377,8.986,0.25725,-11.2756,-2.4473,7.0849,-7.3817,2.8156,-4.5421,5.3449,-1.0133,-2.7623,-2.7094,
0.90149,-2.5855,4.5904,-0.24,-12.0452,0.10982,4.7315,-3.0825,3.6108,-5.7157,4.5422,-2.8808,-2.1145,-5.9212,
1.0884,-0.26096,5.0381,2.9077,-3.8507,0.82659,4.2066,-1.2101,2.1891,-3.6856,2.1005,-1.0207,-0.3004,-2.9146,
0.54102,-4.1018,5.2178,2.2511,-6.0301,-0.18745,4.4363,-3.548,3.0215,-3.4645,4.3847,-2.4056,2.6098,-1.7757,
3.4008,-1.4453,0.084294,3.5623,-1.8117,2.7163,3.206,-2.371,1.8764,-5.6668,2.1934,-8.5278,3.4175,-2.1511,
-0.41851,2.2567,-4.0182,-0.26717,3.3583,1.8303,-1.5657,-1.9877,-0.88765,-7.0139,-6.374,-13.0779,2.0073,-4.1913,
3.222,2.8444,0.80238,1.4361,0.50573,4.8538,3.5897,3.1933,-0.11126,-1.0495,-1.8942,-3.3752,-0.28229,4.0141,
8.8134,6.53,-0.20975,4.2426,-0.48882,6.0087,4.8204,2.5194,-1.5507,3.352,0.6297,4.5402,-2.6756,7.6295,
7.8024,8.5483,-1.6434,0.13116,1.4687,3.2378,-0.28929,-1.4882,0.47051,-2.1518,-5.1927,-1.0348,-2.0331,-0.059065,
6.6112,9.7229,-0.82169,-0.11745,2.5856,2.8026,-2.9233,2.6987,-0.76278,-9.4945,-5.6042,-1.2137,-4.0803,-3.1888,
6.6966,12.9959,-2.2186,-0.11063,6.2869,2.6344,-0.3375,3.5009,-5.5375,-7.4786,0.034666,1.7514,-4.3176,2.7871,
5.0898,10.047,-3.7725,-3.2372,6.1509,-0.65691,3.2982,-3.699,-2.072,-3.8966,-0.69054,-6.7896,-0.9251,-0.51336,
4.3022,4.6237,-6.9206,-3.043,2.4074,-0.61749,2.1362,-4.4412,-0.019251,-6.5551,-3.0592,-7.8282,-3.2799,-2.4107,
5.9723,3.8641,-6.9876,-2.8604,5.6374,2.3118,1.5258,-1.2824,-4.3569,-8.09,0.016377,0.83617,-6.9395,2.0722,
7.0599,5.0782,-7.0503,-1.7246,6.2631,1.2089,1.9163,-1.6875,-5.5416,-6.1587,0.97938,1.2678,-3.631,-1.4262,
5.4313,4.5326,-10.2426,-1.8622,2.272,0.41338,3.4885,-0.86304,-1.1116,-3.1377,0.19783,0.95089,-0.27976,-3.028,
3.4183,-0.31895,-10.3511,-1.5094,3.3409,3.0398,3.0381,-2.9805,-2.2501,-3.1905,0.42681,3.545,-1.4682,-1.6411,
2.4901,-1.5049,-7.5609,4.1246,10.1301,10.3292,3.097,-3.5248,-1.8739,-3.722,4.0166,5.0196,1.2713,-3.2299,
1.8588,0.031675,-8.5532,-1.4251,8.0762,8.7454,1.4649,-2.3492,-2.2436,-5.909,1.3655,3.7543,-0.73321,-0.62574,
7.7727,7.5015,-8.7633,-3.0269,3.9761,5.5694,0.65401,-1.4853,-1.8679,-5.7956,-3.2961,-2.4966,-2.8585,4.4731,
10.6805,9.4615,-1.971,-0.43542,4.7017,7.6454,1.5786,-2.3603,-0.79177,-7.8582,-2.6164,-8.1314,-1.241,0.34859,
9.5578,6.0018,2.968,-0.40884,5.8658,8.6329,3.4123,-3.1827,-0.74427,-6.9045,-1.4951,0.069255,-0.68433,-3.0468,
8.9844,4.1955,-7.3331,-2.3126,9.8523,5.7047,0.79736,-3.956,-2.1458,-3.1159,-2.8515,6.332,-0.16122,-0.45373,
11.3374,4.9076,-11.2317,-6.9943,10.7072,2.9521,1.7134,-1.7904,-0.088817,0.44525,-0.75245,1.6133,0.33038,1.9836,
10.4163,5.3364,-3.0861,-4.4054,1.1468,0.12373,2.3338,-1.9239,-1.7708,-2.2327,-2.3944,-0.17065,-4.2688,-5.1252,
7.381,4.0521,0.95548,-1.249,-1.8143,2.0445,2.1938,-2.7725,-4.0747,0.31164,-5.143,6.1063,-3.5305,-6.7458,
2.5997,1.8807,-2.9581,-4.5482,-1.2234,3.368,3.5083,-3.0882,-1.42,2.221,-4.3524,2.3656,-5.247,-3.4487,
2.2029,2.0089,-3.0217,-2.5884,-1.873,-0.93157,2.5748,-2.1799,-2.0578,-4.4198,-5.2962,-2.3557,-12.4039,-5.893,
7.132,0.68323,-0.18921,-0.26361,-0.55543,-1.5987,4.5896,-3.2543,-4.1036,-7.288,-6.1836,-2.4555,-9.4904,-11.0831,
6.9452,3.2934,-3.7932,-1.453,0.20091,3.5586,7.9295,-3.7821,-4.0985,-8.5378,-0.75126,-6.4056,-6.2698,-11.1411,
2.19,5.5063,-7.904,-3.2941,-1.2573,3.3454,5.5257,-2.109,-3.3703,-8.5076,2.1864,-6.5033,-8.3038,-0.83137,
1.0945,1.3193,-4.5375,-3.0965,1.7104,-1.1941,0.85558,-1.0183,-2.2042,1.1616,-1.8014,-4.6671,-5.3955,5.485,
2.9569,3.6504,-2.3371,-1.4645,4.9821,0.32368,0.32219,-0.4752,-2.0721,7.3586,-6.5139,-6.3151,-3.1434,-1.5931,
3.985,9.9393,-8.2225,-4.5101,0.1037,3.9197,4.4002,-2.6158,-1.7065,2.3378,-7.3281,-9.5516,-5.6061,-3.6667,
9.5302,11.753,-8.2112,-1.8293,2.5077,7.0588,9.4387,-2.9412,1.2883,4.6077,-0.62179,-5.6042,-0.93133,6.1944,
3.415,2.13,-6.0313,-4.3704,5.4907,3.5021,4.2931,-6.3799,-0.47627,2.1621,0.13865,-4.5448,-1.1164,-0.68496,
-1.3695,-2.5772,-1.5719,-5.7957,1.0638,-1.2875,1.8663,-3.8278,0.27532,-3.5113,1.3355,-4.9952,-2.2546,-9.5618,
5.4614,-0.97647,-2.4418,-0.6274,-2.8565,-2.1744,2.7183,-0.22382,-2.1514,-3.3005,4.1476,-2.2852,-0.19103,-1.2752,
4.8927,-1.159,-7.8388,-4.6872,-0.033901,2.5354,1.35,-0.45147,-2.2634,0.030631,2.2116,4.3595,-1.8669,2.8988,
-0.2215,-1.0895,-5.4404,-8.7442,-2.924,1.4193,-1.1412,-1.8705,3.6571,4.3672,1.1147,7.9544,-3.683,-2.0958,
0.99696,-2.2291,-4.8729,-0.26569,-12.1487,-5.6556,1.0965,-4.8917,5.1248,6.7566,3.2171,5.7901,-1.2927,-2.693,
2.6246,-4.7467,-7.7138,4.3298,-7.3222,-2.6647,7.5387,-1.4647,3.6122,5.6283,7.1216,7.6118,3.3644,0.11987,
0.77967,-2.2927,-12.7946,0.45433,4.4453,4.9668,6.363,1.7565,-0.21995,-0.73514,3.5608,4.5038,1.9572,-3.0208,
3.8665,3.3883,-11.786,-0.77787,7.7939,7.32,6.7042,3.3382,-1.8939,0.031981,3.5883,1.1002,2.0809,-3.5626,
0.25993,-1.1532,-9.1506,0.23301,2.9878,3.5064,7.7483,1.6917,-0.33408,0.51211,3.3731,0.070191,0.50986,-2.8668,
-6.0222,-6.8688,-8.6015,0.2188,-0.083726,2.8141,2.9449,-2.2661,3.5423,0.48138,-0.20374,-8.6109,-3.3771,-3.6589,
1.5699,-3.5643,-3.2648,3.5802,-2.4889,4.0914,1.322,-0.68403,8.6326,6.2372,2.7009,-12.4327,3.0924,2.8275,
3.8858,-1.4222,-3.069,4.3295,-3.7859,1.9177,0.27862,-0.64299,1.8476,4.4167,2.5388,-7.3484,3.8707,1.2116,
1.4834,2.2784,-4.5722,-0.99204,2.9491,7.8283,3.3953,0.1186,0.53183,5.3569,1.1813,0.5642,0.50508,-1.0304,
-1.0156,0.21364,-5.2618,-4.7886,-0.60218,7.8407,2.7095,-1.3347,4.8384,6.4816,-3.7099,-3.8079,-3.3815,-0.48648,
-0.71384,0.44191,-4.705,1.5242,-8.5199,0.86241,-0.58643,1.8788,5.2711,6.3338,-3.2465,-5.2667,-4.8657,-1.1803,
-4.0452,-1.995,-4.4227,0.95057,-7.5268,0.32873,-0.55124,2.7302,2.5447,5.4716,1.2869,0.83386,-7.4661,-1.5917,
-5.0077,-2.5983,-6.3266,0.65245,-5.3881,8.2629,-3.1694,2.8074,0.70466,8.7588,-0.47769,5.3632,-8.7054,1.6372,
-2.2969,-0.032028,-5.947,0.61353,-5.5467,6.803,-3.4614,6.0134,2.5908,8.2333,0.033135,4.5595,-2.3983,7.3238,
-6.0157,-2.9226,-4.144,-4.2438,-0.87535,-1.8001,2.5309,1.3141,0.50693,3.4008,0.031147,0.91148,-1.2905,3.9921,
-6.6188,-5.1574,-2.4493,-2.0609,5.9258,3.6105,6.7176,-0.69295,-1.4517,4.1608,0.029278,7.1235,-2.1772,0.86003,
-5.9806,-13.7659,-4.9535,-3.6244,-3.8298,3.6348,-0.67523,0.071639,-2.0876,5.1163,-2.1418,7.9013,-1.8055,2.4955,
-5.6217,-15.8324,-2.2461,1.8956,-9.3845,-2.85,-4.0091,1.5135,5.7506,7.2196,5.2175,1.6425,4.5695,4.2741,
-8.6589,-12.9541,-2.5934,3.7097,-3.5189,-5.0892,2.0162,-3.3979,10.2259,4.3762,7.7968,-3.2764,4.7773,-5.1412,
-8.6213,-8.8026,-1.4737,-2.2975,1.5127,-2.8557,6.7155,-5.1222,5.7559,2.6674,2.5083,-2.5979,1.5984,-11.0995,
-4.7298,-4.4181,0.060783,-3.1235,0.45786,1.6542,2.4562,-2.4045,-4.7125,4.9177,-1.4983,1.8965,-2.836,-3.2029,
-2.0357,-1.7426,-0.4248,-4.8643,0.43039,4.9292,0.38059,-2.2603,-10.2144,3.6585,-5.2651,7.0852,-7.0042,2.7738,
-1.4316,2.2183,1.5289,-9.875,1.3687,2.2233,1.804,-1.1606,-9.6015,-2.3456,-12.6619,1.8396,-5.1379,-4.623,
-1.1045,5.7006,5.5345,-9.5235,2.0097,-0.5614,0.97264,-1.8141,-9.7483,-6.7844,-13.1073,-10.0809,-5.0706,-8.4432,
-0.31523,7.0457,4.4794,-7.2648,2.6121,3.5697,-0.29066,-2.4282,-10.3686,-7.5825,-4.8489,-8.2709,-4.5253,-1.9107,
-0.055123,12.6487,-2.2971,-4.6597,4.1426,8.417,-1.4785,1.3329,-7.5773,-2.548,-0.94257,0.1791,-1.6024,-2.0375,
-1.4978,10.9257,-4.5694,-7.2724,1.4837,3.0915,-2.3539,3.663,-4.7123,4.8357,-5.2246,-2.2418,-3.4345,-9.628,
-4.0596,-0.57621,-0.67989,-11.4159,-2.2206,-4.0837,-0.52556,1.7561,-6.5989,5.2686,-5.6343,-2.8305,-6.3618,-7.8452,
-6.9493,-6.5672,2.9763,-10.9717,-9.5592,-2.6334,-1.6991,0.44571,-6.4441,2.3011,-0.71676,6.7393,-4.775,2.5075,
-6.7733,-4.0038,6.8951,-2.8418,-14.5293,2.586,-3.7663,3.5522,-0.9958,3.8503,1.9776,12.8427,-0.39094,7.4189,
-3.9567,-4.7277,7.4456,2.6312,-7.8728,4.8411,-4.9865,1.8929,-5.7566,0.72711,-4.8896,9.1799,-3.2599,3.5992,
-0.34495,-4.9261,3.6243,-5.7215,2.7226,4.0686,-2.7592,-0.63087,-9.7497,-4.6193,-7.4887,5.7367,-5.9567,1.455,
-0.083168,0.91294,-1.1726,-7.5472,0.87211,3.5834,-0.42438,3.5044,-5.0672,-6.5112,-4.8701,2.7413,-2.9479,0.64489,
0.40387,3.7506,-0.62016,-0.82801,0.33773,8.189,2.0113,6.6685,-0.9067,-4.6746,-2.1676,1.1307,1.5674,0.60608,
-1.7896,-4.9103,-1.306,-8.732,3.9328,6.9746,-0.76056,-1.6854,-7.3601,-7.0453,-4.6888,-3.5165,-3.106,-2.5637,
0.72821,-0.27721,-1.7097,-7.2438,12.374,6.556,-2.1611,0.34399,-8.3647,-5.6584,-2.4794,-0.89531,-3.8839,0.96451,
1.8896,5.765,-2.3302,-4.1579,13.8005,3.9935,-1.3083,4.9026,0.091191,-3.6317,-2.5716,-1.5647,-1.9636,0.18351,
4.4273,3.7318,0.46093,-7.5238,9.3571,3.9949,-0.98881,1.4752,3.7011,-0.76243,-2.1761,-1.7118,-6.4253,-4.4068,
3.1979,2.0618,1.3975,-7.0723,2.0471,8.0936,-3.3397,1.8688,1.0688,3.6217,0.84665,7.0677,-8.932,-2.2141,
-0.60961,1.6971,1.5546,-3.5149,-1.6912,4.9567,-0.0060858,3.9258,1.7276,2.6813,0.072724,5.9205,-7.6731,-1.3586,
0.14998,0.39011,0.25615,-2.0991,1.0615,-1.3664,3.6096,0.074939,2.8291,-1.0951,-0.65488,-2.8705,-9.382,-5.8564,
1.1051,-2.0434,-0.24116,-5.3474,1.48,-0.80224,4.3573,-0.89365,3.6235,-1.9933,3.241,3.0863,-5.4446,-4.0588,
0.79769,0.24823,2.9065,-5.2674,-4.1525,3.3434,1.4445,-0.11702,2.683,-4.5251,2.3235,6.5164,-5.3591,-0.6819,
5.3296,13.9719,4.9012,3.4844,3.0863,8.2042,2.0809,1.5772,-1.5755,-4.9767,-2.3956,1.064,-8.1708,-0.40002,
2.8404,15.7849,-1.4184,0.14204,6.9989,6.9888,2.6792,-0.68657,-6.5424,-5.4013,-5.3851,-1.6512,-6.4755,-2.063,
1.4649,10.7404,-1.0921,-3.4817,4.8915,7.2929,2.7594,-2.3326,0.35782,0.46666,-0.48228,3.0274,-1.5074,-1.6985,
2.5823,6.4806,4.9992,-3.0318,3.3932,7.0963,0.42468,-0.023483,2.0236,4.536,2.6799,-0.28751,-3.5861,-4.7296,
-0.22394,5.8506,10.2426,-4.5374,1.9841,4.0189,0.64017,5.0396,-4.1236,3.5407,-0.1322,-2.9216,-5.0582,-6.1333,
-2.6206,6.9458,8.6642,-5.229,2.8293,4.26,-0.36234,2.809,-1.9478,-0.5281,-1.5703,-4.6745,-3.7906,-7.2113,
0.66963,6.77,10.7955,-5.6381,9.1671,9.548,-0.09963,-2.9031,4.1946,0.22671,5.9955,-4.153,-0.42991,-1.2353,
0.38826,1.7843,13.7629,-6.023,1.6274,3.4315,1.1114,-3.4521,0.32754,-0.028086,7.323,-1.2525,0.31902,5.3466,
2.7754,1.6774,13.4194,-4.2155,-2.8087,-3.523,3.4552,0.61156,-1.6202,0.93781,3.0273,2.6791,-1.1463,6.9543,
5.5013,6.8792,7.3115,-5.8908,6.5188,2.4729,-1.0905,-0.38934,1.8514,-1.5287,-1.4927,-1.3381,-2.5236,-1.6578,
3.2428,14.1793,0.60652,-4.0914,8.538,16.304,-5.8456,1.0805,1.7403,-5.7753,-1.4032,-4.1501,-2.8542,-8.7894,
-0.80814,14.2926,1.0521,-5.7741,-5.9538,22.0747,-6.9411,4.3897,-2.7027,-3.9828,-0.83705,-2.4551,-5.5754,-7.7801,
1.1687,13.9171,6.2912,-4.4632,-15.2374,27.0168,-6.0426,6.5365,-4.9508,-0.36945,-1.2689,2.5128,-6.2049,-3.4568,
-3.2402,11.6358,-1.3171,-6.606,-22.5184,28.7698,-9.5367,3.7342,-7.0641,-3.2398,-7.4595,3.8083,-13.0634,-5.1776,
-9.0711,9.7326,-3.407,-7.8966,-20.9261,27.2848,-8.2411,3.269,-3.0248,-5.6965,-10.6273,5.7492,-15.4129,-2.2156,
-8.0449,8.6667,4.0283,-0.67438,-12.4397,29.0222,-5.3365,5.001,0.53113,-7.7648,-6.6152,5.404,-11.1137,1.7737,
0.87388,5.9773,4.0276,2.0176,-11.4523,29.9319,-0.43681,7.8344,4.1145,-3.6838,4.6277,4.3566,-3.4572,3.8365,
3.4724,4.4137,-2.7217,-0.75463,-14.8626,22.5928,0.31242,8.5696,3.6267,0.1528,7.4834,3.3722,0.84771,0.47314,
-1.0741,8.0052,-0.14815,-0.70969,-9.6324,20.7549,-2.5985,6.1273,0.51672,-1.3025,2.696,3.6519,-0.16736,-3.8939,
-1.2506,7.2839,5.8863,-1.39,-7.8494,22.6431,-2.6838,4.0724,0.72669,-1.9475,-0.59904,3.6738,-1.8445,-3.4193,
-2.622,3.9545,-1.2159,-4.1992,-10.7528,17.428,-5.8971,1.4174,-0.76306,2.9897,-0.56321,6.3458,-2.2159,-2.2499,
-7.5262,6.3686,-8.6147,-8.5265,-11.3128,13.249,-7.7125,0.60956,-0.47643,9.7999,0.19359,8.6162,-3.2881,2.4645,
-6.8336,4.7813,-6.8926,-3.9174,-12.3212,13.6594,-4.1162,5.6348,4.132,13.7917,-1.023,5.4483,-2.8495,6.4141,
-4.4954,2.5663,-8.4072,0.17402,-14.9561,13.3218,-2.9051,4.3324,4.366,9.5898,-2.4076,2.7108,-1.2325,-2.6474,
-4.2256,5.3046,-8.8669,-5.1391,-15.0231,13.0044,-1.767,-0.26589,5.0682,3.2298,0.6289,4.4763,-2.1227,-7.3093,
-3.9719,4.9863,-7.3708,-3.3847,-13.6395,12.2239,-0.69684,-0.25017,4.7641,0.14374,5.4116,2.2796,-4.4057,0.84227,
-2.2878,3.723,-6.9285,3.5671,-11.3751,10.0445,0.79123,5.5497,4.4782,-3.2393,6.5332,4.071,0.19721,6.5761,
-3.5964,4.9458,-6.5127,5.2816,-8.7643,11.8523,0.74387,7.1448,3.7275,-4.009,1.3208,10.0936,0.18549,4.2537,
-4.3448,6.0952,-6.604,4.9648,-6.7923,14.9976,-0.26497,6.2342,1.5758,0.088077,-2.6149,9.0057,-4.1641,3.0342,
-3.6021,6.2115,-5.2438,2.2564,-7.8309,14.0974,-0.73112,6.3422,0.035073,1.5289,-0.5297,6.5373,-4.8784,2.8523,
-2.4219,6.8029,-5.8932,1.1572,-11.2174,10.3595,-2.6154,3.5511,-0.93113,-0.97316,-2.4261,3.253,-9.8882,0.75297,
-1.3126,4.9486,-5.0576,2.5337,-10.0623,12.1482,0.91582,3.8201,2.981,1.0133,-4.691,0.16516,-4.9567,1.1894,
-2.1978,0.31326,-0.41571,0.93574,-7.5303,11.4192,2.307,4.5551,2.3201,3.8449,-4.4094,-2.7369,-1.7669,1.6003,
-0.61956,4.151,-0.87282,-2.4952,-1.7759,8.3236,-3.1339,2.8357,-2.6397,2.1681,-6.0732,-1.1268,-8.8916,1.5044,
1.3455,6.7941,-5.641,-3.7916,0.74085,10.7168,-1.4998,1.7013,1.3752,3.4841,-4.2626,1.8332,-7.876,2.3781,
-1.6276,2.53,-5.3026,-1.1538,-6.0525,11.0379,0.036258,0.1532,3.7028,4.2392,-0.1505,-0.20497,-3.5471,-0.17493,
-3.4581,-2.9244,-0.16394,-3.4947,-10.0277,2.6628,-3.8223,-0.33793,2.9987,5.913,0.82262,-0.19267,-4.7805,-2.5746,
-5.1788,-7.5694,-2.5642,-10.0339,-9.426,-4.7278,-8.4134,-5.6203,4.7467,6.0404,-1.6371,0.30105,-8.3501,-4.3483,
-2.6987,-3.982,-4.5798,-6.2986,-4.7631,-0.34699,-4.2932,-4.56,4.2212,4.4729,-2.2618,0.52373,-5.6799,-1.4361,
0.35552,-1.3327,-0.93053,-3.992,-1.585,3.0483,3.1952,1.4982,2.0397,4.2043,2.6944,-0.95373,-0.5184,4.4347,
1.0572,-5.35,-5.936,-2.5473,-2.6949,0.21418,0.83422,2.6135,4.5686,2.7471,8.0765,1.2728,5.0562,1.9993,
-0.93453,-4.0652,-12.8108,0.49744,-6.3897,0.20121,-5.4827,1.0103,4.7765,1.6181,5.6634,6.4989,1.8604,-4.8697,
-0.15556,0.27602,-5.0525,-2.184,-5.7653,7.6609,-3.4665,0.70874,0.39255,5.6183,2.6722,5.868,-3.7948,-1.444,
1.3003,-1.6685,0.55326,-1.0884,3.2577,7.6835,0.59811,-0.29788,-1.5592,6.2453,6.8507,-1.2327,-2.6028,1.5349,
0.74043,-3.4965,-0.44391,1.3872,8.3648,0.47366,2.9725,-0.27989,2.8728,3.4604,10.2959,-4.0512,-1.9646,-0.96717,
-0.027358,-5.4558,-1.1404,1.5449,1.8373,-1.2415,3.0351,-0.986,1.0132,2.0477,1.7244,-0.19267,-6.9082,0.77809,
0.93838,-8.0208,-2.0361,3.8626,2.6912,4.6173,2.853,-1.8909,-1.4577,2.8889,0.65685,0.30105,-7.9399,5.07,
3.7744,-0.79109,0.014277,4.1125,9.2782,7.7145,1.7177,0.15048,2.004,4.6438,6.884,-4.0556,-3.6071,1.3911,
2.584,5.5231,0.013421,-0.95448,6.7935,5.3234,-1.7596,2.5516,-1.9727,4.3654,-2.2057,-8.6327,-10.1394,-6.4052,
2.9106,3.7456,-2.8796,-6.6821,5.9036,4.0398,3.1664,3.8444,-5.7108,5.5494,-7.3761,-2.3303,-16.28,-3.6106,
2.7364,1.5927,-5.5993,-11.5834,2.1752,-2.4691,2.9764,-1.6885,-9.2245,3.7702,-7.8977,-0.74421,-18.1953,-4.8402,
5.2231,5.1123,-2.612,-8.7195,4.2138,-1.1159,1.1108,-0.86401,-7.9479,5.7133,-5.7366,-2.3866,-11.078,-8.165,
6.115,2.1545,-2.6963,-6.991,8.5405,0.15591,5.141,2.3209,-5.7841,5.1291,-3.2235,-2.0029,-4.3878,-7.4341,
3.5789,3.23,-4.2219,-3.4385,4.4124,-1.0583,7.0022,2.9045,-7.1242,1.6883,-1.8248,0.28694,-8.7041,-3.3727,
-0.49242,5.929,-6.8607,-6.124,-1.6367,-1.4769,0.31533,-0.64399,-9.5889,-2.2691,-8.9459,1.2338,-14.4483,-3.6525,
1.7065,5.814,-2.3515,-3.1053,2.077,-0.18281,1.0195,-1.8104,-7.3263,0.035956,-12.5065,0.43666,-10.9301,-4.6384,
4.9786,3.055,-1.2465,1.9013,1.9521,-3.0644,1.4403,1.1907,-5.9229,1.4801,-6.9358,-1.0358,-9.7924,-5.8064,
8.2951,3.1129,1.4796,2.0284,2.5581,-0.22917,2.077,5.6988,-3.3981,0.18596,-0.97607,0.23141,-7.9998,0.56781,
4.9051,3.8902,0.90866,-0.50364,9.6355,4.1231,4.3627,3.4285,-6.0865,-5.1276,-5.738,-2.6748,-7.5198,2.9441,
-1.897,3.8975,0.13147,-5.0529,9.2985,5.0808,4.3422,2.5001,-10.7828,-4.0966,-11.9012,-7.0933,-12.612,-5.1865,
-1.06,6.315,2.2925,-5.4729,3.1972,5.4991,-0.015937,5.0014,-9.4127,0.24632,-11.4281,-2.5706,-13.0603,-6.5623,
-0.9964,4.0079,-0.7371,-4.6621,7.8257,1.7947,-1.9432,2.2907,-5.9556,-2.6605,-7.8501,4.3325,-9.8666,3.4724,
-6.239,-7.3198,-1.175,-8.239,10.2484,-5.5436,-0.38055,-1.7033,-3.1881,-4.4293,-3.0408,2.1442,-6.8642,7.1202,
0.64302,-3.2649,6.8494,-0.27264,6.5002,-7.8623,1.3295,4.4246,5.439,1.3801,10.398,-3.5279,1.9835,1.6315,
3.9789,2.7155,4.51,0.22565,-2.5666,-10.765,0.28564,0.30277,7.0409,-2.077,12.6665,-10.547,2.8286,-6.1791,
2.7759,-0.82174,1.8292,-1.234,0.47954,-7.7089,2.1968,-2.6073,6.1364,-4.3626,6.6039,-6.5399,-1.1976,-0.98756,
6.2246,0.43263,0.032225,2.9371,9.8508,-0.25671,1.3419,4.5387,3.1169,-0.48564,1.6282,-3.0142,-4.259,2.205,
3.923,1.8528,-9.1286,-3.0236,8.2955,-1.2055,0.77908,-0.072243,-4.783,-4.7949,-4.2542,-11.5104,-9.3062,-6.1224,
0.071993,0.53659,-14.6067,-4.5296,10.4491,-6.1946,4.348,-8.0219,-8.1115,-12.4612,-7.6144,-11.0607,-10.4351,-5.9962,
1.9961,0.50416,-12.7662,-2.3294,14.6426,-6.3051,1.1948,-7.0584,-9.0708,-15.0878,-6.6753,-8.4689,-9.3268,-0.81599,
2.5995,1.679,-8.8667,-5.8048,7.2564,-1.3473,-0.081936,-2.0554,-9.2497,-11.0492,-3.6235,-11.094,-11.9005,-3.4184,
1.4794,1.0965,-6.4065,-3.0466,6.3388,2.1082,6.1893,1.9241,-4.3561,-6.5299,-0.031868,-6.09,-11.1864,-3.695,
-1.7429,-2.1027,-5.7812,-1.6585,9.092,-0.66982,4.1307,2.532,-2.8897,-8.7894,1.1751,-1.1451,-8.8282,-0.34023,
0.53088,2.6027,-2.301,-3.2463,7.3412,4.432,-1.6603,1.6567,-4.8855,-7.5389,-1.5465,-4.6918,-9.9855,-2.007,
1.2224,3.1699,1.4524,-8.1127,10.0342,5.8534,-2.2841,-1.5757,-6.7615,-7.8095,-6.5152,-5.133,-11.5556,-3.0915,
-1.2613,-0.39497,3.2937,-11.4826,17.6271,-3.1747,0.74528,-2.4453,-6.838,-9.7513,-6.6064,-2.4151,-11.8266,-0.978,
-0.46251,1.3162,-4.3759,-6.696,19.2208,-3.7074,-0.5045,0.83472,-7.1508,-6.5149,-4.0409,-6.3676,-9.9117,-0.19619,
2.4575,0.27311,-5.0775,-2.4381,11.8008,2.7814,0.48987,2.2307,-0.93721,-3.2319,0.53991,-6.4677,-3.0505,4.1541,
2.551,-0.94857,-0.19332,2.7699,3.139,2.374,5.0402,2.8202,5.6267,-4.2428,5.0873,-3.4283,-0.21611,5.1102,
-3.6273,1.2777,-9.0996,-1.9758,0.78126,-2.8299,0.64022,-0.48228,-1.7005,-7.1215,-1.7257,-5.8737,-7.6747,-6.0425,
-2.6868,8.1909,-8.7946,-7.8828,8.6886,1.4372,-1.0854,1.7158,-4.2496,-5.007,-5.2373,-3.834,-4.081,-6.4033,
-2.2848,3.6019,-5.6158,-4.2766,2.1415,0.14593,-2.7073,1.8536,-6.6462,-8.3222,-5.1643,-2.3992,-3.113,-4.3321,
2.4318,2.6627,-2.6275,4.8978,-2.0846,-1.5503,3.9624,3.9118,2.1885,-4.6897,3.5812,4.2525,-2.6855,1.9536,
-1.8113,-0.14842,-6.5672,-1.4218,4.5482,-5.0725,-0.37247,-4.2769,4.7088,-5.1312,6.0177,-0.58217,-2.7653,-2.2612,
-3.8722,1.5477,-0.14764,-0.61316,4.0343,-2.117,-2.0373,-0.40487,6.113,1.6842,9.754,1.14,6.3187,-3.8127,
-1.2292,0.0087034,5.6459,6.6541,-10.3077,-6.8106,0.49514,7.3323,8.6386,3.9936,9.651,7.8204,8.3498,2.2007,
2.701,0.0081816,0.96884,11.0756,-2.82,-3.9914,0.46543,6.4104,9.5666,-3.4766,5.2156,6.3871,8.8129,9.2995,
1.0925,1.4538,-2.4641,6.0722,11.4492,5.4066,-1.9727,3.6151,4.6539,-6.1607,2.9741,1.6652,15.0327,8.2595,
-0.66002,0.64348,0.81747,3.057,13.2928,1.9494,-5.9517,3.1575,1.7236,0.71691,5.9294,6.145,18.7105,3.6668,
-2.79,-5.4209,-2.8472,0.70439,-0.76119,-1.3011,-8.7281,2.2447,7.6459,4.2891,7.2606,11.3199,14.9363,-0.65102,
-7.2017,-14.4954,-6.2916,-2.9535,-1.4386,3.8384,-5.5531,1.8692,15.6231,2.3445,8.03,9.9176,10.9069,-0.85269,
-8.2159,-15.5539,-1.0936,3.0087,-4.7266,-0.24825,-0.39943,2.239,14.2038,1.7219,13.333,11.2507,11.2168,4.5011,
-5.3127,-11.2463,-1.51,4.2741,-10.7096,-10.3566,-0.85751,-0.30533,11.423,1.6185,17.8354,10.5758,11.5077,5.195,
-5.7171,-9.3664,-7.927,-2.4902,-9.8259,-8.5298,-5.3855,-1.0103,12.9069,-0.16574,15.5605,5.3616,11.0584,1.268,
-10.1947,-7.8404,-2.631,2.4796,-10.2006,-3.6796,-3.1343,2.9069,16.9529,4.1826,16.5547,7.9321,14.7331,3.1198,
-10.0649,-11.2265,5.2397,9.0799,-12.4807,-8.2794,1.8744,1.7682,16.9001,6.8241,17.9717,12.277,16.7415,4.8609,
-2.9532,-7.9013,3.2381,8.2939,-6.1883,-8.5058,-2.3354,2.3853,12.7529,5.2096,17.1346,14.1917,12.1218,1.9179,
-4.4633,-1.8839,-3.4639,-3.05,-3.1659,-6.3082,-5.8109,0.55493,8.3718,3.6917,11.5268,11.1706,8.261,-1.3306,
-8.2928,-4.9043,0.35913,-6,-6.5913,-6.6531,1.0456,-2.1299,7.1466,9.0138,6.2559,5.9211,8.9704,-1.4918,
-9.9647,-10.1535,3.9532,0.38551,-3.0624,-6.4944,0.74194,-5.1351,5.0306,14.9809,6.1215,5.8068,8.1912,-4.5353,
-12.0179,-14.6057,1.0647,-0.36052,0.73678,-7.31,-1.4717,-8.4425,4.9702,11.4305,7.9238,10.0381,9.8691,-3.5403,
-10.0917,-16.8628,-1.6505,-0.58009,-3.405,-8.5586,0.7855,-7.2128,7.8052,7.6114,5.279,10.6409,12.4105,0.2878,
-11.6556,-17.0564,-3.2387,-3.1968,-7.7802,-6.8401,-4.3233,-7.5034,8.0598,9.3239,3.757,7.3509,14.3169,-0.45283,
-15.7768,-19.8891,-5.9367,-8.7894,-11.6517,-6.4294,-10.3304,-8.9811,3.7196,5.3903,6.4238,2.0893,16.3502,-3.3179,
-9.0456,-16.2857,-6.5446,-3.9235,-6.6143,-4.1157,-6.3364,-6.9962,3.9786,-1.2001,5.5562,-1.4102,18.7434,-2.6367,
-3.4409,-11.6929,-1.5724,-3.4471,0.29026,-2.6635,-6.1969,-5.8531,2.535,-2.333,4.018,-2.5309,14.4858,-4.1657,
-2.7525,-5.6889,4.7885,-2.7583,-3.1016,-3.9499,-6.3073,-3.5737,-0.50959,1.1812,8.5972,3.4055,11.688,-2.9519,
-7.4081,-5.3475,-3.2116,-3.075,-8.2179,-6.6054,-4.9647,-5.2877,1.449,3.0388,8.5635,4.1653,12.4332,-0.84638,
-7.6865,-8.6421,-8.0801,-4.0953,0.71105,-5.0038,-2.9796,-4.729,9.3162,5.5076,8.2907,-2.5921,14.8207,-0.55463,
-1.4408,-9.0877,-2.7751,-0.47538,5.971,-6.1498,2.9837,-2.9993,7.7931,3.7311,10.2036,-5.8108,12.485,1.889,
-0.87214,-8.5422,1.73,-1.8929,3.2024,-7.7088,7.1433,-5.2297,1.5407,1.0969,7.6634,-4.0161,10.2898,3.7041,
-3.9533,-4.8964,-0.0608,-4.4304,4.6975,-3.6309,4.0636,-6.6031,4.0999,3.2007,4.0701,-6.4263,12.324,-4.4719,
-1.0648,-5.3258,-5.1188,-4.4058,5.1388,-2.6899,2.1323,-4.0375,5.5409,5.1775,3.1028,-6.7638,3.1487,-3.4809,
-0.036795,-10.3089,-7.704,-5.5875,3.3844,-4.9389,4.8966,-1.3854,0.38793,4.8667,1.9525,-3.4657,-11.1403,5.8872,
-3.4088,-8.2441,-8.2058,-1.878,5.5913,-4.6428,5.5669,-4.6765,-3.0096,3.6106,0.87129,-7.5963,-24.3311,0.23109,
-2.9635,-1.2417,-6.5084,0.88578,11.7637,-1.2307,6.9202,-5.1188,0.30403,3.153,3.9525,-6.8996,-15.8814,-0.98761,
-5.6778,-0.68504,-8.5281,-4.9517,9.6119,-2.121,1.6845,-4.8114,-2.606,3.446,1.305,0.26309,-18.3027,5.3384,
-6.06,1.5252,-5.8472,-5.3775,7.3479,0.65786,-1.5496,-0.4254,-3.655,4.9264,0.021396,0.0063393,-18.4098,7.1873,
-2.0815,5.5308,-0.43516,-2.8862,11.0044,2.3052,1.6764,-0.6413,-2.7128,1.4974,1.7073,-6.9839,-7.4235,-0.71625,
1.1767,4.958,-1.1319,-2.4718,13.4774,1.9261,3.2628,0.12031,-4.7194,1.1668,1.8461,-3.4316,-8.6651,-1.8783,
-1.786,0.32221,-1.064,-5.2155,5.4379,-0.60005,2.5851,5.4157,-4.4362,3.025,0.28907,-0.3332,-19.2324,4.0194,
-4.0894,0.78481,1.8921,-3.4568,0.77332,0.40028,4.8401,1.2344,-2.7238,0.91481,2.1999,-3.6877,-18.0785,2.3315,
-3.6026,4.3531,-0.39059,-1.0798,6.7525,0.1353,5.2731,-4.3833,-2.3194,0.13702,1.827,-2.743,-8.0757,-1.9053,
-2.4224,1.6818,-1.8132,-3.4254,8.2757,-2.7651,3.9926,-1.7099,-2.18,5.9136,-0.21108,-0.16857,-2.7707,0.61895,
-2.277,2.0629,1.1879,-0.80971,9.2255,-2.1173,2.3068,1.2847,-3.4955,4.5945,1.2478,-2.0866,-5.4967,3.4743,
0.75189,6.2774,5.4549,1.6492,13.492,-0.5442,3.6144,2.6537,-0.87539,-0.019751,6.9573,-0.51542,-3.2387,4.7119,
-0.49852,-0.60695,2.4766,-2.0651,7.1388,-2.6807,1.2284,-1.121,0.38197,0.70479,2.9245,-2.6537,-0.39333,1.2957,
-4.5657,-4.6677,-4.1797,-0.73617,4.5416,-1.7967,0.43153,-5.1508,-1.3279,4.7601,0.58006,-5.1453,2.2818,-2.8792,
-3.087,-0.77241,-1.7598,-0.45103,10.7765,-0.96603,2.5748,-6.529,-0.042975,4.7155,3.6787,-6.524,1.9037,-1.0192,
0.71369,2.8894,6.7819,-0.18301,13.2634,-2.1129,1.6974,-4.45,-1.2457,1.299,2.2527,-6.3733,-1.3438,5.0675,
-0.29323,1.7519,5.8928,-2.5824,11.9855,1.3881,0.14954,-4.6652,-4.0632,1.7033,0.18914,-5.0273,3.5576,4.7632,
0.20652,4.0569,3.6108,-1.9453,14.1586,1.3046,2.5505,-3.4212,-2.8553,0.63697,3.0701,-5.2074,10.5747,-1.3069,
4.5325,11.5267,8.2149,2.5102,16.2016,-0.2195,5.29,-0.80533,-0.75583,-2.2938,2.4039,-5.3771,10.9046,-0.74657,
4.0195,7.2192,7.963,-0.77388,7.7577,-2.8579,3.2853,-3.4086,0.97674,-4.3255,1.0544,-6.2597,7.1166,2.4313,
3.7784,3.894,7.0033,2.647,0.54336,-1.7221,2.1243,-3.204,2.3644,-2.6195,4.848,-3.4738,8.618,0.35764,
-0.30472,7.5168,7.065,0.55999,-2.3813,2.7196,-0.4137,-3.9757,0.29434,-1.0161,4.0747,1.0729,9.0648,-4.0026,
1.8825,10.199,6.3999,-4.0531,5.2332,7.1359,0.81618,-3.4964,-0.44645,-0.23245,-0.74928,3.178,10.6903,2.2633,
4.903,10.7924,0.95469,0.28742,9.9808,4.5386,-0.43762,1.2931,-2.5888,0.50486,-3.8373,1.782,10.2898,5.743,
-2.863,6.0475,1.6203,-0.93512,-3.8744,1.1328,-4.0268,3.3847,-3.6388,5.0539,-1.4379,2.3984,9.4315,-1.1091,
-7.9934,0.38199,1.5231,-4.253,-8.4626,-1.3453,-0.41072,-0.67476,-3.4205,5.7149,1.0585,-2.0838,13.2039,-2.9707,
-0.52435,3.4926,0.70881,-2.3111,6.1451,-2.9518,6.6038,-2.3215,-2.4923,0.31037,2.6822,-6.0566,18.9196,-3.0339,
3.8457,7.6211,4.0405,0.71989,19.8764,-2.7749,3.3148,-2.6644,-3.7888,-4.5287,2.521,-4.7291,15.3741,-5.2622,
4.579,8.6103,1.8697,2.1232,17.238,3.1764,-2.1865,-3.4686,-5.0075,-1.3647,0.44179,-4.4451,12.0413,-1.5718,
3.5811,6.4062,0.55241,-4.03,18.8551,3.227,-1.8141,-3.9836,-3.9839,1.3685,-0.78978,-9.2399,13.0063,1.6557,
2.6434,9.1554,6.5448,-2.101,17.4823,2.31,-1.9462,-2.5393,-1.5757,1.5273,-0.98336,-10.3729,12.4669,2.7617,
2.9667,10.5342,4.2239,-0.52864,9.6849,2.1714,-2.3118,-5.7614,-3.8913,1.4357,-5.2627,-10.2325,8.3444,2.114,
5.4403,6.7691,-0.60879,-5.0762,6.4528,-0.60997,-0.48545,-9.5131,-5.827,1.1086,-9.0443,-11.3055,7.1208,-0.18195,
5.837,3.7117,1.5971,-3.5666,7.2707,-1.2965,-0.21558,-9.6654,-5.2366,1.7652,-5.3684,-9.9043,7.8986,-4.2686,
3.7993,3.2478,4.1526,-4.5581,9.4857,-0.49558,3.8949,-8.3624,-3.235,3.3463,-2.3949,-10.0332,9.5941,-8.1101,
2.8482,6.6681,1.7341,-6.9359,9.1573,-2.6352,9.2046,-6.6556,-3.2821,4.833,-5.385,-4.3695,12.6337,-6.4184,
3.6414,5.3039,-0.2984,-5.0737,7.6438,-4.4051,6.7239,-6.7384,-5.9775,5.0247,-5.0616,6.0153,10.9115,-4.1049,
0.28944,-2.4861,2.853,-4.5279,7.4261,-2.9355,2.2236,-6.5751,-0.55713,7.8567,0.78568,6.3778,8.0877,-4.5815,
-7.6817,-8.3625,1.4765,-4.9796,-0.0093058,-3.0008,-3.9358,-6.4215,6.4657,8.5901,2.9077,2.3797,8.3253,-5.03,
-10.8362,-12.9222,-3.6733,-8.2958,-8.9264,-9.3282,-5.8688,-11.0974,3.9086,5.4241,1.5284,5.8523,5.6566,-2.559,
-5.3653,-8.2907,1.8493,-2.9778,-2.1243,-7.8047,-2.1423,-6.0933,-0.18229,6.5444,0.47238,7.9113,4.8353,-1.4411,
-6.0077,0.40189,6.5591,1.0573,4.7516,2.3046,-3.46,2.467,-4.0277,5.1879,-1.4842,0.2058,7.4373,0.091128,
-6.8525,0.61875,4.4783,-2.6216,-2.0409,2.8897,-5.4215,0.14984,-2.5812,2.707,1.256,-6.3143,8.6782,-0.63724,
0.30752,4.9199,6.6197,-1.018,-1.9185,-4.9965,-3.65,-4.6799,6.2507,6.4014,8.8934,-3.0427,8.1576,-6.8655,
2.2173,6.071,7.1869,-3.3671,0.60676,-6.6249,-2.9491,-6.8092,6.3581,7.4632,7.3959,0.99629,7.6681,-11.2743,
4.2536,6.4299,4.5863,-5.3344,-1.1166,-0.20208,0.84308,-4.2313,-2.4598,4.8464,-3.4119,4.0698,7.4492,-3.6082,
3.275,13.0335,-0.75014,-6.7016,-0.80868,-0.91285,-0.41234,-2.2902,-8.8197,-0.024095,-15.0178,4.5485,0.012386,-4.5965,
2.3554,16.831,5.3202,-8.9508,6.7114,1.3113,-0.14686,0.016187,-7.0854,-1.7096,-13.8755,4.5168,-0.22955,-6.4901,
3.1784,6.6621,8.3754,-8.4138,5.8268,1.7146,0.82627,0.97954,-11.9629,-10.2842,-9.6685,-2.0212,2.6767,-5.6188,
6.3619,5.7807,3.5344,-4.5347,4.0312,-0.31673,2.7047,1.4025,-11.2449,-10.6312,-7.1605,-2.864,5.4084,-3.3532,
5.498,7.8437,0.91193,-4.2624,4.7534,-0.2975,2.5426,-4.466,-7.6779,-6.6191,-7.213,0.68203,6.048,-1.706,
6.1325,3.9991,3.2678,-1.1141,3.5043,2.1305,2.872,-4.68,-5.771,-4.2933,-2.4414,6.4262,7.1314,4.1809,
1.9082,-4.9179,-2.7133,-5.3861,-3.9372,-5.2282,0.28908,-2.9534,-3.497,-3.5542,1.5614,6.5225,3.811,2.0019,
-1.8215,-6.3099,-8.0939,-4.3398,-2.4955,-8.5297,1.4773,-2.535,2.2566,0.75659,4.601,4.9261,3.8235,-2.6978,
-0.5074,-8.5828,-4.4748,-1.9102,4.1617,-6.8131,4.5217,-3.1063,2.3622,2.8804,6.976,-0.43114,3.3527,-1.3306,
1.2105,-15.5394,2.3014,-3.0007,7.5277,-8.0913,7.866,-2.6787,-0.91277,-0.42572,8.2449,-2.5742,2.4289,-0.045699,
2.5839,-16.5352,1.1992,1.036,6.5938,-7.6056,8.3581,-1.0715,1.0704,-0.39995,6.7861,3.8465,4.6935,-4.3815,
-0.46342,-18.9176,-3.2113,-1.4365,-1.5148,-7.1495,-6.2433,-0.04309,5.8267,1.5525,5.4149,4.5798,4.8936,-2.1902,
-1.8816,-16.3363,-2.5364,1.06,-2.8699,-3.8282,-19.9687,1.8875,6.4412,6.2798,10.8748,3.3409,5.5641,7.582,
0.15922,-8.6074,-1.4201,5.3345,1.6408,-4.0802,-32.8706,-0.63614,1.7161,6.8671,10.704,6.9971,6.1943,8.5735,
0.87279,-6.8857,-3.9863,-1.9752,-3.5191,-7.933,-44.9984,-5.6594,-2.4844,1.3932,-0.78427,6.3361,-1.6489,0.10515,
6.1231,2.6865,-4.7109,-1.8567,-2.3441,-3.1187,-40.6113,-0.017214,0.075248,-1.1005,-0.25482,3.5458,-2.9962,1.0632,
5.7557,9.2738,-0.5719,0.66529,1.171,0.92527,-37.6924,5.7684,-0.4112,-4.4085,4.0988,1.8872,1.5223,-0.44689,
2.9998,9.1993,1.3901,3.9994,-5.6481,1.8336,-39.7694,4.9404,-1.8332,-4.6264,0.96034,5.148,-1.9439,-6.2051,
4.9892,9.3704,-1.8265,6.4107,-13.7452,-0.44579,-39.0705,0.54636,1.8924,-1.6975,1.1439,9.4186,-6.4064,-3.1815,
3.7257,8.326,-3.163,3.1338,-12.4383,-5.2395,-36.2441,-3.825,-1.1134,-3.5241,3.0032,3.5511,-2.1658,0.86602,
2.2973,9.0318,-1.7679,1.7409,-3.7378,-1.3097,-30.9362,0.50234,-6.5902,-4.5174,1.6182,2.1327,1.5795,0.57309,
1.6773,4.6333,-4.5546,0.18998,-2.0679,0.21488,-29.0802,2.8821,-7.1589,-7.1391,-0.88923,5.8609,-1.8895,0.056546,
6.3972,3.8731,0.057259,3.0709,-0.015448,-2.2084,-23.961,1.7451,0.019286,-9.6031,0.12822,5.5095,-0.33005,2.9454,
6.9772,6.0513,6.3208,1.9228,3.8419,3.7087,-18.6669,3.0866,4.3564,-8.0626,2.0487,-0.60564,3.0642,3.2506,
1.0152,4.9651,0.8801,-3.7365,0.4781,6.6199,-18.2698,2.6602,0.47987,-5.8914,0.72073,-1.7744,0.22903,-1.0415,
1.9184,6.5956,1.309,0.34435,2.8598,2.848,-15.2454,2.5008,-2.9231,-4.0919,0.19533,2.1883,2.6256,-3.8713,
4.4548,6.9228,5.8102,1.529,9.6781,0.50799,-9.7512,1.1455,-2.0249,-4.5692,0.90697,-5.8968,5.6016,-4.3624,
1.295,6.5074,4.0153,-0.0090151,6.6872,0.47797,-11.5762,-1.8153,-1.421,-6.2233,1.8164,-8.917,2.373,-0.2438,
-3.3624,7.8042,-0.32294,-0.24944,-0.22193,3.5823,-13.5332,0.94472,-0.13088,-0.30673,2.4303,4.392,-0.90289,4.832,
-4.3657,0.34629,-2.473,-5.2964,-1.4137,-2.1765,-8.6236,0.16491,2.0459,4.7736,0.11558,5.816,-0.60752,2.8551,
0.95788,-5.2181,2.7371,-1.3632,2.2861,-5.1789,-4.0089,-2.4961,0.71832,3.7638,1.7954,0.88727,2.08,-0.44967,
-0.54585,-8.2795,6.9112,-0.79946,-1.7074,-2.94,-8.5888,-3.3106,-5.1094,1.1279,-0.2405,2.2803,0.02703,-2.8328,
-2.6825,-9.9521,6.7377,-3.8847,-5.2202,-2.0409,-11.207,-1.425,-1.1876,1.7833,-3.3593,6.2406,-1.6616,-3.386,
-1.075,-6.9446,4.405,-2.2056,1.3598,-0.95435,-6.6782,0.58892,2.7403,-0.25211,-1.7117,4.4201,1.3304,-1.2549,
0.19452,-7.733,5.3458,-1.8321,8.7498,0.79036,2.6403,1.7586,-0.55787,-4.8165,-1.8498,1.0217,2.9376,-1.4208,
3.0751,-11.1254,5.9891,0.20625,9.1893,2.189,6.3385,3.5816,-3.4162,-4.5273,-6.0773,1.9245,2.2796,-3.2635,
3.3726,-9.4938,6.1122,0.67581,5.2635,2.0576,4.9941,2.4023,-0.80113,1.5289,-5.2308,1.809,7.9274,-1.6214,
-0.92715,0.95778,8.3966,-1.052,4.2243,2.1756,-0.36696,1.0534,-1.9584,2.6425,-1.7834,-0.4687,6.2465,1.127,
-5.451,11.2644,5.2414,-3.6397,1.802,5.6603,-8.2987,2.6772,-9.7944,-1.6136,-2.8815,-2.6095,-1.5999,-2.5558,
-0.54446,7.9372,3.7219,-5.1088,-2.8857,7.0076,-5.1497,1.3115,-6.0734,-1.2756,-2.4674,-4.6223,4.5214,-3.1256,
5.2728,6.4971,2.5342,0.49993,-0.30242,1.7665,3.8362,-2.1417,0.55748,-0.23522,-0.87356,-8.6838,9.0704,-1.0099,
3.2692,13.0972,4.5518,0.71136,6.7056,-0.50822,4.3291,1.1203,-1.6451,-0.46207,-1.544,-8.4037,0.090493,-2.6365,
3.314,11.588,8.3756,-5.8393,5.098,3.6192,0.9359,3.2222,-5.6442,0.28855,-1.6928,-4.7665,-5.4585,-2.7193,
4.3202,7.7594,3.7759,-4.7658,0.69451,0.75115,-0.80725,-2.9969,-3.1362,-1.4158,-1.832,-2.793,1.8586,-1.833,
0.44583,7.5346,-0.06581,-2.3104,-1.9985,-1.4633,-0.035912,-2.0939,3.5597,-1.572,0.44731,0.50782,7.2909,-1.9642,
-2.2322,2.503,1.6251,-5.7875,-5.9762,4.6503,-1.721,4.5394,1.6587,1.1736,2.5894,2.6467,0.34577,-4.0158,
-0.41108,-2.7084,2.251,-8.5732,-5.3762,5.5765,-3.3045,0.6521,-3.984,-0.58355,-2.1452,4.1752,-5.2186,-5.4616,
0.33648,3.4797,1.8745,-6.854,1.4539,4.0367,-3.3476,-1.0747,-4.9503,-1.2719,-5.15,9.4683,0.15574,-4.411,
-0.88854,5.44,-0.40713,-7.6476,2.5719,5.4817,-3.3878,1.6413,-10.6788,-1.9189,-7.974,2.8746,2.316,-7.7617,
4.2262,5.8368,4.1968,-7.4299,2.6588,7.3217,3.8054,0.81971,-12.2075,-3.0089,-5.8086,-5.7338,0.97199,-6.5729,
3.2497,10.0663,9.0067,-2.4044,2.7403,5.6776,9.6026,-3.8088,-8.8235,-1.623,-3.2909,-3.2206,0.67271,-4.9732,
0.16225,8.498,7.502,-1.7782,4.986,4.3726,8.0626,-3.0983,-5.402,0.40253,-2.6115,-0.13528,4.9707,-3.2291,
3.7682,3.4086,9.2212,-2.8766,5.8919,6.2796,6.8557,-0.26108,-4.8367,-0.82668,-1.7313,-2.2961,3.9493,-1.3479,
4.9881,3.6863,9.6321,2.5984,2.6461,3.9744,4.5159,-0.72758,-5.0286,-2.7055,-2.5919,-4.5687,-4.4826,-1.7491,
1.7963,4.4294,3.2696,2.4425,0.077186,0.36197,3.2811,0.76234,0.57572,-2.5432,0.4561,-4.7765,-1.8031,0.284,
0.0012911,3.4403,-0.060108,-4.2115,-3.0609,0.58122,0.43292,0.95757,0.30021,-7.9342,1.1516,-7.6234,3.3663,-0.93788,
3.6166,4.4392,5.0052,-3.7178,-2.6358,2.7155,-1.2801,0.17721,-4.2971,-9.1449,-1.0866,-5.4788,1.4776,-3.5332,
7.2563,4.1726,8.561,-1.0849,2.3423,1.5885,4.0992,2.0945,-2.1113,1.5265,-0.057332,3.5268,1.8706,-2.3571,
1.5182,2.476,2.2628,-3.4299,-0.20834,-1.8813,2.8889,0.040677,-2.9489,3.3631,-1.5002,4.2796,1.2765,-3.1795,
-2.9114,0.88138,0.19905,-5.1525,-4.5344,0.64195,-3.069,-0.44393,-3.7361,0.26898,0.035889,6.4327,2.164,-1.0608,
-4.6649,-4.4737,1.6334,-2.9147,-8.1187,1.0854,-6.2591,1.5109,-5.4397,0.2533,0.99806,10.3855,1.0698,0.44913,
-5.3489,-6.6159,-0.87522,-0.32972,-9.5598,3.4304,-4.4375,1.9022,-4.1494,3.6121,0.45624,7.8342,0.5237,-1.0241,
-2.1359,-5.737,0.14162,0.17199,-8.5043,6.599,-0.31489,-0.14014,0.43786,2.9134,0.9108,1.5795,1.4561,0.48363,
-2.0077,-9.2491,0.61506,1.126,-9.4398,-0.063451,-2.7061,-2.5419,-0.070346,-3.0459,0.85615,-1.4078,0.88684,0.93654,
-2.3692,-7.2479,1.5425,3.9505,-8.3915,-3.4341,-1.0977,0.020778,4.2722,1.4751,3.2149,2.5331,3.7261,2.3266,
-2.9504,-4.6439,2.1728,0.58044,-10.5395,-1.0589,-4.1651,0.2605,7.1493,3.5558,-0.11101,3.5864,0.36909,0.98172,
-1.3271,-3.8833,-0.36812,-6.2033,-11.8354,0.4509,-7.2897,-1.6833,4.7922,2.8605,-3.9612,-0.96756,-4.9557,2.3691,
-0.28341,-0.27565,-2.7559,-7.2771,-7.7506,-0.54025,0.37856,-1.1002,4.9868,6.0631,-2.277,-6.2119,-2.7299,5.1192,
3.108,4.5611,-2.5906,-1.5378,-4.8754,-2.918,8.0686,-0.55176,4.6876,2.8073,-1.1761,-7.7674,2.7365,-0.49058,
8.2242,6.2157,3.8314,1.4465,-0.24456,-1.2971,13.3691,2.8553,6.8165,-4.1101,1.3046,-12.1221,6.9106,-2.8713,
5.5616,0.29912,7.2169,0.1544,-2.399,-2.906,9.4339,3.8893,6.1665,-11.3353,2.4312,-21.7586,1.4343,-0.52983,
1.8534,-0.20076,4.8557,3.0377,-8.0397,-4.6599,3.0833,2.2097,4.8327,-11.1371,1.3214,-11.2941,-1.0619,2.3945,
1.9832,-0.42968,3.841,0.68578,-7.7983,-6.068,5.5494,1.8361,7.1933,-3.4795,1.4831,3.4836,1.6529,2.4913,
1.1411,-0.6451,4.3341,-0.07804,-4.679,-9.801,9.314,1.0028,6.0391,4.2013,0.67099,1.7078,-3.0258,-0.30903,
-2.0606,-0.84713,5.7611,2.578,-5.6034,-7.5255,7.0682,0.22,4.9536,2.7442,1.8363,-2.4918,-4.5312,0.91458,
-6.0346,-5.8582,9.0306,1.2178,-7.4366,-3.9412,7.3668,2.3757,7.7896,-7.3026,2.4488,-2.5839,0.80212,0.61851,
-4.4672,-4.7834,8.7297,3.3143,-1.4468,-4.9095,11.9864,6.3305,7.5632,-8.5517,3.5071,-2.1875,2.9232,-0.62344,
-2.03,-4.2554,6.5192,0.46391,1.2911,-4.8559,11.0263,4.2635,6.3865,-0.56678,5.4659,1.5592,2.0249,-0.34507,
-2.1492,-7.1336,4.9227,-0.28683,0.49078,-2.3954,8.6775,1.8385,6.2443,1.1545,5.3789,5.563,3.5906,-0.083395,
-3.9484,-7.1875,1.2534,1.659,3.3539,-2.7336,9.1211,2.2106,5.8697,-0.84255,2.646,5.2292,4.8214,-2.0066,
-2.5062,-7.9615,0.45482,0.83613,0.50107,-6.185,10.7426,-1.5379,6.7228,1.3767,3.2101,5.1564,4.7731,-0.19896,
-2.838,-10.3761,-0.054635,1.2677,-1.9394,-8.2243,10.0983,-3.3736,7.2835,3.7045,3.9816,3.883,4.0046,0.77707,
-4.8369,-9.0302,1.6359,-1.9414,-0.6177,-4.1154,6.8408,2.3724,7.0875,2.2769,2.5374,3.409,4.9696,-0.47485,
-5.0288,-4.6322,2.9837,-3.7534,-7.8112,2.8802,3.0561,4.158,4.2518,-4.6084,-1.471,4.1686,0.33285,-0.92806,
-1.5941,-0.73887,2.5638,-1.359,-11.9223,8.251,2.6318,6.5597,4.2377,-5.5372,-2.1061,9.4621,-0.41048,-0.14947,
-1.0161,-1.1765,3.3743,-5.1338,-13.1352,5.8278,3.4382,6.1665,3.9834,1.544,-2.4616,9.3763,0.096538,-1.5868,
-1.1963,-0.38275,6.3051,-3.1384,-17.4085,2.3448,4.437,6.5197,1.0931,5.067,-3.0366,8.573,-4.4888,0.67783,
-0.16041,0.12238,3.5164,-2.4679,-18.7744,3.1682,3.2067,6.6102,1.0278,0.90633,-3.8185,7.5764,-5.1835,2.0832,
0.090411,-0.12616,-1.2741,-3.0429,-14.9966,5.6295,-0.11898,1.1521,0.24296,1.0931,-2.8667,4.9524,-3.1855,-0.69313,
-1.8432,-1.0825,-4.0897,-0.45024,-11.6862,2.8811,0.85202,1.083,-0.25355,3.4377,3.5723,8.9936,-2.9944,0.31279,
-8.7225,-8.9717,-6.9778,-2.1105,-15.0828,-5.7279,2.4881,3.1872,5.7868,0.57987,11.3117,9.1769,-1.1275,-0.91127,
-2.6555,-7.7105,-1.4979,2.5955,-12.9726,-3.2146,8.3644,3.7189,16.7677,3.1966,19.5506,1.1549,6.8939,-1.0976,
-0.56777,-3.8732,4.8591,3.8862,-7.8557,1.7988,9.309,-0.84237,16.7262,6.3795,19.824,-5.1811,2.1422,0.41432,
-9.452,-4.8459,4.3264,-0.92647,-2.8048,2.8959,2.7247,-1.9969,8.2506,4.7912,9.2344,-1.737,-6.9047,-1.2975,
-9.3666,-3.591,4.549,-9.5478,-0.22617,3.6862,2.0791,0.53328,-1.4032,-0.31673,-1.4424,0.29567,-5.5263,-1.2199,
-2.779,-0.72446,13.676,-16.4467,1.9566,3.2241,7.016,0.74225,-5.8983,-3.4308,-1.5973,0.51889,-3.5075,0.54051,
-1.6482,2.6937,13.8196,-10.6394,1.357,3.9948,4.6666,-0.74877,-4.0984,0.14931,-2.9475,4.8263,-4.7431,0.50831,
-1.0674,3.014,7.6878,-8.0729,-3.5451,6.1652,3.4227,-0.22145,-1.4424,3.0324,-6.627,6.4649,-5.9047,0.47781,
0.92486,4.279,10.1186,-10.481,-2.3681,5.7953,8.5196,2.202,-3.284,-1.4879,-2.8549,3.1845,-4.5861,-2.9253,
0.38743,8.8429,9.0295,-8.8878,5.4868,0.62731,8.4908,2.0698,-5.979,-5.7369,0.69082,1.0652,-3.3471,-5.6423,
0.60538,5.1791,5.8364,-7.1495,2.0243,-0.61539,8.7045,2.1868,-1.5232,-2.7414,-3.4482,3.1707,-0.97688,1.6863,
0.81003,-0.19286,7.1735,-0.69496,-5.569,2.0726,12.7615,5.1887,1.7017,1.5205,-5.8924,2.7395,2.6972,2.79,
-2.613,-0.18175,6.2611,1.2749,-2.3428,0.9844,11.5139,6.3236,-1.2929,0.46492,-1.2005,1.6108,2.0534,-6.5364,
-3.4203,3.2038,1.5469,-2.1758,-1.72,-2.9313,6.9669,2.57,-5.0715,-2.9372,-1.6107,4.8888,0.0017626,-0.35945,
-3.6973,3.0114,-0.47388,-3.0093,-2.099,-0.82698,3.1742,-0.95892,-4.285,-1.7969,-3.442,7.9697,-0.96244,10.2672,
-4.6803,0.66153,3.17,-4.9979,-0.28537,1.8737,4.189,-1.6243,-3.787,1.4444,-3.4764,6.2867,-1.6276,3.6256,
-2.4715,5.4423,7.3179,-2.7701,-0.26848,2.7254,6.83,2.3298,-5.0058,0.8756,-4.7143,4.945,-1.5302,-1.4124,
-5.2155,6.0799,1.5764,-1.6393,-2.6627,2.0802,3.5279,0.74397,-4.7057,0.34136,-6.3595,2.2384,-2.402,-0.36358,
-5.385,2.3406,-0.92879,0.38676,-2.021,1.473,3.7981,-1.7113,-1.5313,4.1768,-5.496,-1.2708,-6.5971,-2.7523,
-2.6513,5.5747,3.9476,1.3279,1.4747,3.7947,6.4628,1.7659,-1.4389,3.4443,-1.3098,-4.5686,-7.1652,-6.9255,
-6.1076,5.4811,5.398,-6.2236,-1.7473,4.2899,4.3873,0.93657,-2.5579,2.5142,0.45601,-8.3923,-3.1198,-4.3408,
-5.9821,4.4294,4.8332,-4.6449,-2.3653,0.89952,1.9554,-1.7707,-0.23525,5.9793,2.5978,-5.7191,-4.6199,-1.9108,
-4.4184,5.3684,4.7841,-0.75124,-1.0186,-0.35975,2.0786,-1.4235,3.8762,-0.40549,3.6468,-1.2786,-7.4762,-4.4477,
-4.6352,3.1181,6.9072,-5.0445,-0.95747,1.59,2.9182,-1.3381,7.0181,-7.612,3.9104,-1.6843,-6.5452,-6.109,
-3.8747,2.9315,3.6007,-4.7418,3.9211,1.977,3.7074,-1.7397,2.7406,-1.8522,1.7475,1.3093,-5.1882,-3.8143,
-4.3653,6.3708,0.73336,-3.7342,5.3729,-1.7572,3.2438,-1.8766,-2.4853,-1.0184,0.43763,2.4358,-5.1181,-6.7187,
-5.5499,8.3989,0.68913,-1.5822,1.1939,-2.6159,-0.80747,-0.79987,-1.3721,-7.224,3.3037,0.8436,-5.7751,-10.6541,
-5.4577,3.7974,-3.4493,-2.2099,1.8454,0.19237,2.3747,-0.51068,-2.0129,-5.1031,2.8642,2.4804,-7.598,-4.9534,
-4.1661,-1.2509,-5.6527,-5.9339,8.4833,2.1092,11.8729,-1.4441,-4.3024,2.4337,1.7288,5.7058,-4.2498,0.64667,
-6.0853,0.029423,-8.4466,-3.8907,9.6616,2.2237,8.9914,-1.5985,-2.839,-1.3273,4.7581,3.1943,1.0669,-2.0432,
-7.8896,2.1966,-10.5916,-2.9341,4.0204,2.331,-0.9483,-3.19,-0.49973,-7.7558,5.1957,-0.13105,-1.1665,-3.6081,
-3.5598,3.5111,-5.6173,-0.82986,4.7431,2.1911,1.5192,-3.4805,-5.29,-6.3262,0.54564,1.8055,-4.9529,-4.3559,
-0.21296,8.8438,-0.21882,-1.0213,10.4843,-1.0736,10.8278,-3.0305,-9.5521,-5.7059,-3.5847,1.9379,-3.4507,-5.7816,
-2.6105,10.2416,-3.098,-4.8161,8.4092,-1.009,9.6964,-2.367,-0.78406,-7.2915,-0.95925,-0.10636,-2.2795,-2.5424,
-1.7305,4.5654,-6.5275,-2.8399,2.361,3.6309,1.6428,-2.4659,3.8423,-0.82843,1.2675,3.0331,-3.83,1.7075,
1.9887,3.0866,-5.8949,-1.9466,2.4603,3.6544,1.3033,-4.0047,0.96064,4.7649,-0.49581,7.4308,-5.7694,-1.046,
0.18193,7.4805,-2.408,-3.0349,4.4816,0.30146,7.2504,-0.14926,-3.1946,-1.5468,-2.1535,2.4054,-3.7357,-7.491,
-1.516,3.4165,-1.5403,-0.2015,2.0438,-0.92169,6.0923,0.58282,-8.5467,-6.0335,-1.3012,0.091732,-5.1991,-9.2109,
2.6721,1.0421,-0.24286,2.9439,5.5364,1.7849,5.486,-2.1035,-3.9364,-0.61003,3.3564,5.6296,-5.1283,-5.525,
-0.62172,4.595,-8.182,-2.7764,10.2659,-0.0093912,6.3617,-7.0389,-6.3517,-3.7069,-1.4247,-0.25178,-5.0616,-8.8089,
-2.5121,5.7656,-10.1012,-2.6098,13.5063,2.8837,8.8725,-1.7959,-6.4521,-1.5558,-2.785,3.1382,-3.7936,-2.4953,
-2.1207,0.8401,-7.3262,1.6444,10.0446,2.9514,4.7245,0.96319,-7.2705,4.0809,-4.3049,8.9753,-4.2891,4.644,
-2.9571,3.2001,-10.2609,-2.3109,10.8884,2.2926,0.58486,1.3876,-10.6904,2.8724,-2.6006,3.6163,-5.4778,-1.4194,
-1.0929,7.1054,-9.8862,-5.7877,15.7783,5.77,4.6471,3.9554,-7.3979,2.941,3.099,4.1222,-1.5337,-1.5752,
0.90088,4.2685,-9.293,-1.1021,10.4932,4.4595,3.404,-3.9952,-4.062,5.1742,-0.46135,10.6233,-0.95972,6.2321,
1.088,1.8435,-5.6022,0.65148,6.7304,-1.3515,2.4771,-7.3706,-2.1308,3.6592,1.2533,8.7813,-0.66094,4.1711,
-2.3517,0.28659,-5.748,-1.7977,7.2904,-3.6805,3.7742,-5.4821,-2.0029,1.511,5.0345,1.5055,-0.13935,1.0283,
-3.4157,2.9212,-10.4646,-1.4487,7.0942,-0.80834,3.789,-5.3939,1.2509,4.554,5.938,1.6564,-0.85412,4.5823,
-0.80037,1.2994,-5.4986,-5.2188,7.6326,-1.7239,3.0795,-6.0349,0.69327,6.2087,5.5815,3.9669,-0.32071,3.3428,
1.4168,-3.3578,-2.9991,-1.7722,8.38,-0.8976,4.1,-3.5032,2.3394,8.0058,5.0056,10.2368,-0.54243,3.3837,
-1.0786,-1.2284,-9.0859,-0.21939,1.128,-1.8078,3.3718,-2.8113,3.1626,7.0433,1.331,10.5867,-1.474,4.6267,
1.6377,3.425,-4.4434,-2.3758,-3.5189,-5.7967,3.8929,-0.47343,-2.5703,2.5229,-0.91798,1.5158,0.30168,1.2156,
3.7086,4.4244,-1.0433,3.7927,0.78957,-2.3154,3.9003,0.76027,-6.5134,-3.1716,3.7164,-1.7086,-1.886,-5.3648,
4.9321,7.0512,-6.7655,4.0473,5.0807,3.1259,3.1841,-1.2133,-2.7484,-2.4996,5.4218,5.1426,-3.2189,-1.6687,
6.8056,12.172,-5.6364,-1.7394,5.499,2.6976,3.2343,1.0284,-4.7529,1.266,0.99894,5.0752,-1.3383,4.4572,
2.2994,7.8258,-2.1652,-4.2866,5.4101,3.2587,2.3168,2.172,-8.0831,2.3949,1.6619,1.6372,-1.4994,2.0201,
3.8487,2.7769,1.0982,-2.3421,10.1467,7.1605,1.9369,0.35446,-0.60872,3.4565,6.1415,4.672,-3.0967,0.69363,
6.2691,5.2617,1.7554,-1.4785,15.5636,7.9359,-0.34874,2.5026,0.15139,1.5621,0.2296,6.0792,-2.6697,0.89367,
-0.37333,3.9819,-2.2061,-7.1741,13.6657,4.5675,-0.80952,3.3165,-7.0888,-0.46005,-4.1227,1.3759,-0.5811,-0.12405,
0.131,2.2971,-7.3763,-4.8155,11.4,4.2934,2.6135,0.22501,-5.6991,2.942,3.8379,-0.15249,0.41763,2.2935,
3.2566,-0.49224,-11.0311,-2.8393,9.5107,3.3129,2.2153,-3.8858,-2.2237,3.9708,5.7768,0.57956,-0.33032,0.95062,
3.0608,-4.801,-3.6208,-3.1514,4.6017,-0.2603,4.0105,-2.2064,1.2837,1.3219,4.9478,2.473,3.0639,-0.070287,
5.7696,-6.4412,-2.4392,-0.069759,5.2895,-3.1367,3.288,-4.0022,2.171,1.725,8.0253,1.8427,3.844,1.3797,
4.2184,-5.8135,-6.3905,-2.2345,10.516,-0.77961,2.3676,-4.9672,-0.12861,9.575,6.3388,3.901,1.4444,2.9844,
-2.7836,-4.5008,-4.5608,-2.5828,4.1004,1.1954,3.6718,3.0436,-1.0848,9.9649,-1.7543,9.4516,-1.0528,3.7692,
-4.3036,-4.472,-7.4204,-1.2228,-5.0639,-1.0453,0.80015,2.6198,-2.7071,3.8231,-3.8185,5.2693,1.1797,0.89219,
0.05198,-2.9984,-7.6985,-0.42607,0.30162,4.0786,0.9931,0.29347,-2.3037,6.7272,4.3644,1.3377,10.0265,0.59723,
-3.5666,-3.0594,-9.4058,-2.0877,1.0064,0.70044,1.1745,-1.4114,-6.7448,6.5646,-2.405,3.4266,3.8813,-2.0897,
-1.1834,1.2215,-10.0467,0.68863,0.22314,-1.9927,4.7194,1.3244,-2.2428,8.8218,-7.3223,8.2827,-1.4128,1.6511,
-1.8353,-1.9853,-12.095,-0.075589,-3.8876,0.29604,1.7852,-0.92421,-3.3135,4.1951,-5.1958,-2.5786,-2.0514,-0.13519,
-2.4481,-6.4454,-3.8975,0.65185,-4.8596,1.4836,0.95516,-1.1097,-4.3195,-0.63588,-2.2325,-6.5212,0.24134,1.0782,
-3.0246,-10.1561,0.9161,1.818,-12.5218,-6.5592,0.1745,-3.2123,2.9295,0.12563,-4.7496,-2.9965,-0.97843,-2.12,
0.29017,-4.4853,-1.3083,12.073,-15.3857,-6.4068,1.3691,-2.7784,9.2615,8.0716,0.11441,-1.6116,2.2135,-4.1622,
-1.1733,-5.6622,-2.6758,8.4564,-10.124,-3.1301,1.7691,-0.6837,2.921,6.6232,1.0716,-6.3354,3.5272,1.3905,
-4.4773,-8.215,1.3411,-1.21,-6.6245,-4.8705,0.69863,-2.5709,-4.4851,1.4051,-4.7772,-7.8835,0.42306,2.2709,
0.85276,0.23191,4.3939,4.4059,-5.9858,-1.927,0.89791,-0.24723,-2.5286,3.9721,-6.1776,-4.7592,-1.7717,-4.855,
1.525,1.9052,1.9611,2.4544,-11.1703,-1.0884,0.12114,-0.95576,-4.0641,3.9748,-7.4942,-5.197,-4.7984,-6.2509,
-0.49496,-1.5833,0.39744,0.86107,-9.536,-0.54097,2.0418,-2.3444,-3.8205,3.2546,-4.1522,-1.9924,-1.1363,4.2473,
0.016669,-6.3095,-2.037,1.7733,-8.9643,-0.99045,1.9193,-0.27558,0.26516,0.64871,-4.3855,-3.3196,-0.5862,4.4744,
3.6311,-7.1358,-3.1201,2.3902,-12.0418,-0.69005,2.5271,2.392,0.0082782,1.3327,-3.399,-8.1816,-0.79199,-0.85579,
-3.3355,-7.1898,-3.415,2.729,-13.7292,-0.16649,1.8937,2.7307,-3.3664,2.6992,-0.7847,-7.2086,3.1117,1.124,
-7.2325,-9.4093,-1.5227,1.3602,-13.1467,-2.8078,2.9852,-1.5303,1.4151,2.7785,1.9137,-2.6785,5.0944,5.1541,
-1.0139,-10.291,-0.46698,1.2786,-10.4297,-4.5675,3.288,-0.47459,-0.59804,-3.6552,-0.61125,-3.0001,2.8605,5.8087,
-3.3634,-13.0477,-5.7418,1.684,-5.9473,-2.3655,3.0909,2.9281,-7.3108,-8.2564,-2.503,-6.6763,2.6891,4.4961,
-7.5,-13.7111,-7.3251,6.4032,-1.7341,-2.2231,3.8698,1.7886,-3.4977,-4.3866,-1.8709,-4.8295,4.456,5.6726,
-7.7731,-9.2733,-7.1272,0.47519,-2.3531,-4.2596,-0.46041,-2.4163,-3.5291,-1.472,-2.9637,-1.8888,1.0549,4.1272,
-1.5219,-6.7884,-1.3967,-3.8914,-0.28353,-0.62934,5.352,2.5491,-3.3171,1.991,1.0707,-0.81094,5.8125,2.9155,
1.9432,-8.792,-2.277,2.6084,-4.1231,-1.0737,3.5844,6.2523,-3.6007,-1.5032,-3.3325,-6.0652,9.8019,2.2584,
-0.8245,-5.1309,-4.7919,6.0673,-8.4555,0.19597,-4.102,7.5644,-0.25116,-1.172,-4.3374,-3.0502,8.9728,6.2202,
-3.6673,-4.3409,-6.4324,-1.5274,-2.6453,1.1483,-3.8561,1.3262,-2.1641,-4.4759,-1.6668,-2.8669,3.132,4.8829,
0.16837,-3.8393,-4.8414,-0.7126,-8.0304,-0.60804,-1.4554,1.9698,0.61711,-3.0023,3.4947,-3.9,3.6672,6.2774,
-4.4217,-9.1528,1.4749,4.3916,-21.6486,-5.1511,-4.9837,4.9848,10.9437,3.6855,9.7927,-3.9072,8.5086,7.1054,
-5.361,-12.2188,6.4478,7.7438,-22.1572,-4.6008,-1.5509,0.10622,12.4565,1.7774,11.8565,-1.9853,8.7212,-0.79254,
5.5655,-6.183,4.6147,1.4946,-6.7277,-5.7706,7.2192,-6.6486,3.9963,-3.6319,6.8068,-0.42036,5.3059,-3.637,
13.4265,3.3468,2.8918,-4.8619,7.7759,-10.7272,12.5704,-3.8393,-0.58154,-3.4142,-2.2785,-1.8412,4.5054,-0.044602,
22.5031,16.8845,1.5132,3.8658,21.4094,-12.7344,15.9138,2.4164,-4.6442,-4.8963,-9.6138,-7.2741,2.0657,-4.6214,
35.2529,29.9714,3.3506,6.5263,34.2248,-10.5246,23.636,0.34318,-11.5964,-11.8334,-13.3753,-13.5865,0.013549,-8.2005,
44.1045,42.2732,7.9701,3.7244,46.2713,-11.3391,34.2687,-4.4979,-12.3467,-14.4976,-13.5369,-20.9663,1.9412,-6.262,
53.0271,52.0288,10.3842,4.947,57.5951,-14.5154,42.8177,-6.6384,-10.1598,-20.8588,-13.6888,-24.5288,6.1628,-9.7429,
63.9455,60.7177,11.9303,1.0347,68.2393,-13.4035,43.3821,-2.6247,-10.7555,-25.1509,-15.519,-19.4416,8.9265,-12.7738,
69.8702,67.6797,12.1785,0.49048,78.245,-7.2969,43.1895,-1.985,-10.5924,-20.2672,-15.552,-17.793,6.4625,-11.5256,
68.0884,66.0293,10.4837,6.2459,87.6503,-8.787,48.3107,-7.6507,-8.0284,-21.4615,-17.0288,-26.3666,4.1468,-14.6902,
69.3059,65.4417,9.3726,6.8352,96.4913,-14.0446,46.8586,-4.2994,-6.5826,-24.9945,-18.4174,-22.8562,0.52374,-18.1474,
66.1112,61.515,6.8822,0.64028,104.8018,-11.2735,42.6006,-2.113,-9.0799,-21.5667,-16.3487,-9.4339,-0.47224,-10.3099,
61.1809,57.8243,11.7717,1.084,112.6137,-0.47398,45.3474,-2.9503,1.1061,-7.7389,-4.2803,-6.4576,10.1616,0.43186,
45.2175,45.9187,10.8244,0.77802,119.9569,-10.3279,32.7442,-10.7275,1.7626,-7.998,-1.8543,-19.3265,6.9004,-9.9584,
34.7919,33.5229,9.6928,0.24917,126.3775,-20.7953,24.0308,-10.0836,1.6571,-8.0003,-1.2609,-13.8283,4.5584,-10.8069,
28.8478,22.8346,12.0035,-0.24794,111.0819,-16.6552,24.0355,-5.622,4.9319,-1.7354,-0.70311,-5.7676,5.7309,-2.4455,
20.6092,17.8489,11.5245,0.49007,90.317,-11.0764,21.3878,-3.1157,4.3948,2.4663,-1.384,-7.5909,2.7357,-3.9858,
9.7319,10.5117,6.0126,-0.98537,70.7979,-18.6063,14.8021,-5.3387,2.2031,2.3181,0.14502,-3.7612,-0.3207,-5.1926,
2.6398,-0.48311,3.4824,0.76075,52.4501,-28.3364,7.4063,-10.5622,0.38347,0.97393,-1.5507,0.56202,-0.5422,-1.7478,
0.79423,-7.444,5.9246,2.8843,36.8901,-26.8774,4.7928,-6.795,-0.84483,2.6027,-3.6273,-2.6052,-1.233,-1.4025,
-3.3506,-9.6487,6.7746,1.5061,22.8668,-24.0595,7.6385,-2.7721,-1.0349,3.1697,-2.2041,0.68438,-0.91785,-0.11278,
-5.3187,-11.7213,3.7166,0.69288,12.0947,-24.7851,6.9392,-5.7388,1.6783,-0.63592,-2.7952,2.3305,0.34206,-0.34698,
-2.3487,-13.6694,7.1092,1.8564,11.1279,-20.6469,3.8715,-4.6718,6.6391,-1.3209,-1.9044,-2.3888,-1.8474,-2.0136,
-6.3049,-15.0181,6.4415,0.53992,7.8089,-18.2028,0.50596,-3.186,5.518,1.8916,0.37928,-1.04,-3.9059,-2.1335,
-10.9883,-17.7325,2.4396,-5.518,0.83286,-20.2439,-1.6936,-6.1283,4.4636,2.0191,4.9358,-1.219,3.3183,-4.6571,
-11.0521,-22.6943,-0.84005,-5.9101,-6.2068,-24.5728,-3.2794,-10.3401,1.5445,-4.6098,5.3628,-9.0994,6.2524,-6.5466,
-13.281,-24.2247,-8.0205,-0.25282,-9.6907,-23.0985,-3.5646,-10.684,0.48793,-6.2614,4.0772,-7.1076,2.9848,-4.708,
-15.6174,-24.4587,-7.78,-4.3352,-17.0633,-21.4716,-3.5914,-8.3555,4.0738,0.14009,7.4477,1.2728,4.9751,-2.7381,
-12.9932,-23.714,-2.7334,-3.8342,-18.6906,-21.8703,-3.135,-3.2745,5.0347,1.8189,10.6167,4.3299,9.2563,-1.3685,
-12.9367,-23.4963,-5.2212,0.011548,-14.4359,-19.8352,-4.1519,-3.3192,1.5994,0.022776,8.2923,5.7572,8.9417,-2.0095,
-14.0889,-23.0506,-3.9439,0.010625,-20.3184,-17.1988,-3.4211,-4.5661,3.4314,1.9494,6.3487,4.4476,4.549,-1.4072,
-16.618,-21.1856,-3.7072,-0.47195,-24.4019,-15.203,-5.626,-3.3282,0.81536,-0.095783,5.0035,0.32438,-1.9909,-3.7329,
-19.2362,-18.7094,-5.1718,-2.1311,-17.3944,-9.2294,-5.5296,-2.4054,1.0072,1.597,7.3546,5.3664,0.77989,-2.3039,
-18.082,-20.9613,-1.0051,-1.0389,-18.7609,-6.7472,-4.7155,-4.6712,4.8036,6.8038,8.3596,3.5981,6.9996,-1.6837,
-13.8638,-21.8726,3.6347,-1.2178,-26.5531,-11.4038,-1.7812,-6.5603,5.7204,6.6368,9.0631,-0.71489,4.4107,-2.7878,
-10.8626,-16.4631,1.2473,-4.7599,-21.8266,-12.889,2.4228,-6.4079,8.9924,9.8537,12.1345,6.7996,2.4586,-1.4154,
-17.9238,-16.9213,-2.6842,-6.4027,-20.0353,-9.7055,-7.8457,-9.3977,9.417,11.1909,4.6577,2.535,1.347,-4.7047,
-20.7048,-18.3162,4.2258,-5.0547,-25.5817,-5.2668,-13.6415,-5.4593,11.7445,7.627,1.9681,-8.7039,4.1587,-0.08412,
-14.642,-15.7712,3.0081,-3.3049,-31.7593,-2.5402,-9.9307,-2.2395,10.5576,0.90306,3.7785,-7.2175,3.427,2.8137,
-10.1479,-14.1018,-6.0902,0.50903,-25.2747,3.6378,-6.2016,-0.41813,9.201,5.4279,5.2387,3.5796,4.4264,2.8856,
-16.0467,-16.3889,-3.5554,-3.6191,-20.1426,3.1788,-8.4804,-2.08,9.854,5.8254,5.1656,6.0162,6.3303,1.9893,
-11.7097,-12.0314,2.4423,-1.9559,-22.3087,0.09528,-7.0079,0.45512,7.3348,-1.2728,7.7475,7.1012,4.022,2.3521,
-6.9095,-13.4784,-3.2476,-1.5974,-27.4774,0.33076,-6.3462,0.18662,0.38703,-4.3297,2.7036,6.4339,-3.209,-1.4042,
-9.8696,-12.188,-5.4631,-1.9837,-25.829,2.2389,-6.4476,-1.2706,0.36358,-2.142,0.61297,6.5301,-1.5704,-5.6585,
-13.1338,-7.1184,-6.5816,0.063529,-23.7973,-0.78752,-2.6863,-1.6768,6.6083,-2.0134,2.5044,7.5845,2.8626,0.4656,
-12.5868,-10.7887,-10.2841,-1.1456,-24.5387,-3.8738,-0.83791,-4.7092,6.4532,-0.68734,-0.29697,8.3347,0.5217,5.4989,
-8.9395,-9.177,-5.3287,0.36942,-15.8355,-0.74881,-0.78763,-4.909,3.6554,2.246,3.0948,6.3884,-1.4383,1.3126,
-7.921,-5.7341,-0.67044,-0.61684,-10.0653,-1.6684,-2.1869,-4.6143,4.8821,-0.29915,10.6217,2.1485,-0.38786,-3.1047,
-9.6149,-7.0773,0.092692,-2.2671,-14.5226,-0.84497,-2.2966,-4.0964,6.7588,2.8523,8.2976,4.1887,-0.12316,-1.7132,
-9.0377,-6.6524,-0.39457,-3.5771,-17.9894,0.16983,-2.6405,-3.8504,3.9429,6.5378,2.4973,5.8658,-2.5261,-4.9846,
-6.5675,-2.3971,3.0033,-2.3983,-13.5358,-1.2864,-2.9643,-0.24517,5.1529,3.7356,4.2755,2.1397,-2.3743,-5.6496,
-10.0296,-6.1094,5.7154,2.0841,-16.5803,-2.6552,-8.5708,2.1799,3.8791,1.583,2.091,-0.39908,-3.196,-1.9364,
-11.1153,-11.2867,6.0956,0.75399,-28.3597,-0.80893,-10.7078,-0.12029,1.4774,6.0676,-2.614,1.7943,-4.6917,-1.579,
-7.5561,-9.1635,6.694,-2.6659,-31.4786,-1.7245,-5.7273,-3.4873,1.3886,9.5597,-3.4213,3.6146,-9.2307,-1.9665,
-6.1384,1.0273,5.328,-1.5416,-22.8414,2.2354,-7.3118,0.095938,2.2691,2.7196,-4.1803,0.50517,-9.1587,2.4899,
-4.8065,2.8941,5.0081,-2.4137,-22.917,5.9574,-9.2835,4.9107,5.5077,0.14605,-3.4473,0.95702,1.0315,8.6072,
-5.7229,-5.7152,3.0208,-2.5094,-32.8701,-4.2817,-8.485,1.0011,4.9362,3.7527,-2.0352,4.515,3.1392,2.0652,
-7.3077,-4.4085,-0.53485,-0.43063,-26.5596,-4.507,-6.5301,1.4229,3.1938,2.5632,0.97898,2.7979,-1.3879,-4.3252,
-9.2794,0.67676,-0.02037,-1.3691,-19.6634,9.8634,-6.6203,5.1939,2.5202,-1.4465,3.3308,-0.744,-1.3046,3.1652,
-12.338,-1.533,0.22182,-1.5279,-32.2219,23.3716,-7.4279,7.5334,4.5382,4.1839,6.264,7.7363,2.3891,10.447,
-16.6592,-8.4311,-2.4428,-4.5695,-43.5452,22.2105,-8.1877,7.8045,4.5071,9.9582,9.5034,12.3336,1.0407,8.6147,
-17.5881,-8.4074,-7.1172,-1.4031,-36.5939,25.216,-7.6967,7.8184,2.7902,7.4323,11.8254,6.7731,3.8705,10.5082,
-20.8711,-12.2413,-6.2078,1.0913,-41.1472,23.2211,-7.2349,4.9387,3.5871,4.0943,9.1877,6.3667,5.5665,12.2878,
-22.9933,-18.7372,0.43122,-0.90242,-52.7784,23.2741,-8.7285,6.0891,6.2644,2.8848,6.7087,7.431,0.41224,8.6585,
-25.7108,-16.8903,-5.138,-1.5714,-63.7117,29.3497,-18.087,7.8927,3.7191,2.4705,4.6187,6.7439,-1.2999,5.9696,
-28.5067,-14.9123,-9.1683,-0.99495,-73.989,27.1065,-22.3042,6.455,4.4601,7.1427,7.7163,9.232,2.1527,8.0218,
-25.8325,-15.4643,-4.7618,-0.45332,-78.106,19.6951,-18.5558,3.1752,8.5308,8.16,9.663,6.7494,-0.86941,6.5761,
-19.7028,-18.1514,-4.2351,-1.149,-72.2141,20.2011,-16.2372,2.7442,6.3317,8.3937,7.3964,8.996,-3.4679,6.423,
-16.5924,-18.0266,-2.5348,-2.0444,-69.8097,18.9885,-15.7453,5.4716,1.1316,7.4082,5.5064,19.5435,0.11419,8.9297,
-16.8019,-10.4373,2.1968,-2.1625,-64.4158,13.7521,-16.4876,4.4202,4.1969,3.3485,4.9353,18.1297,-0.1334,7.1888,
-13.6249,-3.3034,2.7881,-2.7559,-50.669,17.5065,-14.7752,2.9499,14.7911,3.8702,7.7724,10.0523,1.5616,6.0344,
-10.397,-3.5873,-0.75337,-2.1083,-47.6288,21.7585,-14.3709,5.6652,8.6013,1.7101,6.8239,10.4132,0.50381,2.78,
-10.0142,-3.1311,0.9786,0.66925,-50.7969,18.7658,-13.7496,8.4588,-1.7972,4.2586,5.2092,17.7422,-2.178,3.8185,
-14.7162,-6.7994,1.4021,-2.2632,-52.5695,10.8912,-14.3706,3.1303,5.5417,8.8235,4.8964,16.6774,-0.60081,6.9636,
-16.0022,-14.8274,-4.2255,0.52392,-49.6563,8.5507,-13.2677,-0.6727,12.6808,6.1252,5.3262,11.0977,2.0866,4.3764,
-13.3548,-17.0712,-8.5517,2.1797,-45.9538,9.2425,-11.2663,2.0188,10.2327,3.5881,4.2833,6.334,0.27414,5.3191,
-13.5176,-12.6723,-3.7,-0.36143,-41.7503,10.6164,-11.072,6.2366,9.619,11.0858,3.5446,7.8824,-0.7064,12.713,
-14.8759,-12.6355,-1.3086,-2.5091,-38.5224,8.7743,-13.5414,3.6931,7.8368,13.072,3.5726,7.1683,-0.90521,9.7808,
-8.681,-12.3595,5.5181,-0.43016,-30.9086,8.2476,-8.3904,4.9175,9.2945,9.8773,2.8761,5.7741,2.5233,2.9272,
-10.0883,-8.7254,7.1157,-0.40435,-25.6797,5.8246,-8.3689,2.2123,5.3624,1.5719,-5.4912,5.4276,-1.4845,2.7516,
-9.242,0.71614,3.5552,-2.0673,-20.5235,6.198,-9.5545,2.3201,3.8354,-0.6916,-3.9569,8.7174,-3.0826,11.0222,
-5.3133,1.6373,-0.51469,-3.8717,-23.1487,7.7545,-12.3554,5.0736,4.5693,4.6523,-0.34522,3.8558,-2.8974,4.5765,
-5.7174,4.1901,2.1677,0.94035,-22.9648,8.4946,-9.4449,6.9384,6.9467,10.8807,0.39885,2.9016,0.89183,-2.206,
-5.1334,11.8925,1.7963,-0.8033,-16.5255,7.7435,-4.2985,5.3168,6.289,10.9512,-0.83037,10.1993,0.11496,-0.38646,
-0.96877,13.1073,-3.1315,-3.6474,-15.0518,10.1716,-6.4509,5.4799,3.0193,9.33,-0.78032,9.1051,-3.2662,1.0832,
-3.08,5.3313,-3.6668,-3.6697,-17.7639,8.3562,-9.6791,5.8743,4.5252,5.155,-2.4205,4.4617,-3.3109,3.6696,
-0.24345,3.3244,-2.2417,-1.2802,-10.6723,3.7573,-5.9651,4.3168,3.531,5.5688,-0.58827,11.6656,0.98531,8.5108,
3.6271,5.535,-6.9279,-0.72143,-2.3192,9.3164,-5.1252,7.4322,-5.358,8.6087,2.8215,17.2322,1.8901,8.964,
-5.2674,2.3107,-7.9583,-5.0167,-3.6265,13.096,-7.2281,8.9142,-8.4107,-0.10275,0.24183,6.5575,-0.6337,4.0877,
-7.1208,2.8947,-4.8295,0.82815,-2.2038,8.2127,-5.5893,4.7642,3.9038,-5.158,3.8425,0.13828,3.5014,3.6017,
-2.3547,-3.5451,-4.5397,4.1529,-5.4456,-0.47481,-10.5562,0.62195,11.3828,0.45455,12.2895,-3.244,5.7019,1.4574,
-4.1416,-9.1174,-2.3391,1.9751,-9.4577,-3.8208,-14.7435,0.58417,9.7355,6.2114,12.0336,-3.0498,2.9492,-0.55827,
-5.8213,1.553,-3.1626,1.3746,-1.6594,-0.21708,-8.5562,-0.89668,7.2232,8.7312,5.0451,6.7741,-0.60171,1.4034,
0.31253,11.1008,-2.9729,0.81024,3.2609,7.0268,-0.81203,0.12099,7.2717,9.1712,0.40407,10.7065,-0.08367,3.2474,
0.77571,7.0603,-3.2764,-0.20224,0.65514,9.0153,-3.1734,4.9344,-0.87733,-1.5019,-8.7792,0.90503,-0.56058,-0.80382,
-1.9222,3.9854,-7.1774,-2.3595,4.713,10.6438,-2.2599,6.3258,-7.3324,-4.0632,-11.3857,2.5377,1.16,2.8596,
-1.8066,0.85395,-12.5316,-5.1102,3.4661,7.5948,-0.19634,-0.32046,-6.4103,-1.409,-9.7385,7.6883,-3.2476,5.5803,
2.158,1.7668,-13.2257,0.49881,3.7403,4.7288,-1.6306,5.9655,-3.6153,-2.2886,-10.1183,6.2629,-7.8733,1.8713,
0.82341,-0.026199,-16.0474,-2.6644,2.7927,5.6501,-4.666,10.1871,-6.0497,-4.3206,-7.3418,3.2358,-4.2676,-0.89233,
-1.8771,-3.1581,-12.4334,-5.1556,-0.50786,7.9626,-2.2169,5.4781,-9.3022,-2.8561,-2.8039,2.8007,2.014,3.2586,
-2.2464,-1.0404,-5.4209,0.93831,1.4508,2.6642,0.80819,4.6674,-6.8158,-0.75655,-1.6718,4.5609,2.857,4.9912,
-2.835,0.70922,-8.2287,1.123,4.0149,0.81709,0.036794,5.5927,-2.3095,-1.4341,-2.2944,6.9383,-0.92937,-1.3338,
-2.9061,-1.0208,-11.3506,0.8144,1.1226,2.4551,-3.0987,2.6058,-3.858,-4.9637,-4.8081,2.4244,-1.1148,0.43324,
-0.08038,-0.71835,-5.1262,1.9706,-0.14978,1.1027,-1.2258,2.6902,-3.3857,-6.3528,-5.2427,-2.3005,1.6034,8.3612,
-1.0392,1.2532,-2.8902,1.8526,0.8233,1.5187,-0.18811,3.9753,-3.1824,-5.9719,-5.4103,-3.6085,-4.2776,3.5215,
-1.7002,2.8648,-2.9578,1.5005,4.3893,3.1148,0.064142,5.4235,-4.1967,-2.4801,-7.2549,-1.7048,-5.7082,0.65862,
-3.0442,1.7292,4.4508,-0.51752,4.1262,-0.44631,-2.832,2.6882,-3.4628,-0.40287,-7.7837,1.2898,-0.54474,4.9576,
-3.8254,3.0717,3.7013,-0.0045333,-2.8703,-2.3477,-4.5898,1.5631,-3.255,-2.3069,-4.9061,1.2124,-7.261,5.1421,
0.50145,5.5385,3.7202,-0.24523,-2.4571,3.8187,-0.69946,4.6023,-2.3363,-3.3738,-1.4787,-0.54758,-12.3689,1.2182,
0.7121,3.0368,5.6664,-1.918,-2.5509,1.9021,-6.2009,2.1568,-3.8836,-2.9306,-5.0051,-5.0942,-8.4935,-0.54191,
0.4284,4.0599,1.711,2.7764,-1.6745,-0.86311,-9.9266,2.7507,-5.3378,-1.0675,-5.4282,-0.69124,-5.3328,3.106,
1.1258,2.6113,-0.56106,2.851,-0.85086,-1.5345,-2.3409,4.2727,-0.91997,-4.1367,-1.9688,2.002,-8.628,2.1965,
0.33515,1.2491,1.1601,5.8132,-1.5229,-2.1655,2.379,-0.5632,0.82223,-3.1654,2.7284,0.67638,-8.3516,-1.0685,
-1.1312,2.1384,-2.284,6.9107,-1.9135,1.8208,-0.65623,-4.3858,-0.19097,2.8091,4.4929,3.0464,-5.4399,3.8158,
-3.2323,-1.6051,-10.1009,1.4346,-1.076,0.024554,-0.85805,-0.98939,4.8819,2.3994,5.4284,3.5863,-5.8366,6.2382,
-2.5566,-3.9191,-13.351,-1.5438,0.43503,-3.8335,1.6038,1.9623,8.9276,-3.529,7.0311,-1.9313,-5.0043,0.079576,
0.48928,3.0645,-8.694,-2.8974,3.7829,4.5916,1.5076,3.2908,2.6069,-6.2097,7.0912,-5.6718,-3.2582,-0.88952,
-0.7456,8.4245,-8.8955,-4.411,6.6892,10.3415,-0.26989,1.4059,-2.1291,-5.114,2.0862,-2.1983,-6.196,-1.0773,
-0.70063,4.0624,-9.8074,-1.2536,6.7705,1.5265,3.1205,-1.0884,11.0143,4.3521,7.2639,2.7541,-1.9676,-2.4587,
-0.89956,-0.27872,-6.5678,-0.4555,4.6766,-3.1448,5.5844,-1.2645,13.0046,6.2597,11.4073,1.3836,2.2478,-2.5522,
-3.4969,6.2457,-8.3431,-5.972,2.709,10.3005,-0.29406,2.427,0.89634,1.305,1.3227,1.0598,-5.3591,-4.086,
-10.0355,7.3172,-12.6628,-16.2185,-9.9871,18.3591,-10.3993,0.35321,-1.5676,-1.1839,-4.5413,-1.4139,-11.3041,-2.877,
-9.4334,6.8782,-3.2264,-10.9071,-23.4878,20.1501,-15.5599,0.33202,1.4185,-3.523,-0.89434,-5.1854,-8.6976,5.4903,
-5.0112,9.3578,-0.62246,-9.2886,-33.527,20.869,-18.001,3.2044,-1.0769,-6.2039,-3.251,-8.7309,-8.6579,1.3047,
-5.6747,8.3142,-11.6721,-15.4799,-31.5154,18.6528,-20.2952,4.9405,-3.4222,-2.4574,-7.8765,-10.6174,-12.4765,-4.076,
-4.1291,9.9847,-12.1768,-11.8998,-22.1527,19.2211,-15.4618,5.3672,-5.8682,-1.1045,-6.6807,-7.811,-13.4154,-0.69815,
-0.50693,12.7596,-0.35947,-12.6321,-18.4136,22.4061,-5.8575,9.3835,-5.0342,-2.0025,-2.4235,-0.59389,-10.2004,-1.1387,
-5.297,6.6916,-5.1584,-17.659,-21.6471,16.7232,-11.2908,7.374,-3.768,-0.91827,-4.6885,0.40584,-12.4806,-2.9983,
-7.6305,4.6031,-11.3561,-9.1274,-18.1789,14.0328,-14.2286,3.3164,-4.2651,2.7525,-4.6479,4.4791,-11.4906,3.6893,
-6.6905,5.773,-1.5164,-2.313,-18.5344,12.2268,-5.1799,1.6714,-5.4552,3.551,-1.4767,3.2462,-9.3551,3.4677,
-4.1197,6.1497,3.6365,-0.96916,-17.1812,8.3599,-2.2178,4.7044,-3.9228,1.6509,-2.1112,-5.3844,-10.9627,-2.2837,
-4.1137,8.4321,-2.607,-3.0799,-11.0888,7.6171,-7.6281,3.6994,-2.4824,-1.0995,-6.0817,-6.2664,-13.4382,-3.3518,
-0.25146,14.916,2.6106,1.2022,-5.3618,12.7037,-3.0731,3.236,-1.1282,1.1357,-2.1018,-2.275,-9.4989,-4.356,
0.96892,11.37,7.9976,1.371,0.98543,12.1824,-0.71953,4.2472,-0.33757,-0.61924,-2.2167,-3.3434,-8.2056,-8.1919,
1.6335,6.5902,6.7946,-3.7727,5.9878,11.2103,-1.8814,3.7511,1.3697,-0.34135,-2.8068,-1.9382,-7.4725,-6.9773,
3.9456,11.497,3.0125,-2.5824,1.7721,11.502,0.15965,0.15162,1.7699,1.6073,2.1823,-1.8219,-5.096,-5.1124,
2.0221,9.6023,1.145,-1.7041,-0.50338,10.089,-0.090893,-2.0266,-0.023523,-2.5865,0.36414,-4.8456,-7.4413,-2.1546,
1.9005,8.0621,-1.3341,-0.15586,7.7218,9.4834,-1.5315,1.4696,-2.9144,-2.4311,-5.9245,-1.1806,-8.9228,3.7595,
5.1607,15.2909,-3.1825,-0.14674,9.6688,11.3248,-0.47594,6.2019,-6.1138,1.571,-2.1948,4.1926,-3.5674,4.498,
6.2976,18.23,1.347,-0.1377,4.7501,12.5737,3.8912,4.8657,-5.7472,3.4051,-0.61659,1.5312,-1.9069,1.8178,
8.3296,18.1003,8.4968,8.5474,7.357,12.7829,6.068,7.948,-5.4026,5.1288,-7.8107,0.95714,-5.6491,3.1548,
9.0351,12.4346,10.1562,5.8654,5.2288,9.3648,2.5705,11.5685,-9.1758,4.5801,-11.9213,0.17635,-6.5154,3.2064,
11.3853,6.868,8.1008,4.5494,4.4329,12.6591,5.3085,12.3204,-1.3941,7.1976,-4.4574,1.1299,1.5885,7.3526,
3.9535,2.1178,-1.5441,4.7586,4.6491,7.5615,4.0259,3.3867,0.13553,1.9452,-5.154,-5.2042,-1.881,1.609,
1.5471,1.2674,-0.72854,4.2317,5.575,0.59985,4.0253,5.3527,-2.0418,0.1413,-1.7113,-4.1691,-4.9017,-1.621,
2.4184,-4.111,1.7255,4.4599,2.3482,2.4923,3.3017,7.9233,-3.3657,3.0251,3.2114,3.3117,-2.1977,6.1888,
4.4422,-4.5875,2.3447,4.9155,-1.4079,7.4042,3.3448,5.2785,-1.4763,6.9407,4.2238,2.3899,0.58551,8.9507,
7.3094,3.1593,0.99938,6.3075,-0.11837,6.2368,2.9033,6.6493,-3.0748,4.8373,2.2834,-2.815,-2.1005,-4.3601,
9.7629,7.7905,-3.3994,5.9291,9.0478,7.3089,5.1393,7.6966,-3.3727,5.5114,2.6288,4.5848,-2.4568,-4.0985,
0.50049,-2.3179,-15.2465,-1.6571,2.2384,1.0858,1.9388,-3.37,-3.6522,4.6988,-0.90342,3.8277,-2.7914,4.8241,
-2.663,-3.3841,-12.6445,2.5397,-9.2241,-0.66662,-1.7934,-0.99914,-3.1921,3.6935,-0.12631,3.3571,-0.45473,5.7399,
-0.33431,-2.9399,-7.3067,2.1461,-8.9119,2.5066,-2.8908,4.6047,-4.6876,2.2668,1.0863,5.3246,-1.6325,-0.14831,
-0.072825,-4.4507,-9.5194,-1.598,-3.3155,-0.29486,0.41611,1.1949,-0.309,1.8898,0.78019,4.7642,-3.2218,-0.38038,
-2.72,-4.4247,-9.1892,-0.29687,-7.2144,-6.3032,0.15018,-0.081638,-0.049492,2.0174,-1.9177,3.7554,-2.3051,-1.5628,
-0.38719,-3.9182,0.76212,3.8183,-5.5757,-0.86284,3.2747,7.3951,-1.2514,4.0655,1.3308,7.6274,2.4129,1.6649,
-1.3285,-6.0935,1.1986,5.9996,-1.385,-2.7395,3.0779,3.5767,-3.5866,0.9293,2.697,3.3132,2.7499,3.9749,
-3.1768,-6.21,2.5727,5.6394,-3.2304,-4.9855,4.3393,-1.9403,-0.47914,0.39138,-1.8034,1.6684,3.549,4.7005,
1.1114,-3.1861,10.8542,3.614,-0.38522,0.85703,4.3201,2.2737,0.27274,-1.3191,-6.2747,7.594,4.0592,3.6953,
4.6597,0.13855,8.5157,3.1562,9.0379,3.9391,4.3019,7.1985,-3.8414,-6.3016,-0.35458,7.8613,2.6103,-0.14182,
1.0059,-4.2083,4.6306,-0.40741,7.5315,0.32853,6.9361,4.3567,-4.5746,-5.9233,1.5951,-2.7331,1.0077,-1.5793,
1.6687,-2.2684,7.9679,2.2679,6.8384,2.9601,9.6532,4.8184,-5.9876,1.9037,-6.4546,-4.2565,2.1523,5.5051,
-0.11822,0.51884,0.018499,1.8913,11.9722,5.4336,4.9766,5.2522,-6.3512,3.9591,-5.8263,2.9887,5.6386,7.3444,
-3.0041,-5.2969,-4.3214,-0.63274,10.7715,1.7332,2.7498,3.0089,-1.6318,1.7929,0.30784,1.3632,7.2284,2.0825,
-1.3776,-5.9434,-4.5445,3.2616,6.7507,2.1111,1.6205,1.864,-0.088116,3.1316,-2.1212,0.31704,4.8665,1.9576,
1.1156,-3.6581,-8.1278,4.5122,5.3818,2.4668,2.0057,3.1984,0.39956,3.4261,-3.4397,6.565,4.5745,3.7688,
0.32581,-6.0902,-4.989,2.5542,6.7461,-0.81467,3.5726,4.6937,1.5809,0.56894,-1.0642,5.9301,4.541,1.3735,
-1.6222,-4.2788,1.0952,-0.97326,9.2337,-4.14,2.3941,1.0379,0.52193,0.53458,-0.51818,0.75383,5.7146,0.32699,
-0.31977,-3.7808,0.78825,-3.0843,3.6182,-8.9531,0.081074,-3.122,-3.607,-3.1127,-1.2102,-1.9427,6.5773,1.0305,
1.6278,-5.9639,4.5976,5.7777,-0.93745,-10.8262,2.9685,-1.0062,-3.3903,-9.6746,-2.1017,-0.38013,4.7366,2.8966,
0.083907,-4.1602,9.142,11.6975,2.4928,-5.8383,5.2005,1.9462,1.6334,-9.0941,-2.4575,3.0171,2.5237,6.0973,
-0.16232,2.1151,3.532,8.8267,4.5126,-2.3548,2.7196,3.0345,-0.1521,-7.8254,-2.5513,2.5949,2.6135,0.67001,
1.2937,5.3622,-1.0182,4.4407,7.1344,-2.2135,1.1101,2.3705,-5.4452,-5.4276,-7.2185,0.99296,2.9386,-6.1191,
-0.23021,1.666,0.0067204,0.79985,5.742,-3.5269,3.4536,1.2639,-4.1546,-2.2099,-10.1598,0.93338,0.83412,-0.44931,
-2.1446,-0.36165,0.48871,3.162,5.8799,-2.351,2.7645,-0.73963,-1.0128,-4.4874,-5.2119,-0.56843,2.2303,2.9521,
-0.81085,-1.0631,0.70012,1.7672,9.1423,-0.040555,0.91116,-1.9008,-1.1932,-6.3876,-1.7659,-4.6319,6.1936,-1.8045,
3.5764,2.3749,2.5865,0.21514,11.486,0.44404,3.2669,1.1056,-2.5677,-4.5578,-4.0699,-2.908,4.376,0.2317,
5.5309,6.8117,-1.1841,2.3714,11.5198,1.1403,5.24,4.1727,-1.6907,-5.4897,-5.9953,4.7383,-0.46586,6.7257,
1.3429,2.0649,-4.4873,1.7469,6.9724,2.5179,3.4796,1.0301,-0.14277,-6.1244,-4.1891,5.4181,0.52619,3.9118,
2.2264,3.3871,-1.3257,2.6062,4.1437,0.92081,2.3067,-2.406,-3.0265,-5.2748,-3.938,1.7188,1.4587,0.3029,
7.1541,12.5838,1.4049,-0.20124,9.4387,-1.3036,4.8194,1.8357,-4.0502,-7.1274,-3.9427,-2.4817,2.0941,2.9358,
6.2427,9.4184,-3.4999,-3.5638,13.6929,-2.6719,3.5661,0.76151,-0.43296,-7.182,-1.2957,-2.8149,2.9325,-0.61455,
1.771,-4.4028,-8.8337,-0.2163,8.7737,-8.5369,2.6295,-5.31,3.6906,-4.0997,8.1818,1.9335,6.8542,-6.6035,
-3.397,-13.0567,-4.6883,1.4839,-1.6346,-19.8353,4.1589,-7.6425,4.6745,-7.9511,13.2345,-4.2081,7.6482,-7.4125,
-5.3625,-12.5145,-2.2376,3.5638,-5.6342,-19.8502,2.222,-5.9788,2.7065,-9.6434,7.379,-12.392,5.0199,-5.2803,
-4.3176,-9.5942,-4.2727,0.69865,-1.1985,-8.2951,0.40164,-6.8252,2.7853,-4.0034,-0.053423,-6.5865,7.852,-3.7584,
-3.8172,-6.8494,-0.40094,-1.9944,4.417,-2.2538,1.1004,-9.0668,4.3054,-0.62966,-2.2194,-0.16579,10.0324,-4.7378,
-3.8293,-2.3413,0.82818,1.7405,6.8033,-4.7699,1.7575,-3.4618,-3.4249,-3.7256,-2.3274,-2.8072,1.9584,0.60748,
-3.1174,-0.75437,-0.18515,1.1544,4.4671,-3.5191,3.5805,1.085,-5.1474,-3.0194,-4.5981,-6.013,-1.0513,6.3558,
-3.6535,0.014019,1.031,-2.5306,0.10153,1.7535,1.6782,-5.0059,-1.7053,-0.66935,-8.4194,-9.7498,1.6631,-1.979,
1.6272,2.6645,2.6562,-1.6556,7.567,1.4071,1.8187,-4.9468,-4.2543,-0.38799,-5.7453,-8.4416,0.84014,-4.994,
8.037,4.6738,1.2915,0.13097,18.4412,2.5275,10.6272,3.3038,-6.1687,-1.0881,-2.7495,-2.3915,-0.89749,1.3312,
3.2162,6.3213,2.66,-3.2516,11.5499,6.2324,14.3281,2.6234,-2.4239,-0.54062,-4.0305,-2.7302,-0.36148,2.2154,
-4.689,6.4244,8.2855,-9.8049,4.5909,5.3766,6.2381,-3.8005,2.0604,-0.99012,-4.2706,-8.8329,0.14214,-2.2558,
0.41278,6.0387,7.7881,-5.3605,13.4742,4.0899,2.4891,-1.1621,-1.9199,-0.44855,-4.9785,-6.8569,1.5796,-4.5308,
5.2085,2.7841,3.4647,-2.6285,12.6655,1.4341,6.6783,-0.12831,-5.6613,-0.42186,-6.6077,-3.0708,-0.4431,-3.2944,
5.8599,5.0272,9.0414,-1.5065,4.6748,-1.5444,12.5441,-2.5307,1.9092,-1.3604,-1.391,-1.4408,-1.3808,1.7235,
1.1699,3.7617,8.4989,-1.8985,2.9485,-6.754,6.9712,-4.7895,-0.61547,-8.0277,-2.2719,-7.6208,-1.298,1.1381,
-3.2388,-0.80254,5.5786,-3.7125,3.7357,-7.3128,0.2862,-5.9481,-5.399,-6.5819,-4.5455,-7.1638,3.6004,1.5516,
-3.5264,-0.272,4.28,0.36662,3.0296,-4.4639,-0.21291,-6.0732,-7.0033,-1.3663,-2.3445,2.9074,4.3487,2.9047,
-1.6276,-2.9072,-2.9667,2.0319,3.5707,-0.58067,1.4871,-6.9136,-12.6086,-6.8279,-6.3012,-1.8463,-0.97346,-4.259,
4.9778,0.40046,0.3446,2.1511,7.936,4.0337,6.4593,-2.4017,-13.0576,-7.1414,-5.6824,-4.8692,-1.6386,-3.7627,
4.1969,4.715,3.2162,5.3963,5.0495,-0.54688,1.2513,-3.2217,-10.8277,-3.8206,-3.895,0.24341,-4.9145,0.31968,
1.5348,2.0217,5.4336,9.893,4.2643,-2.4425,0.69404,-5.9207,-4.8756,-1.181,-3.1796,-2.1815,-1.7274,-2.1099,
3.3706,-2.9201,6.5536,9.7811,4.9726,-2.7781,1.6165,-5.5657,-0.72691,-4.4849,-0.57845,-10.7275,1.2685,-8.25,
6.0609,-0.81666,10.0168,6.7846,6.6024,-4.0572,-4.2651,-9.57,2.6916,-5.6616,3.3126,-8.6376,-2.664,-3.8986,
5.6973,1.1605,16.1642,3.9669,4.76,-3.8138,-6.4193,-10.4421,3.9759,-0.98355,5.0421,-4.7449,-2.986,3.5661,
4.3916,1.5733,16.1587,3.7289,2.5467,-3.585,-3.624,-4.9949,2.7735,1.968,1.3656,-5.9065,-0.39676,-1.4681,
